%OpenBCI Raw EXG Data
%Number of channels = 4
%Sample Rate = 200 Hz
%Board = OpenBCI_GUI$BoardGanglionBLE
Sample Index, EXG Channel 0, EXG Channel 1, EXG Channel 2, EXG Channel 3, Accel Channel 0, Accel Channel 1, Accel Channel 2, Other, Other, Other, Other, Other, Timestamp, Other, Timestamp (Formatted)
2.0, 6.107256627641618, 10.161308179609478, 24.1971527133137, 5.146102339029312, 0.4800000227987766, 0.0, 0.0, 0.0, 0.0, 0.0, 0.0, 0.0, 1.7103915020988717E9, 0.0, 2024-03-13 21:45:02.098
2.0, 12.969973046332598, 11.69092726148665, 7.64435550943017, 10.755952272564173, 0.4800000227987766, 0.0, 0.0, 0.0, 0.0, 0.0, 0.0, 0.0, 1.7103915020988717E9, 0.0, 2024-03-13 21:45:02.098
3.0, 29.059022655710578, 33.89845319837332, 34.58285489026457, 29.107641355134547, 0.4800000227987766, 0.0, 0.0, 0.0, 0.0, 0.0, 0.0, 0.0, 1.7103915021133485E9, 0.0, 2024-03-13 21:45:02.113
3.0, 6.200754126533866, 11.122462468221784, 19.862608664669096, 5.116183139383793, 0.4800000227987766, 0.0, 0.0, 0.0, 0.0, 0.0, 0.0, 0.0, 1.7103915021133485E9, 0.0, 2024-03-13 21:45:02.113
4.0, -11.29075796622783, -10.737252772785723, -11.111242768354714, -14.196660231798887, 0.4800000227987766, 0.0, 0.0, 0.0, 0.0, 0.0, 0.0, 0.0, 1.71039150211398E9, 0.0, 2024-03-13 21:45:02.113
4.0, -10.209926879033446, -2.300038472749293, 1.8849095776677132, -8.276398601941764, 0.4800000227987766, 0.0, 0.0, 0.0, 0.0, 0.0, 0.0, 0.0, 1.71039150211398E9, 0.0, 2024-03-13 21:45:02.113
5.0, -25.69685259554535, -16.47425930481404, 5.381716036237776, -16.9342669993639, 0.4800000227987766, 0.0, 0.0, 0.0, 0.0, 0.0, 0.0, 0.0, 1.7103915021276631E9, 0.0, 2024-03-13 21:45:02.127
5.0, -32.68672561272979, -30.58864173758775, -12.352889553643763, -27.70517887175083, 0.4800000227987766, 0.0, 0.0, 0.0, 0.0, 0.0, 0.0, 0.0, 1.7103915021276631E9, 0.0, 2024-03-13 21:45:02.127
6.0, -27.664039972238243, -27.30500957649201, -13.867549035698175, -22.46931893378496, 0.4800000227987766, 0.0, 0.0, 0.0, 0.0, 0.0, 0.0, 0.0, 1.7103915021433194E9, 0.0, 2024-03-13 21:45:02.143
6.0, -30.491404338739812, -28.468118462711573, 1.3351442841812968, -23.456652522087097, 0.4800000227987766, 0.0, 0.0, 0.0, 0.0, 0.0, 0.0, 0.0, 1.7103915021433194E9, 0.0, 2024-03-13 21:45:02.143
7.0, -45.38368596229702, -43.020069190301, -7.431181211955845, -34.51179679110646, 0.4800000227987766, 0.0, 0.0, 0.0, 0.0, 0.0, 0.0, 0.0, 1.7103915021441712E9, 0.0, 2024-03-13 21:45:02.144
7.0, -45.4285647617653, -46.943224243819714, -23.909180416725576, -36.66223926562816, 0.4800000227987766, 0.0, 0.0, 0.0, 0.0, 0.0, 0.0, 0.0, 1.7103915021441712E9, 0.0, 2024-03-13 21:45:02.144
8.0, -45.07327426597476, -43.88024618010968, -15.32237011846155, -37.08484796062112, 0.4800000227987766, 0.0, 0.0, 0.0, 0.0, 0.0, 0.0, 0.0, 1.7103915021578672E9, 0.0, 2024-03-13 21:45:02.157
8.0, -56.805340426974, -55.698330040089786, -12.8577760476619, -51.1356520941481, 0.4800000227987766, 0.0, 0.0, 0.0, 0.0, 0.0, 0.0, 0.0, 1.7103915021578672E9, 0.0, 2024-03-13 21:45:02.157
9.0, -60.171250387094915, -60.182470086961985, -33.42722580395639, -48.925371220335364, 0.4800000227987766, 0.0, 0.0, 0.0, 0.0, 0.0, 0.0, 0.0, 1.7103915021733158E9, 0.0, 2024-03-13 21:45:02.173
9.0, -51.666717887856066, -50.27173520438373, -18.97999227512628, -39.616760230623186, 0.4800000227987766, 0.0, 0.0, 0.0, 0.0, 0.0, 0.0, 0.0, 1.7103915021733158E9, 0.0, 2024-03-13 21:45:02.173
10.0, -58.23024231009185, -52.137945282272995, -12.147195056080818, -45.57068096008152, 0.4800000227987766, 0.0, 0.43200002051889896, 0.0, 0.0, 0.0, 0.0, 0.0, 1.7103915021740255E9, 0.0, 2024-03-13 21:45:02.174
10.0, -57.321446620859206, -50.110919506289065, -23.239738324657083, -52.34737967979163, 0.4800000227987766, 0.0, 0.43200002051889896, 0.0, 0.0, 0.0, 0.0, 0.0, 1.7103915021740255E9, 0.0, 2024-03-13 21:45:02.174
11.0, -40.843447416089475, -41.640046106651425, -20.46099265757948, -37.07362826075405, 0.4800000227987766, 0.8160000387579203, 0.43200002051889896, 0.0, 0.0, 0.0, 0.0, 0.0, 1.7103915021876445E9, 0.0, 2024-03-13 21:45:02.187
11.0, -39.83741432800889, -32.99713730905205, -4.398122347891331, -28.96178525686264, 0.4800000227987766, 0.8160000387579203, 0.43200002051889896, 0.0, 0.0, 0.0, 0.0, 0.0, 1.7103915021876445E9, 0.0, 2024-03-13 21:45:02.187
12.0, -46.95070404373109, -39.97953052632511, -12.315490554086864, -35.41311268042773, 0.49600002355873585, 0.8160000387579203, 0.43200002051889896, 0.0, 0.0, 0.0, 0.0, 0.0, 1.7103915022033892E9, 0.0, 2024-03-13 21:45:02.203
12.0, -34.63895338959992, -32.1257406193763, -25.28920350037515, -25.573435897007585, 0.49600002355873585, 0.8160000387579203, 0.43200002051889896, 0.0, 0.0, 0.0, 0.0, 0.0, 1.7103915022033892E9, 0.0, 2024-03-13 21:45:02.203
13.0, -33.36738740466535, -23.553889920935035, -4.293405149132013, -20.54327045660466, 0.49600002355873585, 0.8160000387579203, 0.43200002051889896, 0.0, 0.0, 0.0, 0.0, 0.0, 1.7103915022042437E9, 0.0, 2024-03-13 21:45:02.204
13.0, -33.92089259810746, -24.354228511452675, -3.051758363842964, -28.15770676638931, 0.49600002355873585, 0.8160000387579203, 0.43200002051889896, 0.0, 0.0, 0.0, 0.0, 0.0, 1.7103915022042437E9, 0.0, 2024-03-13 21:45:02.204
14.0, -35.51408997923136, -31.45629852730781, -22.787210430018604, -25.838968793861568, 0.49600002355873585, 0.8160000387579203, 0.43200002051889896, 0.0, 0.0, 0.0, 0.0, 0.0, 1.7103915022176473E9, 0.0, 2024-03-13 21:45:02.217
14.0, -35.607587478123605, -27.02077717985958, -15.146594820544124, -26.1606001900509, 0.49600002355873585, 0.8160000387579203, 0.43200002051889896, 0.0, 0.0, 0.0, 0.0, 0.0, 1.7103915022176473E9, 0.0, 2024-03-13 21:45:02.217
15.0, -41.8719199039042, -31.471258127130568, -8.414774900302291, -32.357614416629076, 0.49600002355873585, 0.8160000387579203, 0.43200002051889896, 0.0, 0.0, 0.0, 0.0, 0.0, 1.7103915022333403E9, 0.0, 2024-03-13 21:45:02.233
15.0, -43.58853398356587, -42.38054629787803, -24.14105421397835, -41.41565210931003, 0.49600002355873585, 0.8160000387579203, 0.43200002051889896, 0.0, 0.0, 0.0, 0.0, 0.0, 1.7103915022333403E9, 0.0, 2024-03-13 21:45:02.233
16.0, -33.606741001829505, -30.62604073714465, -22.16264713741839, -29.975298144854605, 0.49600002355873585, 0.8160000387579203, 0.43200002051889896, 0.0, 0.0, 0.0, 0.0, 0.0, 1.7103915022340462E9, 0.0, 2024-03-13 21:45:02.234
16.0, -37.668272353708744, -32.6081877136603, -10.097729880362749, -34.64269328955561, 0.49600002355873585, 0.8160000387579203, 0.43200002051889896, 0.0, 0.0, 0.0, 0.0, 0.0, 1.7103915022340462E9, 0.0, 2024-03-13 21:45:02.234
17.0, -41.999076502397656, -40.398399321362376, -18.288110783323646, -41.3146748105064, 0.49600002355873585, 0.8160000387579203, 0.43200002051889896, 0.0, 0.0, 0.0, 0.0, 0.0, 1.710391502247949E9, 0.0, 2024-03-13 21:45:02.247
17.0, -35.68986527714878, -32.55208921432495, -30.278230041265488, -30.96263173315674, 0.49600002355873585, 0.8160000387579203, 0.43200002051889896, 0.0, 0.0, 0.0, 0.0, 0.0, 1.710391502247949E9, 0.0, 2024-03-13 21:45:02.247
18.0, -32.30899571720511, -26.20547898951918, -13.018591745756567, -28.849588258191943, 0.49600002355873585, 0.8160000387579203, 0.43200002051889896, 0.0, 0.0, 0.0, 0.0, 0.0, 1.7103915022639582E9, 0.0, 2024-03-13 21:45:02.263
18.0, -42.61615999508649, -35.607587478123605, -12.648341650143266, -41.610126907005906, 0.49600002355873585, 0.8160000387579203, 0.43200002051889896, 0.0, 0.0, 0.0, 0.0, 0.0, 1.7103915022639582E9, 0.0, 2024-03-13 21:45:02.263
19.0, -41.684924906119704, -37.82908805180341, -27.634120772592723, -34.863347386941314, 0.49600002355873585, 0.8160000387579203, 0.43200002051889896, 0.0, 0.0, 0.0, 0.0, 0.0, 1.7103915022642524E9, 0.0, 2024-03-13 21:45:02.264
19.0, -36.89785296283662, -30.790596335195005, -17.869241988286376, -29.216098453849554, 0.49600002355873585, 0.8160000387579203, 0.43200002051889896, 0.0, 0.0, 0.0, 0.0, 0.0, 1.7103915022642524E9, 0.0, 2024-03-13 21:45:02.264
20.0, -35.82824157550931, -28.5316967619583, -8.990719493478537, -33.67779910098761, 0.49600002355873585, 0.8160000387579203, 0.43200002051889896, 0.0, 0.0, 0.0, 0.0, 0.0, 1.7103915022780879E9, 0.0, 2024-03-13 21:45:02.278
20.0, -37.08110806066543, -34.807248887605965, -19.578376268036664, -33.90219309832901, 0.49600002355873585, 0.8160000387579203, 0.43200002051889896, 0.0, 0.0, 0.0, 0.0, 0.0, 1.7103915022780879E9, 0.0, 2024-03-13 21:45:02.278
21.0, -23.27713732421398, -17.442893393337727, -17.087602897547185, -16.197506708092988, 0.49600002355873585, 0.8320000395178795, 0.43200002051889896, 0.0, 0.0, 0.0, 0.0, 0.0, 1.710391502293409E9, 0.0, 2024-03-13 21:45:02.293
21.0, -27.907133469358087, -21.201492848806083, 0.0523585993796587, -19.436260069720447, 0.49600002355873585, 0.8320000395178795, 0.43200002051889896, 0.0, 0.0, 0.0, 0.0, 0.0, 1.710391502293409E9, 0.0, 2024-03-13 21:45:02.293
22.0, -26.18677948974073, -20.734005354344845, 1.2005078857764602, -16.724832601845264, 0.49600002355873585, 0.8320000395178795, 0.43200002051889896, 0.0, 0.0, 0.0, 0.0, 0.0, 1.7103915022940805E9, 0.0, 2024-03-13 21:45:02.294
22.0, -20.801323553547263, -16.182547108270228, -10.636275473982096, -9.069257392548025, 0.49600002355873585, 0.8320000395178795, 0.43200002051889896, 0.0, 0.0, 0.0, 0.0, 0.0, 1.7103915022940805E9, 0.0, 2024-03-13 21:45:02.294
23.0, -16.55279720388353, -9.24503269046545, 3.1489957626909018, -7.6667949091643095, 0.49600002355873585, 0.8320000395178795, 0.43200002051889896, 0.0, 0.0, 0.0, 0.0, 0.0, 1.7103915023076737E9, 0.0, 2024-03-13 21:45:02.307
23.0, -30.52880333829671, -15.142854920588434, 8.934620994143188, -13.575836839154363, 0.49600002355873585, 0.8320000395178795, 0.43200002051889896, 0.0, 0.0, 0.0, 0.0, 0.0, 1.7103915023076737E9, 0.0, 2024-03-13 21:45:02.307
24.0, -18.703239678405225, -12.4501269524917, -6.4999461229890585, -8.777545196004212, 0.49600002355873585, 0.8320000395178795, 0.43200002051889896, 0.0, 0.0, 0.0, 0.0, 0.0, 1.710391502323462E9, 0.0, 2024-03-13 21:45:02.323
24.0, -7.079630616120994, 1.1406694864854217, 4.884309342131019, -2.1953212739899755, 0.49600002355873585, 0.8320000395178795, 0.43200002051889896, 0.0, 0.0, 0.0, 0.0, 0.0, 1.710391502323462E9, 0.0, 2024-03-13 21:45:02.323
25.0, -16.739792201668024, -4.903008841909468, 15.875875311903656, -12.154674855992198, 0.49600002355873585, 0.8320000395178795, 0.43200002051889896, 0.0, 0.0, 0.0, 0.0, 0.0, 1.7103915023243887E9, 0.0, 2024-03-13 21:45:02.324
25.0, -20.47595225740224, -12.259392054751515, 3.7585994554683566, -10.699853773228824, 0.49600002355873585, 0.8320000395178795, 0.43200002051889896, 0.0, 0.0, 0.0, 0.0, 0.0, 1.7103915023243887E9, 0.0, 2024-03-13 21:45:02.324
26.0, -9.428287788294256, -0.44504809472709894, 1.768972679041326, -3.332250860519707, 0.49600002355873585, 0.8320000395178795, 0.43200002051889896, 0.0, 0.0, 0.0, 0.0, 0.0, 1.7103915023377988E9, 0.0, 2024-03-13 21:45:02.337
26.0, -17.225979195907712, -2.165402074344456, 13.560877239331603, -7.606956509873271, 0.49600002355873585, 0.8320000395178795, 0.43200002051889896, 0.0, 0.0, 0.0, 0.0, 0.0, 1.7103915023377988E9, 0.0, 2024-03-13 21:45:02.337
27.0, -26.672966483980417, -13.175667543895543, 6.556044622324407, -16.979145798832178, 0.49600002355873585, 0.8320000395178795, 0.43200002051889896, 0.0, 0.0, 0.0, 0.0, 0.0, 1.7103915023533683E9, 0.0, 2024-03-13 21:45:02.353
27.0, -19.978545563295484, -12.835336647927761, -4.802031543105841, -8.627949197776616, 0.49600002355873585, 0.8320000395178795, 0.43200002051889896, 0.0, 0.0, 0.0, 0.0, 0.0, 1.7103915023533683E9, 0.0, 2024-03-13 21:45:02.353
28.0, -13.112089244648814, 1.1369295865297318, 16.06661020964384, -0.9574143886566162, 0.49600002355873585, 0.8320000395178795, 0.43200002051889896, 0.0, 0.0, 0.0, 0.0, 0.0, 1.7103915023540542E9, 0.0, 2024-03-13 21:45:02.354
28.0, -26.639307384379208, -16.96418619900942, 4.917968441732228, -15.864655612036586, 0.49600002355873585, 0.8320000395178795, 0.43200002051889896, 0.0, 0.0, 0.0, 0.0, 0.0, 1.7103915023540542E9, 0.0, 2024-03-13 21:45:02.354
29.0, -26.355074987746775, -15.73001921363175, -14.996998822316527, -16.84076950047165, 0.49600002355873585, 0.8320000395178795, 0.43200002051889896, 0.0, 0.0, 0.0, 0.0, 0.0, 1.7103915023681676E9, 0.0, 2024-03-13 21:45:02.368
29.0, -23.39307422284037, -11.971419758163393, -5.65098883304745, -8.4484339999035, 0.49600002355873585, 0.8320000395178795, 0.43200002051889896, 0.0, 0.0, 0.0, 0.0, 0.0, 1.7103915023681676E9, 0.0, 2024-03-13 21:45:02.368
30.0, -27.177852977998555, -18.46762598119676, 2.973220464773476, -20.610588655807078, 0.49600002355873585, 0.8320000395178795, 0.43200002051889896, 0.0, 0.0, 0.0, 0.0, 0.0, 1.7103915023833945E9, 0.0, 2024-03-13 21:45:02.383
30.0, -30.61108113732189, -30.57368213776499, -14.07324353326112, -28.56161596160382, 0.49600002355873585, 0.8320000395178795, 0.43200002051889896, 0.0, 0.0, 0.0, 0.0, 0.0, 1.7103915023833945E9, 0.0, 2024-03-13 21:45:02.383
31.0, -25.74173139501363, -22.394520934671164, -17.087602897547185, -18.314290083013475, 0.49600002355873585, 0.8160000387579203, 0.43200002051889896, 0.0, 0.0, 0.0, 0.0, 0.0, 1.71039150238413E9, 0.0, 2024-03-13 21:45:02.384
31.0, -27.81737587042153, -15.543024215847254, 5.789365131407976, -17.484032292850316, 0.49600002355873585, 0.8160000387579203, 0.43200002051889896, 0.0, 0.0, 0.0, 0.0, 0.0, 1.71039150238413E9, 0.0, 2024-03-13 21:45:02.384
32.0, -32.817622111178935, -22.009311239235103, -2.3224778724834323, -20.449772957712412, 0.4800000227987766, 0.8160000387579203, 0.43200002051889896, 0.0, 0.0, 0.0, 0.0, 0.0, 1.7103915023979108E9, 0.0, 2024-03-13 21:45:02.397
32.0, -32.043462820351124, -20.92848015204072, -20.8611619528383, -22.274844136089087, 0.4800000227987766, 0.8160000387579203, 0.43200002051889896, 0.0, 0.0, 0.0, 0.0, 0.0, 1.7103915023979108E9, 0.0, 2024-03-13 21:45:02.397
33.0, -27.267610576935112, -11.66474796179682, -0.8601769898086786, -15.374728717841208, 0.4800000227987766, 0.8160000387579203, 0.43200002051889896, 0.0, 0.0, 0.0, 0.0, 0.0, 1.7103915024137428E9, 0.0, 2024-03-13 21:45:02.413
33.0, -30.55872253794223, -16.08904960937798, 6.365309724584222, -22.98168522771448, 0.4800000227987766, 0.8160000387579203, 0.43200002051889896, 0.0, 0.0, 0.0, 0.0, 0.0, 1.7103915024137428E9, 0.0, 2024-03-13 21:45:02.413
34.0, -27.529403573833406, -24.14105421397835, -15.049357421696186, -24.48512500990182, 0.4800000227987766, 0.8160000387579203, 0.43200002051889896, 0.0, 0.0, 0.0, 0.0, 0.0, 1.7103915024142928E9, 0.0, 2024-03-13 21:45:02.414
34.0, -15.228872619569302, -7.63687570951879, -2.0307656759396195, -13.70299343764782, 0.4800000227987766, 0.8160000387579203, 0.43200002051889896, 0.0, 0.0, 0.0, 0.0, 0.0, 1.7103915024142928E9, 0.0, 2024-03-13 21:45:02.414
35.0, -23.460392422042787, -10.08651018049568, 10.987826069816947, -17.23719889577478, 0.4800000227987766, 0.8160000387579203, 0.43200002051889896, 0.0, 0.0, 0.0, 0.0, 0.0, 1.7103915024277968E9, 0.0, 2024-03-13 21:45:02.427
35.0, -27.465825274586678, -18.336729482747614, -7.513459010981023, -19.537237368524075, 0.4800000227987766, 0.8160000387579203, 0.43200002051889896, 0.0, 0.0, 0.0, 0.0, 0.0, 1.7103915024277968E9, 0.0, 2024-03-13 21:45:02.427
36.0, -15.520584816113114, -8.115582903847098, -10.965386670082808, -10.45676027610898, 0.4800000227987766, 0.8160000387579203, 0.43200002051889896, 0.0, 0.0, 0.0, 0.0, 0.0, 1.7103915024433591E9, 0.0, 2024-03-13 21:45:02.443
36.0, -14.92594072315842, -1.1070103868842125, 5.359276636503637, -10.827010371722281, 0.4800000227987766, 0.8160000387579203, 0.43200002051889896, 0.0, 0.0, 0.0, 0.0, 0.0, 1.7103915024433591E9, 0.0, 2024-03-13 21:45:02.443
37.0, -24.694559407420456, -15.135375120677054, -3.8820161540061235, -24.032597115263343, 0.4800000227987766, 0.8160000387579203, 0.43200002051889896, 0.0, 0.0, 0.0, 0.0, 0.0, 1.7103915024441636E9, 0.0, 2024-03-13 21:45:02.444
37.0, -16.769711401313543, -6.413928424008191, -14.761385125108063, -11.818083859980106, 0.4800000227987766, 0.8160000387579203, 0.43200002051889896, 0.0, 0.0, 0.0, 0.0, 0.0, 1.7103915024441636E9, 0.0, 2024-03-13 21:45:02.444
38.0, -16.06661020964384, -2.6852481681853533, 5.800584831275046, -7.917368206195533, 0.4800000227987766, 0.8160000387579203, 0.43200002051889896, 0.0, 0.0, 0.0, 0.0, 0.0, 1.7103915024576895E9, 0.0, 2024-03-13 21:45:02.457
38.0, -24.006417815573514, -10.43806077633053, 6.413928424008191, -12.356629453599453, 0.4800000227987766, 0.8160000387579203, 0.43200002051889896, 0.0, 0.0, 0.0, 0.0, 0.0, 1.7103915024576895E9, 0.0, 2024-03-13 21:45:02.457
39.0, -20.685386654920876, -10.45302037615329, -5.478953435085714, -8.310057701542974, 0.4800000227987766, 0.8160000387579203, 0.43200002051889896, 0.0, 0.0, 0.0, 0.0, 0.0, 1.7103915024733505E9, 0.0, 2024-03-13 21:45:02.473
39.0, -12.87647554744035, 1.1593689862638712, 4.184948050417006, -1.0770911872386932, 0.4800000227987766, 0.8160000387579203, 0.43200002051889896, 0.0, 0.0, 0.0, 0.0, 0.0, 1.7103915024733505E9, 0.0, 2024-03-13 21:45:02.473
40.0, -14.50333202816546, 4.1662485506385565, 18.385348182171583, -4.334544048644602, 0.4800000227987766, 0.8160000387579203, 0.4480000212788582, 0.0, 0.0, 0.0, 0.0, 0.0, 1.7103915024740956E9, 0.0, 2024-03-13 21:45:02.474
40.0, -19.597075767815113, -10.557737574912608, 2.8011850668117404, -8.635428997687995, 0.4800000227987766, 0.8160000387579203, 0.4480000212788582, 0.0, 0.0, 0.0, 0.0, 0.0, 1.7103915024740956E9, 0.0, 2024-03-13 21:45:02.474
41.0, -8.523231999017298, 4.592597145587206, 0.7816390907391906, 4.4056021478027105, 0.4800000227987766, 0.8320000395178795, 0.4480000212788582, 0.0, 0.0, 0.0, 0.0, 0.0, 1.7103915024879048E9, 0.0, 2024-03-13 21:45:02.487
41.0, -10.714813373051584, 2.0831242753192782, 17.34939589444548, -3.2873720610514283, 0.4800000227987766, 0.8320000395178795, 0.4480000212788582, 0.0, 0.0, 0.0, 0.0, 0.0, 1.7103915024879048E9, 0.0, 2024-03-13 21:45:02.487
42.0, -18.419007281772792, -2.01206617616117, 11.990119257941842, -7.790211607702076, 0.49600002355873585, 0.8320000395178795, 0.4480000212788582, 0.0, 0.0, 0.0, 0.0, 0.0, 1.7103915025033581E9, 0.0, 2024-03-13 21:45:02.503
42.0, -13.085909944958985, -5.564971134066582, -2.6777683682739735, -2.247679873369634, 0.49600002355873585, 0.8320000395178795, 0.4480000212788582, 0.0, 0.0, 0.0, 0.0, 0.0, 1.7103915025033581E9, 0.0, 2024-03-13 21:45:02.503
43.0, -3.695021156221628, 9.589103486388922, 10.381962276995182, 1.20424778573215, 0.49600002355873585, 0.8320000395178795, 0.4480000212788582, 0.0, 0.0, 0.0, 0.0, 0.0, 1.710391502504084E9, 0.0, 2024-03-13 21:45:02.504
43.0, -14.581869927234948, -0.9574143886566162, 14.323816830292344, -7.614436309784651, 0.49600002355873585, 0.8320000395178795, 0.4480000212788582, 0.0, 0.0, 0.0, 0.0, 0.0, 1.710391502504084E9, 0.0, 2024-03-13 21:45:02.504
44.0, -7.9472874058410525, 3.941854553297162, 1.409942283295095, -5.770665631629527, 0.49600002355873585, 0.8320000395178795, 0.4480000212788582, 0.0, 0.0, 0.0, 0.0, 0.0, 1.7103915025177453E9, 0.0, 2024-03-13 21:45:02.517
44.0, -3.145255862735212, 8.743886096403003, 4.906748741865158, -1.0995305869728327, 0.49600002355873585, 0.8320000395178795, 0.4480000212788582, 0.0, 0.0, 0.0, 0.0, 0.0, 1.7103915025177453E9, 0.0, 2024-03-13 21:45:02.517
45.0, -4.02039245236665, 3.8371373545378447, 21.29125044774264, -3.459407459013164, 0.49600002355873585, 0.8320000395178795, 0.4480000212788582, 0.0, 0.0, 0.0, 0.0, 0.0, 1.7103915025333822E9, 0.0, 2024-03-13 21:45:02.533
45.0, -10.411881476640701, -0.9761138884350657, 7.775252007879317, -4.42430164758116, 0.49600002355873585, 0.8320000395178795, 0.4480000212788582, 0.0, 0.0, 0.0, 0.0, 0.0, 1.7103915025333822E9, 0.0, 2024-03-13 21:45:02.533
46.0, -3.6875413563102484, 8.635428997687995, 4.884309342131019, 0.9574143886566162, 0.49600002355873585, 0.8320000395178795, 0.4480000212788582, 0.0, 0.0, 0.0, 0.0, 0.0, 1.7103915025341392E9, 0.0, 2024-03-13 21:45:02.534
46.0, -13.953566734679043, 6.167095026932657, 14.727726025506854, -3.9568141531199217, 0.49600002355873585, 0.8320000395178795, 0.4480000212788582, 0.0, 0.0, 0.0, 0.0, 0.0, 1.7103915025341392E9, 0.0, 2024-03-13 21:45:02.534
47.0, -7.326464013196528, 2.296298572793603, 17.843062688596547, -3.3995690597221255, 0.49600002355873585, 0.8320000395178795, 0.4480000212788582, 0.0, 0.0, 0.0, 0.0, 0.0, 1.710391502547706E9, 0.0, 2024-03-13 21:45:02.547
47.0, -7.3040246134623885, 3.6763216564431787, 1.6979145798832178, 1.4436013828963041, 0.49600002355873585, 0.8320000395178795, 0.4480000212788582, 0.0, 0.0, 0.0, 0.0, 0.0, 1.710391502547706E9, 0.0, 2024-03-13 21:45:02.547
48.0, -4.6486956449225545, 14.791304324753582, 18.16095418483019, 5.8155444310978055, 0.49600002355873585, 0.8320000395178795, 0.4480000212788582, 0.0, 0.0, 0.0, 0.0, 0.0, 1.7103915025636344E9, 0.0, 2024-03-13 21:45:02.563
48.0, -10.699853773228824, 4.1662485506385565, 24.051296615041792, -2.6740284683182836, 0.49600002355873585, 0.8320000395178795, 0.4480000212788582, 0.0, 0.0, 0.0, 0.0, 0.0, 1.7103915025636344E9, 0.0, 2024-03-13 21:45:02.563
49.0, -12.352889553643763, -9.23755289055407, -3.0480184638872743, -6.668241620995104, 0.49600002355873585, 0.8320000395178795, 0.4480000212788582, 0.0, 0.0, 0.0, 0.0, 0.0, 1.7103915025642548E9, 0.0, 2024-03-13 21:45:02.564
49.0, -14.50707192812115, -8.01834550499916, -0.18699499778449535, -6.466287023387849, 0.49600002355873585, 0.8320000395178795, 0.4480000212788582, 0.0, 0.0, 0.0, 0.0, 0.0, 1.7103915025642548E9, 0.0, 2024-03-13 21:45:02.564
50.0, -16.07782990951091, -3.537945358082652, 7.027272016741335, -12.539884551428258, 0.49600002355873585, 0.8320000395178795, 0.4480000212788582, 0.0, 0.0, 0.0, 0.0, 0.0, 1.7103915025778427E9, 0.0, 2024-03-13 21:45:02.577
50.0, -29.197398954071105, -20.651727555319667, -8.934620994143188, -25.34156209975481, 0.49600002355873585, 0.8320000395178795, 0.4480000212788582, 0.0, 0.0, 0.0, 0.0, 0.0, 1.7103915025778427E9, 0.0, 2024-03-13 21:45:02.577
51.0, -14.89228162355721, -10.213666778989136, -12.199553655460477, -16.96418619900942, 0.49600002355873585, 0.8160000387579203, 0.4480000212788582, 0.0, 0.0, 0.0, 0.0, 0.0, 1.7103915025933242E9, 0.0, 2024-03-13 21:45:02.593
51.0, -17.884201588109136, -12.988672546111047, 6.589703721925616, -14.690327025949955, 0.49600002355873585, 0.8160000387579203, 0.4480000212788582, 0.0, 0.0, 0.0, 0.0, 0.0, 1.7103915025933242E9, 0.0, 2024-03-13 21:45:02.593
52.0, -21.119215049780905, -17.76078488957137, -0.7143208915367723, -21.66898034326732, 0.49600002355873585, 0.8160000387579203, 0.4480000212788582, 0.0, 0.0, 0.0, 0.0, 0.0, 1.7103915025940516E9, 0.0, 2024-03-13 21:45:02.594
52.0, -20.049603662453592, -20.51335125695914, -20.18797996081412, -17.69720659032464, 0.49600002355873585, 0.8160000387579203, 0.4480000212788582, 0.0, 0.0, 0.0, 0.0, 0.0, 1.7103915025940516E9, 0.0, 2024-03-13 21:45:02.594
53.0, -14.245278931222856, -8.82242399547249, 2.659068868495524, -11.017745269462466, 0.49600002355873585, 0.8160000387579203, 0.4480000212788582, 0.0, 0.0, 0.0, 0.0, 0.0, 1.7103915026077342E9, 0.0, 2024-03-13 21:45:02.607
53.0, -34.24252399429679, -28.041769867762923, -3.0854174634441733, -27.671519772149622, 0.49600002355873585, 0.8160000387579203, 0.4480000212788582, 0.0, 0.0, 0.0, 0.0, 0.0, 1.7103915026077342E9, 0.0, 2024-03-13 21:45:02.607
54.0, -25.233105001039803, -23.475352021865547, -16.4518199050799, -21.496944945305586, 0.49600002355873585, 0.8160000387579203, 0.4480000212788582, 0.0, 0.0, 0.0, 0.0, 0.0, 1.710391502623416E9, 0.0, 2024-03-13 21:45:02.623
54.0, -27.73883797135204, -29.40309345163405, -20.326356259174645, -28.763570559211075, 0.49600002355873585, 0.8160000387579203, 0.4480000212788582, 0.0, 0.0, 0.0, 0.0, 0.0, 1.710391502623416E9, 0.0, 2024-03-13 21:45:02.623
55.0, -18.355428982526064, -13.429980740882456, 12.629642150364816, -13.30656404234469, 0.49600002355873585, 0.8160000387579203, 0.4480000212788582, 0.0, 0.0, 0.0, 0.0, 0.0, 1.7103915026240811E9, 0.0, 2024-03-13 21:45:02.624
55.0, -31.34036162868142, -30.790596335195005, -15.494405516423285, -32.29029621742666, 0.49600002355873585, 0.8160000387579203, 0.4480000212788582, 0.0, 0.0, 0.0, 0.0, 0.0, 1.7103915026240811E9, 0.0, 2024-03-13 21:45:02.624
56.0, -31.661993024870753, -29.305856052786112, -23.108841826207936, -29.915459745563567, 0.49600002355873585, 0.8160000387579203, 0.4480000212788582, 0.0, 0.0, 0.0, 0.0, 0.0, 1.7103915026376972E9, 0.0, 2024-03-13 21:45:02.637
56.0, -13.063470545224845, -9.323570589534938, 8.751365896314383, -15.109195820987225, 0.49600002355873585, 0.8160000387579203, 0.4480000212788582, 0.0, 0.0, 0.0, 0.0, 0.0, 1.7103915026376972E9, 0.0, 2024-03-13 21:45:02.637
57.0, -26.355074987746775, -20.838722553104162, -0.7330203913152218, -17.154921096749604, 0.49600002355873585, 0.8160000387579203, 0.4480000212788582, 0.0, 0.0, 0.0, 0.0, 0.0, 1.7103915026533694E9, 0.0, 2024-03-13 21:45:02.653
57.0, -24.92643320467323, -18.84535587672144, -10.625055774115026, -15.920754111371934, 0.49600002355873585, 0.8160000387579203, 0.4480000212788582, 0.0, 0.0, 0.0, 0.0, 0.0, 1.7103915026533694E9, 0.0, 2024-03-13 21:45:02.653
58.0, -21.523124244995415, -15.464486316777766, 3.253712961450219, -14.91472102329135, 0.49600002355873585, 0.8160000387579203, 0.4480000212788582, 0.0, 0.0, 0.0, 0.0, 0.0, 1.7103915026541255E9, 0.0, 2024-03-13 21:45:02.654
58.0, -23.669826819561422, -17.887941488064826, 10.202447079122066, -17.465332793071866, 0.49600002355873585, 0.8160000387579203, 0.4480000212788582, 0.0, 0.0, 0.0, 0.0, 0.0, 1.7103915026541255E9, 0.0, 2024-03-13 21:45:02.654
59.0, -17.64858789090067, -15.823516712523997, -6.03245862852782, -18.52372448053211, 0.49600002355873585, 0.8160000387579203, 0.4480000212788582, 0.0, 0.0, 0.0, 0.0, 0.0, 1.710391502667718E9, 0.0, 2024-03-13 21:45:02.667
59.0, -10.288464778102934, -12.386548653244972, -1.1818083859980106, -9.417068088427186, 0.49600002355873585, 0.8160000387579203, 0.4480000212788582, 0.0, 0.0, 0.0, 0.0, 0.0, 1.710391502667718E9, 0.0, 2024-03-13 21:45:02.667
60.0, -18.400307781994343, -14.196660231798887, 9.488126187585294, -15.28123121894896, 0.49600002355873585, 0.8160000387579203, 0.4480000212788582, 0.0, 0.0, 0.0, 0.0, 0.0, 1.7103915026833422E9, 0.0, 2024-03-13 21:45:02.683
60.0, -20.374974958598614, -15.228872619569302, -3.380869559943676, -16.320923406630754, 0.49600002355873585, 0.8160000387579203, 0.4480000212788582, 0.0, 0.0, 0.0, 0.0, 0.0, 1.7103915026833422E9, 0.0, 2024-03-13 21:45:02.683
61.0, -7.382562512531877, -2.5580915696918964, 0.09349749889224768, -3.814697954803705, 0.49600002355873585, 0.8320000395178795, 0.4480000212788582, 0.0, 0.0, 0.0, 0.0, 0.0, 1.7103915026843896E9, 0.0, 2024-03-13 21:45:02.684
61.0, -4.502839546650648, 1.8624701779335737, 20.11318196170032, -0.5161061938852072, 0.49600002355873585, 0.8320000395178795, 0.4480000212788582, 0.0, 0.0, 0.0, 0.0, 0.0, 1.7103915026843896E9, 0.0, 2024-03-13 21:45:02.684
62.0, -24.53748360928148, -17.64858789090067, 2.498253170400858, -16.698653302155435, 0.49600002355873585, 0.8320000395178795, 0.4480000212788582, 0.0, 0.0, 0.0, 0.0, 0.0, 1.7103915026977997E9, 0.0, 2024-03-13 21:45:02.697
62.0, -14.656667926348746, -13.803970736451447, -10.662454773671925, -11.29449786618352, 0.49600002355873585, 0.8320000395178795, 0.4480000212788582, 0.0, 0.0, 0.0, 0.0, 0.0, 1.7103915026977997E9, 0.0, 2024-03-13 21:45:02.697
63.0, -3.5716044576838613, -0.9948133882135153, 16.717352801933885, -0.28049249667674303, 0.49600002355873585, 0.8320000395178795, 0.4480000212788582, 0.0, 0.0, 0.0, 0.0, 0.0, 1.7103915027133324E9, 0.0, 2024-03-13 21:45:02.713
63.0, -9.67512118536979, -2.81240476667881, 22.87322812899947, -2.0719045754522085, 0.49600002355873585, 0.8320000395178795, 0.4480000212788582, 0.0, 0.0, 0.0, 0.0, 0.0, 1.7103915027133324E9, 0.0, 2024-03-13 21:45:02.713
64.0, -8.384855700656772, -6.705640620552003, 1.5221392819657922, -3.145255862735212, 0.49600002355873585, 0.8320000395178795, 0.4480000212788582, 0.0, 0.0, 0.0, 0.0, 0.0, 1.7103915027140276E9, 0.0, 2024-03-13 21:45:02.714
64.0, 5.262039237655699, 6.671981520950794, 22.330942635424435, 14.540731027722359, 0.49600002355873585, 0.8320000395178795, 0.4480000212788582, 0.0, 0.0, 0.0, 0.0, 0.0, 1.7103915027140276E9, 0.0, 2024-03-13 21:45:02.714
65.0, -7.8687495067715645, -1.6792150801047683, 22.854528629221022, 1.3613235838711262, 0.49600002355873585, 0.8320000395178795, 0.4480000212788582, 0.0, 0.0, 0.0, 0.0, 0.0, 1.7103915027278097E9, 0.0, 2024-03-13 21:45:02.727
65.0, -6.630842621438205, -10.228626378811896, 4.330804148688912, -3.4070488596335053, 0.49600002355873585, 0.8320000395178795, 0.4480000212788582, 0.0, 0.0, 0.0, 0.0, 0.0, 1.7103915027278097E9, 0.0, 2024-03-13 21:45:02.727
66.0, 5.826764130964875, 1.929788377135992, 6.7019007205963135, 6.5822239220142365, 0.49600002355873585, 0.8320000395178795, 0.4480000212788582, 0.0, 0.0, 0.0, 0.0, 0.0, 1.7103915027437248E9, 0.0, 2024-03-13 21:45:02.743
66.0, 1.4286417830735445, 7.928587906062603, 24.316829511895776, 4.865609842352569, 0.49600002355873585, 0.8320000395178795, 0.4480000212788582, 0.0, 0.0, 0.0, 0.0, 0.0, 1.7103915027437248E9, 0.0, 2024-03-13 21:45:02.743
67.0, 6.877676018513739, 8.773805296048522, 26.50467098597437, 9.491866087540984, 0.49600002355873585, 0.8320000395178795, 0.4480000212788582, 0.0, 0.0, 0.0, 0.0, 0.0, 1.7103915027442355E9, 0.0, 2024-03-13 21:45:02.744
67.0, -2.890942665748298, 1.6193766808137298, 2.1878414740785956, 0.44130819477140903, 0.49600002355873585, 0.8320000395178795, 0.4480000212788582, 0.0, 0.0, 0.0, 0.0, 0.0, 1.7103915027442355E9, 0.0, 2024-03-13 21:45:02.744
68.0, 6.83279721904546, 15.931973811239004, 29.35821465216577, 12.210773355327547, 0.49600002355873585, 0.8320000395178795, 0.4480000212788582, 0.0, 0.0, 0.0, 0.0, 0.0, 1.7103915027576747E9, 0.0, 2024-03-13 21:45:02.757
68.0, -12.031258157454431, -4.02039245236665, 23.265917624346912, -2.2439399734139442, 0.49600002355873585, 0.8320000395178795, 0.4480000212788582, 0.0, 0.0, 0.0, 0.0, 0.0, 1.7103915027576747E9, 0.0, 2024-03-13 21:45:02.757
69.0, -6.85897651873529, -5.426594835706055, 5.108703339472413, -1.9073489774018526, 0.49600002355873585, 0.8320000395178795, 0.4480000212788582, 0.0, 0.0, 0.0, 0.0, 0.0, 1.7103915027733507E9, 0.0, 2024-03-13 21:45:02.773
69.0, 17.74582528974861, 18.94633317552507, 31.482477826997638, 22.12898803781718, 0.49600002355873585, 0.8320000395178795, 0.4480000212788582, 0.0, 0.0, 0.0, 0.0, 0.0, 1.7103915027733507E9, 0.0, 2024-03-13 21:45:02.773
70.0, 10.85318967141211, 14.89228162355721, 37.48501725587994, 15.741238913498819, 0.49600002355873585, 0.8320000395178795, 0.4480000212788582, 0.0, 0.0, 0.0, 0.0, 0.0, 1.7103915027740493E9, 0.0, 2024-03-13 21:45:02.774
70.0, 0.8078183904290199, 4.02413235232234, 19.574636368080974, 5.306918037123978, 0.49600002355873585, 0.8320000395178795, 0.4480000212788582, 0.0, 0.0, 0.0, 0.0, 0.0, 1.7103915027740493E9, 0.0, 2024-03-13 21:45:02.774
71.0, 18.213312784209847, 20.53205075673759, 19.458699469454587, 14.540731027722359, 0.49600002355873585, 0.8320000395178795, 0.4480000212788582, 0.0, 0.0, 0.0, 0.0, 0.0, 1.7103915027879324E9, 0.0, 2024-03-13 21:45:02.787
71.0, 19.129588273353875, 24.53374370932579, 35.33831468131393, 16.751011901535094, 0.49600002355873585, 0.8320000395178795, 0.4480000212788582, 0.0, 0.0, 0.0, 0.0, 0.0, 1.7103915027879324E9, 0.0, 2024-03-13 21:45:02.787
72.0, -2.341177372261882, 4.0839707516133785, 23.834382417611778, 6.518645622767508, 0.49600002355873585, 0.8320000395178795, 0.4480000212788582, 0.0, 0.0, 0.0, 0.0, 0.0, 1.7103915028033373E9, 0.0, 2024-03-13 21:45:02.803
72.0, 4.110150051303208, 6.335390524938703, 8.44095419999212, 7.442400911822915, 0.49600002355873585, 0.8320000395178795, 0.4480000212788582, 0.0, 0.0, 0.0, 0.0, 0.0, 1.7103915028033373E9, 0.0, 2024-03-13 21:45:02.803
73.0, -0.34033089596778154, 4.652435544878244, 20.259038059972227, 0.3814697954803705, 0.49600002355873585, 0.8320000395178795, 0.4480000212788582, 0.0, 0.0, 0.0, 0.0, 0.0, 1.7103915028040576E9, 0.0, 2024-03-13 21:45:02.804
73.0, 7.737853008322418, 9.095436692237854, 30.098714843392372, 10.262285478413105, 0.49600002355873585, 0.8320000395178795, 0.4480000212788582, 0.0, 0.0, 0.0, 0.0, 0.0, 1.7103915028040576E9, 0.0, 2024-03-13 21:45:02.804
74.0, 12.4875259520486, 16.54157750401646, 13.493559040129185, 11.178560967557132, 0.49600002355873585, 0.8320000395178795, 0.4480000212788582, 0.0, 0.0, 0.0, 0.0, 0.0, 1.710391502817707E9, 0.0, 2024-03-13 21:45:02.817
74.0, 7.5059792110696435, 17.932820287533104, 15.329849918372929, 10.198707179166377, 0.49600002355873585, 0.8320000395178795, 0.4480000212788582, 0.0, 0.0, 0.0, 0.0, 0.0, 1.710391502817707E9, 0.0, 2024-03-13 21:45:02.817
75.0, 8.302577901631594, 15.064317021518946, 34.23504419438541, 11.709626761265099, 0.49600002355873585, 0.8320000395178795, 0.4480000212788582, 0.0, 0.0, 0.0, 0.0, 0.0, 1.7103915028333347E9, 0.0, 2024-03-13 21:45:02.833
75.0, 0.6507425922900438, 1.6567756803706288, 16.223686007782817, 0.9574143886566162, 0.49600002355873585, 0.8320000395178795, 0.4480000212788582, 0.0, 0.0, 0.0, 0.0, 0.0, 1.7103915028333347E9, 0.0, 2024-03-13 21:45:02.833
76.0, 5.65098883304745, 8.235259702429175, 9.488126187585294, 6.122216227464378, 0.49600002355873585, 0.8320000395178795, 0.4480000212788582, 0.0, 0.0, 0.0, 0.0, 0.0, 1.7103915028340473E9, 0.0, 2024-03-13 21:45:02.834
76.0, 12.49500575195998, 15.842216212302446, 27.869734469801188, 8.84860329516232, 0.49600002355873585, 0.8320000395178795, 0.4480000212788582, 0.0, 0.0, 0.0, 0.0, 0.0, 1.7103915028340473E9, 0.0, 2024-03-13 21:45:02.834
77.0, 17.057683697901666, 16.92678719945252, 27.880954169668257, 11.343116565607488, 0.49600002355873585, 0.8320000395178795, 0.4480000212788582, 0.0, 0.0, 0.0, 0.0, 0.0, 1.710391502848112E9, 0.0, 2024-03-13 21:45:02.848
77.0, 10.411881476640701, 6.03245862852782, 4.596337045542896, 3.175175062380731, 0.49600002355873585, 0.8320000395178795, 0.4480000212788582, 0.0, 0.0, 0.0, 0.0, 0.0, 1.710391502848112E9, 0.0, 2024-03-13 21:45:02.848
78.0, -3.0367987640202045, 4.547718346118927, 17.66354749072343, 4.525278946384788, 0.49600002355873585, 0.8320000395178795, 0.4480000212788582, 0.0, 0.0, 0.0, 0.0, 0.0, 1.7103915028638785E9, 0.0, 2024-03-13 21:45:02.863
78.0, -11.739545960910618, -6.4475875236094, 18.06745668593794, -3.4706271588802338, 0.49600002355873585, 0.8320000395178795, 0.4480000212788582, 0.0, 0.0, 0.0, 0.0, 0.0, 1.7103915028638785E9, 0.0, 2024-03-13 21:45:02.863
79.0, 2.41597537137568, -1.9821469765156507, 5.351796836592257, -1.9896267764270306, 0.49600002355873585, 0.8320000395178795, 0.4480000212788582, 0.0, 0.0, 0.0, 0.0, 0.0, 1.71039150286453E9, 0.0, 2024-03-13 21:45:02.864
79.0, 0.9162754891440272, 0.23187379725277424, 9.26747209019959, -0.5871642930433154, 0.49600002355873585, 0.8320000395178795, 0.4480000212788582, 0.0, 0.0, 0.0, 0.0, 0.0, 1.71039150286453E9, 0.0, 2024-03-13 21:45:02.864
80.0, 1.5408387817442417, 8.938360894098878, 29.34325505234301, 6.391489024274051, 0.49600002355873585, 0.8320000395178795, 0.4480000212788582, 0.0, 0.0, 0.0, 0.0, 0.0, 1.7103915028777244E9, 0.0, 2024-03-13 21:45:02.877
80.0, -11.410434764809906, -6.077337427996099, 1.5595382815226912, -8.713966896757483, 0.49600002355873585, 0.8320000395178795, 0.4480000212788582, 0.0, 0.0, 0.0, 0.0, 0.0, 1.7103915028777244E9, 0.0, 2024-03-13 21:45:02.877
81.0, -10.505378975532949, -5.995059628970921, -4.41308194771409, -2.6067102691158652, 0.49600002355873585, 0.8160000387579203, 0.4480000212788582, 0.0, 0.0, 0.0, 0.0, 0.0, 1.710391502893344E9, 0.0, 2024-03-13 21:45:02.893
81.0, 10.527818375267088, 9.443247388117015, 26.822562482208014, 11.833043459802866, 0.49600002355873585, 0.8160000387579203, 0.4480000212788582, 0.0, 0.0, 0.0, 0.0, 0.0, 1.710391502893344E9, 0.0, 2024-03-13 21:45:02.893
82.0, 2.6852481681853533, 7.23296651430428, 18.800477077253163, 1.1331896865740418, 0.4800000227987766, 0.8160000387579203, 0.4480000212788582, 0.0, 0.0, 0.0, 0.0, 0.0, 1.7103915028940773E9, 0.0, 2024-03-13 21:45:02.894
82.0, 0.46000769454985857, 10.763432072475553, 3.62022315710783, 10.022931881248951, 0.4800000227987766, 0.8160000387579203, 0.4480000212788582, 0.0, 0.0, 0.0, 0.0, 0.0, 1.7103915028940773E9, 0.0, 2024-03-13 21:45:02.894
83.0, 0.8713966896757483, 11.103762968443334, 24.52252400945872, 9.349749889224768, 0.4800000227987766, 0.8160000387579203, 0.4480000212788582, 0.0, 0.0, 0.0, 0.0, 0.0, 1.710391502907663E9, 0.0, 2024-03-13 21:45:02.907
83.0, 1.2416467852890491, 6.84775681886822, 27.993151168338954, 8.02208540495485, 0.4800000227987766, 0.8160000387579203, 0.4480000212788582, 0.0, 0.0, 0.0, 0.0, 0.0, 1.710391502907663E9, 0.0, 2024-03-13 21:45:02.907
84.0, 8.82616389542818, 11.855482859537005, 12.581023450940847, 9.64146208576858, 0.4800000227987766, 0.8160000387579203, 0.4480000212788582, 0.0, 0.0, 0.0, 0.0, 0.0, 1.7103915029233267E9, 0.0, 2024-03-13 21:45:02.923
84.0, 9.566664086654782, 14.87732202373445, 8.620469397865236, 9.162754891440272, 0.4800000227987766, 0.8160000387579203, 0.4480000212788582, 0.0, 0.0, 0.0, 0.0, 0.0, 1.7103915029233267E9, 0.0, 2024-03-13 21:45:02.923
85.0, 15.367248917929828, 15.30741051863879, 24.429026510566473, 10.718553273007274, 0.4800000227987766, 0.8160000387579203, 0.4480000212788582, 0.0, 0.0, 0.0, 0.0, 0.0, 1.710391502924053E9, 0.0, 2024-03-13 21:45:02.924
85.0, 19.241785272024572, 22.742331630550325, 16.683693702332675, 8.167941503226757, 0.4800000227987766, 0.8160000387579203, 0.4480000212788582, 0.0, 0.0, 0.0, 0.0, 0.0, 1.710391502924053E9, 0.0, 2024-03-13 21:45:02.924
86.0, -1.7951519787311554, 7.797691407613456, -3.4033089596778154, 0.10097729880362749, 0.4800000227987766, 0.8160000387579203, 0.4480000212788582, 0.0, 0.0, 0.0, 0.0, 0.0, 1.7103915029377027E9, 0.0, 2024-03-13 21:45:02.937
86.0, 8.321277401410043, 15.617822214961052, 27.207772177644074, 12.517445151694119, 0.4800000227987766, 0.8160000387579203, 0.4480000212788582, 0.0, 0.0, 0.0, 0.0, 0.0, 1.7103915029377027E9, 0.0, 2024-03-13 21:45:02.937
87.0, -6.42888802383095, -4.128849551081657, 8.508272399194539, -10.310904177837074, 0.4800000227987766, 0.8160000387579203, 0.4480000212788582, 0.0, 0.0, 0.0, 0.0, 0.0, 1.7103915029535043E9, 0.0, 2024-03-13 21:45:02.953
87.0, -10.329603677615523, -9.039338192902505, -12.674520949833095, -12.135975356213748, 0.4800000227987766, 0.8160000387579203, 0.4480000212788582, 0.0, 0.0, 0.0, 0.0, 0.0, 1.7103915029535043E9, 0.0, 2024-03-13 21:45:02.953
88.0, 0.5123662939295173, 3.3546902602538466, 15.557983815670013, 3.747379755601287, 0.4800000227987766, 0.8160000387579203, 0.4480000212788582, 0.0, 0.0, 0.0, 0.0, 0.0, 1.7103915029540982E9, 0.0, 2024-03-13 21:45:02.954
88.0, 3.5304655581712723, 7.528418610803783, 16.320923406630754, 1.5782377813011408, 0.4800000227987766, 0.8160000387579203, 0.4480000212788582, 0.0, 0.0, 0.0, 0.0, 0.0, 1.7103915029540982E9, 0.0, 2024-03-13 21:45:02.954
89.0, 5.0488649401813745, 8.620469397865236, -1.2416467852890491, -5.882862630300224, 0.4800000227987766, 0.8160000387579203, 0.4480000212788582, 0.0, 0.0, 0.0, 0.0, 0.0, 1.7103915029677756E9, 0.0, 2024-03-13 21:45:02.967
89.0, 15.255051919259131, 20.206679460592568, 14.641708326525986, 12.06491725705564, 0.4800000227987766, 0.8160000387579203, 0.4480000212788582, 0.0, 0.0, 0.0, 0.0, 0.0, 1.7103915029677756E9, 0.0, 2024-03-13 21:45:02.967
90.0, 16.601415903307498, 18.09363598562777, 21.36230854690075, 8.919661394320428, 0.4800000227987766, 0.8160000387579203, 0.4480000212788582, 0.0, 0.0, 0.0, 0.0, 0.0, 1.7103915029833517E9, 0.0, 2024-03-13 21:45:02.983
90.0, -4.966587141156197, -8.676567897200584, -5.4939130349084735, -13.175667543895543, 0.4800000227987766, 0.8160000387579203, 0.4480000212788582, 0.0, 0.0, 0.0, 0.0, 0.0, 1.7103915029833517E9, 0.0, 2024-03-13 21:45:02.983
91.0, -0.5497652934864163, -0.3291111961007118, -3.504286258481443, -0.24309349711984396, 0.4800000227987766, 0.8320000395178795, 0.4480000212788582, 0.0, 0.0, 0.0, 0.0, 0.0, 1.7103915029840524E9, 0.0, 2024-03-13 21:45:02.984
91.0, 12.779238148592412, 17.181100396439433, 25.057329703122377, 15.240092319436371, 0.4800000227987766, 0.8320000395178795, 0.4480000212788582, 0.0, 0.0, 0.0, 0.0, 0.0, 1.7103915029840524E9, 0.0, 2024-03-13 21:45:02.984
92.0, 2.5655713696032763, 11.28701806627214, 18.617221979424357, 6.83279721904546, 0.4800000227987766, 0.8320000395178795, 0.4480000212788582, 0.0, 0.0, 0.0, 0.0, 0.0, 1.7103915029979136E9, 0.0, 2024-03-13 21:45:02.997
92.0, -1.7390534793958068, 7.835090407170355, -0.5460253935307264, -1.327664484269917, 0.4800000227987766, 0.8320000395178795, 0.4480000212788582, 0.0, 0.0, 0.0, 0.0, 0.0, 1.7103915029979136E9, 0.0, 2024-03-13 21:45:02.997
93.0, 5.6958676325157285, 14.810003824532032, 18.50128508079797, 7.674274709075689, 0.4800000227987766, 0.8320000395178795, 0.4480000212788582, 0.0, 0.0, 0.0, 0.0, 0.0, 1.710391503013698E9, 0.0, 2024-03-13 21:45:03.013
93.0, 3.171435162425041, 12.135975356213748, 23.74462481867522, 5.841723730787635, 0.4800000227987766, 0.8320000395178795, 0.4480000212788582, 0.0, 0.0, 0.0, 0.0, 0.0, 1.710391503013698E9, 0.0, 2024-03-13 21:45:03.013
94.0, -6.2979915253818035, -2.853543666191399, -1.2528664851561189, -5.007726040668786, 0.4800000227987766, 0.8320000395178795, 0.4480000212788582, 0.0, 0.0, 0.0, 0.0, 0.0, 1.710391503014332E9, 0.0, 2024-03-13 21:45:03.014
94.0, -1.368803383782506, 3.6052635572850704, 11.844263159669936, 4.921708341687918, 0.4800000227987766, 0.8320000395178795, 0.4480000212788582, 0.0, 0.0, 0.0, 0.0, 0.0, 1.710391503014332E9, 0.0, 2024-03-13 21:45:03.014
95.0, 0.3777298955246806, 7.318984213285148, 25.248064600862563, 4.43178144749254, 0.4800000227987766, 0.8320000395178795, 0.4480000212788582, 0.0, 0.0, 0.0, 0.0, 0.0, 1.7103915030281088E9, 0.0, 2024-03-13 21:45:03.028
95.0, -7.951027305796742, -3.294851860962808, 4.401862247847021, -2.4795536706224084, 0.4800000227987766, 0.8320000395178795, 0.4480000212788582, 0.0, 0.0, 0.0, 0.0, 0.0, 1.7103915030281088E9, 0.0, 2024-03-13 21:45:03.028
96.0, 4.8095113430172205, 10.520338575355709, 1.5931973811239004, 1.0546517875045538, 0.4800000227987766, 0.8320000395178795, 0.4480000212788582, 0.0, 0.0, 0.0, 0.0, 0.0, 1.71039150304343E9, 0.0, 2024-03-13 21:45:03.043
96.0, 11.201000367291272, 19.623255067504942, 27.00955747999251, 11.70588686130941, 0.4800000227987766, 0.8320000395178795, 0.4480000212788582, 0.0, 0.0, 0.0, 0.0, 0.0, 1.71039150304343E9, 0.0, 2024-03-13 21:45:03.043
97.0, 9.574143886566162, 19.043570574373007, 21.953212739899755, 8.126802603714168, 0.4800000227987766, 0.8320000395178795, 0.4480000212788582, 0.0, 0.0, 0.0, 0.0, 0.0, 1.710391503044392E9, 0.0, 2024-03-13 21:45:03.044
97.0, -4.41308194771409, 2.487033470533788, -8.246479402296245, -8.156721803359687, 0.4800000227987766, 0.8320000395178795, 0.4480000212788582, 0.0, 0.0, 0.0, 0.0, 0.0, 1.710391503044392E9, 0.0, 2024-03-13 21:45:03.044
98.0, 10.019191981293261, 19.185686772689223, 20.55449015647173, 5.449034235440195, 0.4800000227987766, 0.8320000395178795, 0.4480000212788582, 0.0, 0.0, 0.0, 0.0, 0.0, 1.7103915030576632E9, 0.0, 2024-03-13 21:45:03.057
98.0, -13.504778739996254, 0.7180607914924622, 14.391135029494762, -12.663301249966025, 0.4800000227987766, 0.8320000395178795, 0.4480000212788582, 0.0, 0.0, 0.0, 0.0, 0.0, 1.7103915030576632E9, 0.0, 2024-03-13 21:45:03.057
99.0, -15.31489031855017, -12.674520949833095, -8.908441694453359, -15.29245091881603, 0.4800000227987766, 0.8320000395178795, 0.4480000212788582, 0.0, 0.0, 0.0, 0.0, 0.0, 1.7103915030733688E9, 0.0, 2024-03-13 21:45:03.073
99.0, 5.9352212296798825, 9.27495189011097, 11.735806060954928, -0.6731819920241833, 0.4800000227987766, 0.8320000395178795, 0.4480000212788582, 0.0, 0.0, 0.0, 0.0, 0.0, 1.7103915030733688E9, 0.0, 2024-03-13 21:45:03.073
100.0, -15.183993820101023, -2.943301265127957, 18.56860328000039, -8.530711798928678, 0.4800000227987766, 0.8320000395178795, 0.4480000212788582, 0.0, 0.0, 0.0, 0.0, 0.0, 1.7103915030741756E9, 0.0, 2024-03-13 21:45:03.074
100.0, -21.231412048451602, -11.739545960910618, 0.9574143886566162, -16.05165060982108, 0.4800000227987766, 0.8320000395178795, 0.4480000212788582, 0.0, 0.0, 0.0, 0.0, 0.0, 1.7103915030741756E9, 0.0, 2024-03-13 21:45:03.074
0.0, 151.6061944537796, 36.54069251706824, -120.63608292071149, 31.082308531738818, 0.4800000227987766, 0.8320000395178795, 0.4480000212788582, 0.0, 0.0, 0.0, 0.0, 0.0, 1.7103915030886564E9, 0.0, 2024-03-13 21:45:03.088
1.0, 150.24861076986417, 36.993220411706716, -108.16725646844134, 32.63062711339444, 0.4800000227987766, 0.8320000395178795, 0.4480000212788582, 0.0, 0.0, 0.0, 0.0, 0.0, 1.7103915030891354E9, 0.0, 2024-03-13 21:45:03.089
1.0, 154.73649071669206, 39.94026157679036, -112.404563118238, 30.92897263355553, 0.4800000227987766, 0.8320000395178795, 0.4480000212788582, 0.0, 0.0, 0.0, 0.0, 0.0, 1.7103915030891354E9, 0.0, 2024-03-13 21:45:03.089
2.0, 156.71115789329633, 37.98055400000885, -123.38116948818788, 31.45255862735212, 0.4800000227987766, 0.8320000395178795, 0.4480000212788582, 0.0, 0.0, 0.0, 0.0, 0.0, 1.7103915031026587E9, 0.0, 2024-03-13 21:45:03.102
2.0, 157.08514788886532, 46.309311201330274, -102.81171973189339, 38.53966904338449, 0.4800000227987766, 0.8320000395178795, 0.4480000212788582, 0.0, 0.0, 0.0, 0.0, 0.0, 1.7103915031026587E9, 0.0, 2024-03-13 21:45:03.102
3.0, 141.68797977128997, 35.35140433115885, -104.5507732112892, 24.724478607065976, 0.4800000227987766, 0.8320000395178795, 0.4480000212788582, 0.0, 0.0, 0.0, 0.0, 0.0, 1.7103915031183596E9, 0.0, 2024-03-13 21:45:03.118
3.0, 142.84734875755385, 32.80079256137833, -128.08596363244578, 20.07952286209911, 0.4800000227987766, 0.8320000395178795, 0.4480000212788582, 0.0, 0.0, 0.0, 0.0, 0.0, 1.7103915031183596E9, 0.0, 2024-03-13 21:45:03.118
4.0, 166.21424368070439, 49.29375136597082, -106.70495558576658, 40.450757920742035, 0.4800000227987766, 0.8320000395178795, 0.4480000212788582, 0.0, 0.0, 0.0, 0.0, 0.0, 1.7103915031193285E9, 0.0, 2024-03-13 21:45:03.119
4.0, 165.33162729116157, 62.94812610419467, -86.94332421990111, 44.6506655709818, 0.4800000227987766, 0.8320000395178795, 0.4480000212788582, 0.0, 0.0, 0.0, 0.0, 0.0, 1.7103915031193285E9, 0.0, 2024-03-13 21:45:03.119
5.0, 158.6858250699006, 40.261892972979695, -111.2190148322843, 34.9418852860108, 0.4800000227987766, 0.8320000395178795, 0.4480000212788582, 0.0, 0.0, 0.0, 0.0, 0.0, 1.7103915031330185E9, 0.0, 2024-03-13 21:45:03.133
5.0, 161.99937643064186, 47.939907582011074, -115.29924568394199, 41.07906111329794, 0.4800000227987766, 0.8320000395178795, 0.4480000212788582, 0.0, 0.0, 0.0, 0.0, 0.0, 1.7103915031330185E9, 0.0, 2024-03-13 21:45:03.133
6.0, 150.20747187035158, 42.44973444705829, -105.04070010548458, 32.73160441219807, 0.4800000227987766, 0.8320000395178795, 0.4480000212788582, 0.0, 0.0, 0.0, 0.0, 0.0, 1.710391503148398E9, 0.0, 2024-03-13 21:45:03.148
6.0, 150.84699476277456, 44.85075021861121, -106.11031149281189, 34.23130429442972, 0.4800000227987766, 0.8320000395178795, 0.4480000212788582, 0.0, 0.0, 0.0, 0.0, 0.0, 1.710391503148398E9, 0.0, 2024-03-13 21:45:03.148
7.0, 152.14100014744326, 39.16610228596255, -121.54861850989982, 30.326848740689456, 0.4800000227987766, 0.8320000395178795, 0.4480000212788582, 0.0, 0.0, 0.0, 0.0, 0.0, 1.7103915031491475E9, 0.0, 2024-03-13 21:45:03.149
7.0, 163.56639451207593, 53.20942661957815, -104.2553211147897, 38.21055784728378, 0.4800000227987766, 0.8320000395178795, 0.4480000212788582, 0.0, 0.0, 0.0, 0.0, 0.0, 1.7103915031491475E9, 0.0, 2024-03-13 21:45:03.149
8.0, 161.69644453423098, 51.83688333583996, -94.78589442698285, 40.27498262282461, 0.4800000227987766, 0.8320000395178795, 0.4480000212788582, 0.0, 0.0, 0.0, 0.0, 0.0, 1.7103915031630712E9, 0.0, 2024-03-13 21:45:03.163
8.0, 154.74023061664775, 40.9649941646494, -119.24484013719484, 32.32395531702787, 0.4800000227987766, 0.8320000395178795, 0.4480000212788582, 0.0, 0.0, 0.0, 0.0, 0.0, 1.7103915031630712E9, 0.0, 2024-03-13 21:45:03.163
9.0, 151.48651765519753, 44.83953051874414, -118.47068084636703, 29.167479754425585, 0.4800000227987766, 0.8320000395178795, 0.4480000212788582, 0.0, 0.0, 0.0, 0.0, 0.0, 1.710391503178574E9, 0.0, 2024-03-13 21:45:03.178
9.0, 158.59232757100835, 54.21171980770305, -96.64088480500504, 38.868780239485204, 0.4800000227987766, 0.8320000395178795, 0.4480000212788582, 0.0, 0.0, 0.0, 0.0, 0.0, 1.710391503178574E9, 0.0, 2024-03-13 21:45:03.178
10.0, 153.5397227308713, 46.14849550323561, -108.65344346268103, 35.85068097524345, 0.4800000227987766, 0.8320000395178795, 0.4480000212788582, 0.0, 0.0, 0.0, 0.0, 0.0, 1.710391503179082E9, 0.0, 2024-03-13 21:45:03.179
10.0, 165.38398589054123, 55.913374287541956, -119.28223913675174, 37.78794915229082, 0.4800000227987766, 0.8320000395178795, 0.4480000212788582, 0.0, 0.0, 0.0, 0.0, 0.0, 1.710391503179082E9, 0.0, 2024-03-13 21:45:03.179
11.0, 158.29687547450885, 46.660861797165126, -101.8056866438128, 37.9076259508729, 0.4800000227987766, 0.8160000387579203, 0.4480000212788582, 0.0, 0.0, 0.0, 0.0, 0.0, 1.7103915031928284E9, 0.0, 2024-03-13 21:45:03.192
11.0, 154.44103862019256, 41.5932973572053, -108.1448170687072, 36.31816846970469, 0.4800000227987766, 0.8160000387579203, 0.4480000212788582, 0.0, 0.0, 0.0, 0.0, 0.0, 1.7103915031928284E9, 0.0, 2024-03-13 21:45:03.192
12.0, 165.88513248460367, 53.516098415944725, -118.44824144663289, 42.53014229610562, 0.4800000227987766, 0.8160000387579203, 0.4480000212788582, 0.0, 0.0, 0.0, 0.0, 0.0, 1.7103915032083924E9, 0.0, 2024-03-13 21:45:03.208
12.0, 163.53273541247472, 50.46807995205745, -105.71014219755307, 43.12104648910463, 0.4800000227987766, 0.8160000387579203, 0.4480000212788582, 0.0, 0.0, 0.0, 0.0, 0.0, 1.7103915032083924E9, 0.0, 2024-03-13 21:45:03.208
13.0, 146.72936491155997, 47.36396298883483, -99.2887339736335, 39.44472483266145, 0.4800000227987766, 0.8160000387579203, 0.4480000212788582, 0.0, 0.0, 0.0, 0.0, 0.0, 1.7103915032090948E9, 0.0, 2024-03-13 21:45:03.209
13.0, 157.00287008984014, 47.98478638147935, -116.62691016821191, 38.34519424568862, 0.4800000227987766, 0.8160000387579203, 0.4480000212788582, 0.0, 0.0, 0.0, 0.0, 0.0, 1.7103915032090948E9, 0.0, 2024-03-13 21:45:03.209
14.0, 164.83048069709912, 53.886348511558026, -106.69373588589951, 47.08160054218024, 0.4800000227987766, 0.8160000387579203, 0.4480000212788582, 0.0, 0.0, 0.0, 0.0, 0.0, 1.710391503222743E9, 0.0, 2024-03-13 21:45:03.222
14.0, 159.64323945855722, 53.45626001665369, -93.0991995469667, 50.68686409946531, 0.4800000227987766, 0.8160000387579203, 0.4480000212788582, 0.0, 0.0, 0.0, 0.0, 0.0, 1.710391503222743E9, 0.0, 2024-03-13 21:45:03.222
15.0, 155.52934950729832, 50.61019615037367, -107.9578220709227, 47.78844163380563, 0.4800000227987766, 0.8160000387579203, 0.4480000212788582, 0.0, 0.0, 0.0, 0.0, 0.0, 1.7103915032383552E9, 0.0, 2024-03-13 21:45:03.238
15.0, 165.13341259351, 59.103508949745446, -113.00294711114839, 52.86348587367684, 0.4800000227987766, 0.8160000387579203, 0.4480000212788582, 0.0, 0.0, 0.0, 0.0, 0.0, 1.7103915032383552E9, 0.0, 2024-03-13 21:45:03.238
16.0, 162.38458612607792, 64.73205838305876, -92.44845695467666, 56.34159283246845, 0.4800000227987766, 0.8160000387579203, 0.4480000212788582, 0.0, 0.0, 0.0, 0.0, 0.0, 1.7103915032390804E9, 0.0, 2024-03-13 21:45:03.239
16.0, 175.6911501684226, 73.43854547990486, -81.49802988441661, 63.54090024717152, 0.4800000227987766, 0.8160000387579203, 0.4480000212788582, 0.0, 0.0, 0.0, 0.0, 0.0, 1.7103915032390804E9, 0.0, 2024-03-13 21:45:03.239
17.0, 173.96331638889387, 69.9417390213348, -111.1105577335693, 56.513628230430186, 0.4800000227987766, 0.8160000387579203, 0.4480000212788582, 0.0, 0.0, 0.0, 0.0, 0.0, 1.710391503252868E9, 0.0, 2024-03-13 21:45:03.252
17.0, 172.61321250488982, 72.387633592356, -94.97288942476735, 63.90367054287344, 0.4800000227987766, 0.8160000387579203, 0.4480000212788582, 0.0, 0.0, 0.0, 0.0, 0.0, 1.710391503252868E9, 0.0, 2024-03-13 21:45:03.252
18.0, 159.5796611593105, 55.961992986965925, -96.46510950708762, 52.728849475272, 0.4800000227987766, 0.8160000387579203, 0.4480000212788582, 0.0, 0.0, 0.0, 0.0, 0.0, 1.7103915032683551E9, 0.0, 2024-03-13 21:45:03.268
18.0, 166.01602898305282, 55.7862176890485, -109.46126185311005, 58.76130810379982, 0.4800000227987766, 0.8160000387579203, 0.4480000212788582, 0.0, 0.0, 0.0, 0.0, 0.0, 1.7103915032683551E9, 0.0, 2024-03-13 21:45:03.268
19.0, 171.2144899214618, 61.27639082400128, -109.85395134845749, 63.09959205240011, 0.4800000227987766, 0.8160000387579203, 0.4480000212788582, 0.0, 0.0, 0.0, 0.0, 0.0, 1.7103915032691E9, 0.0, 2024-03-13 21:45:03.269
19.0, 174.79731407901272, 70.7532973117195, -92.08194675901905, 67.71462859772146, 0.4800000227987766, 0.8160000387579203, 0.4480000212788582, 0.0, 0.0, 0.0, 0.0, 0.0, 1.7103915032691E9, 0.0, 2024-03-13 21:45:03.269
20.0, 158.43525177286938, 48.88984217075631, -112.59529801597819, 46.28500185161829, 0.4800000227987766, 0.8160000387579203, 0.4480000212788582, 0.0, 0.0, 0.0, 0.0, 0.0, 1.7103915032830257E9, 0.0, 2024-03-13 21:45:03.283
20.0, 163.73469001008198, 50.39702185289934, -126.68350114906207, 42.115013401024044, 0.4800000227987766, 0.8160000387579203, 0.4480000212788582, 0.0, 0.0, 0.0, 0.0, 0.0, 1.7103915032830257E9, 0.0, 2024-03-13 21:45:03.283
21.0, 150.51040376676247, 46.238253102172166, -113.52279320498928, 36.51638316735625, 0.4800000227987766, 0.8160000387579203, 0.4480000212788582, 0.0, 0.0, 0.0, 0.0, 0.0, 1.7103915032986493E9, 0.0, 2024-03-13 21:45:03.298
21.0, 153.4237858322449, 42.80876484280452, -108.96759505895898, 39.624240030534565, 0.4800000227987766, 0.8160000387579203, 0.4480000212788582, 0.0, 0.0, 0.0, 0.0, 0.0, 1.7103915032986493E9, 0.0, 2024-03-13 21:45:03.298
22.0, 160.24910325137898, 43.16779523855075, -119.8881029295735, 44.890019168145955, 0.4800000227987766, 0.8160000387579203, 0.4480000212788582, 0.0, 0.0, 0.0, 0.0, 0.0, 1.7103915032991004E9, 0.0, 2024-03-13 21:45:03.299
22.0, 157.07018828904256, 52.760638624895364, -100.93428995413706, 51.19549049343914, 0.4800000227987766, 0.8160000387579203, 0.4480000212788582, 0.0, 0.0, 0.0, 0.0, 0.0, 1.7103915032991004E9, 0.0, 2024-03-13 21:45:03.299
23.0, 147.9036934976466, 34.31545204343274, -104.6218313104473, 37.675752153620124, 0.4800000227987766, 0.8160000387579203, 0.4480000212788582, 0.0, 0.0, 0.0, 0.0, 0.0, 1.7103915033127232E9, 0.0, 2024-03-13 21:45:03.312
23.0, 152.06994204828516, 37.13159671006724, -122.79400519514456, 32.87746051046997, 0.4800000227987766, 0.8160000387579203, 0.4480000212788582, 0.0, 0.0, 0.0, 0.0, 0.0, 1.7103915033127232E9, 0.0, 2024-03-13 21:45:03.312
24.0, 155.30121561000124, 42.14680255064741, -113.4405154059641, 41.277275810949504, 0.4800000227987766, 0.8160000387579203, 0.4480000212788582, 0.0, 0.0, 0.0, 0.0, 0.0, 1.7103915033286862E9, 0.0, 2024-03-13 21:45:03.328
24.0, 140.0499035906978, 38.216167697217315, -112.27740651974455, 32.050942620262504, 0.4800000227987766, 0.8160000387579203, 0.4480000212788582, 0.0, 0.0, 0.0, 0.0, 0.0, 1.7103915033286862E9, 0.0, 2024-03-13 21:45:03.328
25.0, 147.03603670792654, 37.93193530058488, -120.54258542181924, 32.806402411311865, 0.4800000227987766, 0.8160000387579203, 0.4480000212788582, 0.0, 0.0, 0.0, 0.0, 0.0, 1.7103915033292773E9, 0.0, 2024-03-13 21:45:03.329
25.0, 160.22292395168915, 45.67726810881868, -126.21227375464514, 41.38199300970882, 0.4800000227987766, 0.8160000387579203, 0.4480000212788582, 0.0, 0.0, 0.0, 0.0, 0.0, 1.7103915033292773E9, 0.0, 2024-03-13 21:45:03.329
26.0, 139.6422544955276, 34.74928043829277, -111.73512102616951, 32.89616001024842, 0.4800000227987766, 0.8160000387579203, 0.4480000212788582, 0.0, 0.0, 0.0, 0.0, 0.0, 1.7103915033428166E9, 0.0, 2024-03-13 21:45:03.342
26.0, 136.88594822818413, 25.20131585141644, -115.34786438336596, 28.456898762844503, 0.4800000227987766, 0.8160000387579203, 0.4480000212788582, 0.0, 0.0, 0.0, 0.0, 0.0, 1.7103915033428166E9, 0.0, 2024-03-13 21:45:03.342
27.0, 143.84590204572305, 28.8103193086572, -123.83743728278205, 38.891219639219344, 0.4800000227987766, 0.8160000387579203, 0.4480000212788582, 0.0, 0.0, 0.0, 0.0, 0.0, 1.7103915033583453E9, 0.0, 2024-03-13 21:45:03.358
27.0, 146.50123101426288, 37.13159671006724, -105.9569755946286, 43.10608688928187, 0.4800000227987766, 0.8160000387579203, 0.4480000212788582, 0.0, 0.0, 0.0, 0.0, 0.0, 1.7103915033583453E9, 0.0, 2024-03-13 21:45:03.358
28.0, 135.92105403961614, 26.226048439275473, -108.79929956095293, 31.03368983231485, 0.4800000227987766, 0.8160000387579203, 0.4480000212788582, 0.0, 0.0, 0.0, 0.0, 0.0, 1.7103915033590684E9, 0.0, 2024-03-13 21:45:03.359
28.0, 143.29987665219232, 25.421969948802143, -124.68639457272366, 32.61566751357168, 0.4800000227987766, 0.8160000387579203, 0.4480000212788582, 0.0, 0.0, 0.0, 0.0, 0.0, 1.7103915033590684E9, 0.0, 2024-03-13 21:45:03.359
29.0, 146.58724871324375, 37.53924580523744, -120.50518642226234, 34.867087286897004, 0.4800000227987766, 0.8160000387579203, 0.4480000212788582, 0.0, 0.0, 0.0, 0.0, 0.0, 1.7103915033727264E9, 0.0, 2024-03-13 21:45:03.372
29.0, 148.00467079645023, 39.667248880025, -104.85744500765577, 34.74741048831493, 0.4800000227987766, 0.8160000387579203, 0.4480000212788582, 0.0, 0.0, 0.0, 0.0, 0.0, 1.7103915033727264E9, 0.0, 2024-03-13 21:45:03.372
30.0, 148.57687548967078, 39.457814482506365, -122.59205059753731, 28.281123464927077, 0.4800000227987766, 0.8160000387579203, 0.4480000212788582, 0.0, 0.0, 0.0, 0.0, 0.0, 1.7103915033883843E9, 0.0, 2024-03-13 21:45:03.388
30.0, 153.60330103011802, 40.51620616996661, -124.97810676926747, 35.9067794745788, 0.4800000227987766, 0.8160000387579203, 0.4480000212788582, 0.0, 0.0, 0.0, 0.0, 0.0, 1.7103915033883843E9, 0.0, 2024-03-13 21:45:03.388
31.0, 147.63442070083693, 39.18106188578531, -107.5875719753094, 40.813528216443956, 0.4800000227987766, 0.8160000387579203, 0.4480000212788582, 0.0, 0.0, 0.0, 0.0, 0.0, 1.7103915033890915E9, 0.0, 2024-03-13 21:45:03.389
31.0, 135.92853383952752, 24.36731816129759, -118.51181974587962, 24.776837206445634, 0.4800000227987766, 0.8160000387579203, 0.4480000212788582, 0.0, 0.0, 0.0, 0.0, 0.0, 1.7103915033890915E9, 0.0, 2024-03-13 21:45:03.389
32.0, 147.91865309746936, 26.921669831033796, -135.99959193868563, 30.15107344277203, 0.49600002355873585, 0.8160000387579203, 0.4480000212788582, 0.0, 0.0, 0.0, 0.0, 0.0, 1.7103915034026968E9, 0.0, 2024-03-13 21:45:03.402
32.0, 146.71066541178152, 33.399176554288715, -114.88411678886041, 36.51638316735625, 0.49600002355873585, 0.8160000387579203, 0.4480000212788582, 0.0, 0.0, 0.0, 0.0, 0.0, 1.7103915034026968E9, 0.0, 2024-03-13 21:45:03.402
33.0, 133.9389070631005, 24.094305464532226, -114.38297019479796, 27.0132973799482, 0.49600002355873585, 0.8160000387579203, 0.4480000212788582, 0.0, 0.0, 0.0, 0.0, 0.0, 1.7103915034184785E9, 0.0, 2024-03-13 21:45:03.418
33.0, 132.0764368851669, 21.58109269430861, -132.0465176855214, 24.92269330471754, 0.49600002355873585, 0.8160000387579203, 0.4480000212788582, 0.0, 0.0, 0.0, 0.0, 0.0, 1.7103915034184785E9, 0.0, 2024-03-13 21:45:03.418
34.0, 145.10250843083486, 29.419923001434654, -121.38780281180516, 35.82076177559793, 0.49600002355873585, 0.8160000387579203, 0.4480000212788582, 0.0, 0.0, 0.0, 0.0, 0.0, 1.710391503419401E9, 0.0, 2024-03-13 21:45:03.419
34.0, 141.81513636978343, 24.326179261785, -111.8884569243528, 28.348441664129496, 0.49600002355873585, 0.8160000387579203, 0.4480000212788582, 0.0, 0.0, 0.0, 0.0, 0.0, 1.710391503419401E9, 0.0, 2024-03-13 21:45:03.419
35.0, 143.65142724802718, 25.844578643795103, -124.48817987507209, 26.302716388367116, 0.49600002355873585, 0.8160000387579203, 0.4480000212788582, 0.0, 0.0, 0.0, 0.0, 0.0, 1.7103915034327245E9, 0.0, 2024-03-13 21:45:03.432
35.0, 145.98512482037768, 29.19552900409326, -127.97750653373078, 28.21380526572466, 0.49600002355873585, 0.8160000387579203, 0.4480000212788582, 0.0, 0.0, 0.0, 0.0, 0.0, 1.7103915034327245E9, 0.0, 2024-03-13 21:45:03.432
36.0, 142.8660482573323, 29.97342819487676, -113.6649094033055, 31.187025730498135, 0.49600002355873585, 0.8160000387579203, 0.4480000212788582, 0.0, 0.0, 0.0, 0.0, 0.0, 1.7103915034485304E9, 0.0, 2024-03-13 21:45:03.448
36.0, 132.64864157838747, 20.67603690503165, -119.98534032842144, 21.444586345925927, 0.49600002355873585, 0.8160000387579203, 0.4480000212788582, 0.0, 0.0, 0.0, 0.0, 0.0, 1.7103915034485304E9, 0.0, 2024-03-13 21:45:03.448
37.0, 141.13821447780356, 24.37105806125328, -136.8223699289374, 23.523970721289515, 0.49600002355873585, 0.8160000387579203, 0.4480000212788582, 0.0, 0.0, 0.0, 0.0, 0.0, 1.7103915034490728E9, 0.0, 2024-03-13 21:45:03.449
37.0, 147.51848380221054, 32.93168905982748, -111.39853003015742, 35.9067794745788, 0.49600002355873585, 0.8160000387579203, 0.4480000212788582, 0.0, 0.0, 0.0, 0.0, 0.0, 1.7103915034490728E9, 0.0, 2024-03-13 21:45:03.449
38.0, 138.99151190323755, 26.226048439275473, -108.70954196201637, 29.79578294698149, 0.49600002355873585, 0.8160000387579203, 0.4480000212788582, 0.0, 0.0, 0.0, 0.0, 0.0, 1.7103915034630775E9, 0.0, 2024-03-13 21:45:03.463
38.0, 130.51315870368853, 14.449103478807956, -138.66614060709253, 18.433966881595552, 0.49600002355873585, 0.8160000387579203, 0.4480000212788582, 0.0, 0.0, 0.0, 0.0, 0.0, 1.7103915034630775E9, 0.0, 2024-03-13 21:45:03.463
39.0, 146.32919561630115, 28.38397071370855, -131.3434164938517, 25.173266601748765, 0.49600002355873585, 0.8160000387579203, 0.4480000212788582, 0.0, 0.0, 0.0, 0.0, 0.0, 1.7103915034787154E9, 0.0, 2024-03-13 21:45:03.478
39.0, 142.1180682661943, 32.561438964214176, -110.33639844274148, 33.06819540821016, 0.49600002355873585, 0.8160000387579203, 0.4480000212788582, 0.0, 0.0, 0.0, 0.0, 0.0, 1.7103915034787154E9, 0.0, 2024-03-13 21:45:03.478
40.0, 142.013351067435, 26.484101536218077, -127.82417063554749, 20.58814925607294, 0.49600002355873585, 0.8160000387579203, 0.4480000212788582, 0.0, 0.0, 0.0, 0.0, 0.0, 1.7103915034793837E9, 0.0, 2024-03-13 21:45:03.479
40.0, 147.89247379777953, 31.58158517582342, -134.09224296128377, 24.690819507464767, 0.49600002355873585, 0.8160000387579203, 0.4480000212788582, 0.0, 0.0, 0.0, 0.0, 0.0, 1.7103915034793837E9, 0.0, 2024-03-13 21:45:03.479
41.0, 139.15232760133222, 27.374197725672275, -120.93527491716668, 21.253851448185742, 0.49600002355873585, 0.8160000387579203, 0.4480000212788582, 0.0, 0.0, 0.0, 0.0, 0.0, 1.7103915034926944E9, 0.0, 2024-03-13 21:45:03.492
41.0, 128.14206213178113, 15.148464770521969, -125.77096555987373, 12.259392054751515, 0.49600002355873585, 0.8160000387579203, 0.4480000212788582, 0.0, 0.0, 0.0, 0.0, 0.0, 1.7103915034926944E9, 0.0, 2024-03-13 21:45:03.492
42.0, 141.10829527815804, 23.641777569893748, -135.91357423970476, 20.10196226183325, 0.4800000227987766, 0.8160000387579203, 0.4480000212788582, 0.0, 0.0, 0.0, 0.0, 0.0, 1.7103915035084548E9, 0.0, 2024-03-13 21:45:03.508
42.0, 130.1915273074992, 27.12736432859674, -127.31928414152935, 21.515644445084035, 0.4800000227987766, 0.8160000387579203, 0.4480000212788582, 0.0, 0.0, 0.0, 0.0, 0.0, 1.7103915035084548E9, 0.0, 2024-03-13 21:45:03.508
43.0, 132.6000228789635, 26.29710653843358, -112.38212371850386, 24.343008811585605, 0.4800000227987766, 0.8160000387579203, 0.4480000212788582, 0.0, 0.0, 0.0, 0.0, 0.0, 1.7103915035090933E9, 0.0, 2024-03-13 21:45:03.509
43.0, 140.62958808382973, 25.15269715199247, -126.76951884804294, 23.108841826207936, 0.4800000227987766, 0.8160000387579203, 0.4480000212788582, 0.0, 0.0, 0.0, 0.0, 0.0, 1.7103915035090933E9, 0.0, 2024-03-13 21:45:03.509
44.0, 141.80391666991636, 34.233174244407564, -124.25630607781932, 27.664039972238243, 0.4800000227987766, 0.8160000387579203, 0.4480000212788582, 0.0, 0.0, 0.0, 0.0, 0.0, 1.7103915035391736E9, 0.0, 2024-03-13 21:45:03.539
44.0, 144.3433087398298, 37.58412460470572, -105.8821775955148, 32.17809921875596, 0.4800000227987766, 0.8160000387579203, 0.4480000212788582, 0.0, 0.0, 0.0, 0.0, 0.0, 1.7103915035391736E9, 0.0, 2024-03-13 21:45:03.539
45.0, 147.02855690801516, 36.03954592300579, -114.45402829395607, 30.64848013687879, 0.4800000227987766, 0.8160000387579203, 0.4480000212788582, 0.0, 0.0, 0.0, 0.0, 0.0, 1.710391503539775E9, 0.0, 2024-03-13 21:45:03.539
45.0, 152.13726024748757, 40.71442086761817, -123.65044228499755, 35.42807228025049, 0.4800000227987766, 0.8160000387579203, 0.4480000212788582, 0.0, 0.0, 0.0, 0.0, 0.0, 1.710391503539775E9, 0.0, 2024-03-13 21:45:03.539
46.0, 153.11711403587833, 48.43357437616214, -103.15579052781686, 42.3917659977451, 0.4800000227987766, 0.8160000387579203, 0.4480000212788582, 0.0, 0.0, 0.0, 0.0, 0.0, 1.71039150354052E9, 0.0, 2024-03-13 21:45:03.540
46.0, 145.02397053176537, 33.4777144533582, -119.68240843201056, 26.426133086904883, 0.4800000227987766, 0.8160000387579203, 0.4480000212788582, 0.0, 0.0, 0.0, 0.0, 0.0, 1.71039150354052E9, 0.0, 2024-03-13 21:45:03.540
47.0, 150.80211596330628, 33.1074643577449, -133.17970737209544, 29.02536355610937, 0.4800000227987766, 0.8160000387579203, 0.4480000212788582, 0.0, 0.0, 0.0, 0.0, 0.0, 1.71039150355289E9, 0.0, 2024-03-13 21:45:03.552
47.0, 142.48831836180761, 36.7763062142767, -120.13119642669335, 33.621700601652265, 0.4800000227987766, 0.8160000387579203, 0.4480000212788582, 0.0, 0.0, 0.0, 0.0, 0.0, 1.71039150355289E9, 0.0, 2024-03-13 21:45:03.552
48.0, 130.54681780328974, 22.71428238088265, -123.50458618672565, 21.538083844818175, 0.4800000227987766, 0.8160000387579203, 0.4480000212788582, 0.0, 0.0, 0.0, 0.0, 0.0, 1.7103915035684276E9, 0.0, 2024-03-13 21:45:03.568
48.0, 132.16245458414778, 17.717776040080935, -138.73345880629495, 15.060577121563256, 0.4800000227987766, 0.8160000387579203, 0.4480000212788582, 0.0, 0.0, 0.0, 0.0, 0.0, 1.7103915035684276E9, 0.0, 2024-03-13 21:45:03.568
49.0, 148.0495495959185, 32.53151976456866, -124.45078087551519, 33.146733307279646, 0.4800000227987766, 0.8160000387579203, 0.4480000212788582, 0.0, 0.0, 0.0, 0.0, 0.0, 1.7103915035691164E9, 0.0, 2024-03-13 21:45:03.569
49.0, 149.3472948805429, 36.192881821189076, -106.02803369378671, 32.368834116496146, 0.4800000227987766, 0.8160000387579203, 0.4480000212788582, 0.0, 0.0, 0.0, 0.0, 0.0, 1.7103915035691164E9, 0.0, 2024-03-13 21:45:03.569
50.0, 148.83866848656908, 35.781492826063186, -110.97966123512015, 33.4234859040007, 0.4800000227987766, 0.8160000387579203, 0.4480000212788582, 0.0, 0.0, 0.0, 0.0, 0.0, 1.7103915035827897E9, 0.0, 2024-03-13 21:45:03.582
50.0, 147.84385509835556, 32.39688336616382, -127.99620603350922, 31.43759902752936, 0.4800000227987766, 0.8160000387579203, 0.4480000212788582, 0.0, 0.0, 0.0, 0.0, 0.0, 1.7103915035827897E9, 0.0, 2024-03-13 21:45:03.582
51.0, 148.35622139228508, 41.26418616110459, -106.0691725932993, 37.52615615539253, 0.4800000227987766, 0.8160000387579203, 0.4480000212788582, 0.0, 0.0, 0.0, 0.0, 0.0, 1.7103915035986876E9, 0.0, 2024-03-13 21:45:03.598
51.0, 140.4201536863111, 32.37070406647399, -117.98075395217165, 27.585502073168755, 0.4800000227987766, 0.8160000387579203, 0.4480000212788582, 0.0, 0.0, 0.0, 0.0, 0.0, 1.7103915035986876E9, 0.0, 2024-03-13 21:45:03.598
52.0, 146.25065771723166, 31.23003457998857, -133.81175046460703, 29.73220464773476, 0.49600002355873585, 0.8160000387579203, 0.4480000212788582, 0.0, 0.0, 0.0, 0.0, 0.0, 1.7103915035993235E9, 0.0, 2024-03-13 21:45:03.599
52.0, 149.93445917358622, 41.26792606106028, -112.3671641186811, 37.39151975698769, 0.49600002355873585, 0.8160000387579203, 0.4480000212788582, 0.0, 0.0, 0.0, 0.0, 0.0, 1.7103915035993235E9, 0.0, 2024-03-13 21:45:03.599
53.0, 152.25693704606965, 43.32487103668973, -97.05601370008662, 41.76346280518919, 0.49600002355873585, 0.8160000387579203, 0.4480000212788582, 0.0, 0.0, 0.0, 0.0, 0.0, 1.7103915036126888E9, 0.0, 2024-03-13 21:45:03.612
53.0, 148.89476698590443, 36.71646781498566, -121.16714871441945, 31.516136926598847, 0.49600002355873585, 0.8160000387579203, 0.4480000212788582, 0.0, 0.0, 0.0, 0.0, 0.0, 1.7103915036126888E9, 0.0, 2024-03-13 21:45:03.612
54.0, 156.89441299112514, 40.35913037182763, -117.23277396103367, 37.230704058893025, 0.49600002355873585, 0.8160000387579203, 0.4480000212788582, 0.0, 0.0, 0.0, 0.0, 0.0, 1.7103915036284652E9, 0.0, 2024-03-13 21:45:03.628
54.0, 148.76387048745528, 34.50244704121724, -106.70869548572227, 33.54316270258278, 0.49600002355873585, 0.8160000387579203, 0.4480000212788582, 0.0, 0.0, 0.0, 0.0, 0.0, 1.7103915036284652E9, 0.0, 2024-03-13 21:45:03.628
55.0, 146.6022083130665, 30.571812187787145, -123.40734878787771, 27.73883797135204, 0.49600002355873585, 0.8160000387579203, 0.4480000212788582, 0.0, 0.0, 0.0, 0.0, 0.0, 1.7103915036293964E9, 0.0, 2024-03-13 21:45:03.629
55.0, 146.6470871125348, 33.50763365300372, -142.39856076287106, 25.090988802723587, 0.49600002355873585, 0.8160000387579203, 0.4480000212788582, 0.0, 0.0, 0.0, 0.0, 0.0, 1.7103915036293964E9, 0.0, 2024-03-13 21:45:03.629
56.0, 157.18986508762464, 43.31739123677835, -112.38212371850386, 34.006910297088325, 0.49600002355873585, 0.8160000387579203, 0.4480000212788582, 0.0, 0.0, 0.0, 0.0, 0.0, 1.7103915036431704E9, 0.0, 2024-03-13 21:45:03.643
56.0, 155.51812980743125, 40.84157746611163, -107.04902638169006, 37.47379755601287, 0.49600002355873585, 0.8160000387579203, 0.4480000212788582, 0.0, 0.0, 0.0, 0.0, 0.0, 1.7103915036431704E9, 0.0, 2024-03-13 21:45:03.643
57.0, 164.5051094009541, 41.24174676137045, -118.05555195128545, 42.904132291674614, 0.49600002355873585, 0.8160000387579203, 0.4480000212788582, 0.0, 0.0, 0.0, 0.0, 0.0, 1.7103915036584861E9, 0.0, 2024-03-13 21:45:03.658
57.0, 163.686071310658, 50.04547125706449, -101.27088095014915, 50.866379297338426, 0.49600002355873585, 0.8160000387579203, 0.4480000212788582, 0.0, 0.0, 0.0, 0.0, 0.0, 1.7103915036584861E9, 0.0, 2024-03-13 21:45:03.658
58.0, 148.80500938696787, 41.484840258490294, -98.45847618347034, 39.55692183133215, 0.49600002355873585, 0.8160000387579203, 0.4480000212788582, 0.0, 0.0, 0.0, 0.0, 0.0, 1.7103915036591995E9, 0.0, 2024-03-13 21:45:03.659
58.0, 146.51993051404133, 38.242346996907145, -116.98968046391383, 40.7237706175074, 0.49600002355873585, 0.8160000387579203, 0.4480000212788582, 0.0, 0.0, 0.0, 0.0, 0.0, 1.7103915036591995E9, 0.0, 2024-03-13 21:45:03.659
59.0, 161.92083853157237, 50.61393605032936, -113.76588670210913, 47.89315883256495, 0.49600002355873585, 0.8160000387579203, 0.4480000212788582, 0.0, 0.0, 0.0, 0.0, 0.0, 1.7103915036727223E9, 0.0, 2024-03-13 21:45:03.672
59.0, 160.26032295124605, 53.093489720951766, -96.61096560535952, 51.11695259436965, 0.49600002355873585, 0.8160000387579203, 0.4480000212788582, 0.0, 0.0, 0.0, 0.0, 0.0, 1.7103915036727223E9, 0.0, 2024-03-13 21:45:03.672
60.0, 156.4306653966196, 45.69222770864144, -109.29670625505969, 40.58165441919118, 0.49600002355873585, 0.8160000387579203, 0.4480000212788582, 0.0, 0.0, 0.0, 0.0, 0.0, 1.7103915036883767E9, 0.0, 2024-03-13 21:45:03.688
60.0, 170.38423213129863, 53.31040391838178, -112.05675242235884, 52.096806382760406, 0.49600002355873585, 0.8160000387579203, 0.4480000212788582, 0.0, 0.0, 0.0, 0.0, 0.0, 1.7103915036883767E9, 0.0, 2024-03-13 21:45:03.688
61.0, 156.81961499201134, 48.09698338015005, -102.38911103690043, 41.40817230939865, 0.49600002355873585, 0.8160000387579203, 0.4480000212788582, 0.0, 0.0, 0.0, 0.0, 0.0, 1.7103915036892061E9, 0.0, 2024-03-13 21:45:03.689
61.0, 144.6013618367724, 33.62357055163011, -106.74235458532348, 33.569342002272606, 0.49600002355873585, 0.8160000387579203, 0.4480000212788582, 0.0, 0.0, 0.0, 0.0, 0.0, 1.7103915036892061E9, 0.0, 2024-03-13 21:45:03.689
62.0, 148.44223909126595, 31.820938772987574, -135.25535184750333, 25.218145401217043, 0.4800000227987766, 0.8160000387579203, 0.4480000212788582, 0.0, 0.0, 0.0, 0.0, 0.0, 1.710391503702816E9, 0.0, 2024-03-13 21:45:03.702
62.0, 140.05738339060917, 30.265140391420573, -128.44125412823632, 22.95924582798034, 0.4800000227987766, 0.8160000387579203, 0.4480000212788582, 0.0, 0.0, 0.0, 0.0, 0.0, 1.710391503702816E9, 0.0, 2024-03-13 21:45:03.702
63.0, 138.79703710554168, 29.16934970440343, -124.55549807427451, 14.09194303303957, 0.4800000227987766, 0.8160000387579203, 0.4480000212788582, 0.0, 0.0, 0.0, 0.0, 0.0, 1.710391503718443E9, 0.0, 2024-03-13 21:45:03.718
63.0, 139.69087319495156, 25.055459753144532, -142.63417446007952, 19.443739869631827, 0.4800000227987766, 0.8160000387579203, 0.4480000212788582, 0.0, 0.0, 0.0, 0.0, 0.0, 1.710391503718443E9, 0.0, 2024-03-13 21:45:03.718
64.0, 156.2735895984806, 41.52223925804719, -129.8250171118416, 35.996537073515356, 0.4800000227987766, 0.8160000387579203, 0.4480000212788582, 0.0, 0.0, 0.0, 0.0, 0.0, 1.7103915037191093E9, 0.0, 2024-03-13 21:45:03.719
64.0, 152.4252325440757, 40.677021868061274, -115.60217758035287, 30.061315843835473, 0.4800000227987766, 0.8160000387579203, 0.4480000212788582, 0.0, 0.0, 0.0, 0.0, 0.0, 1.7103915037191093E9, 0.0, 2024-03-13 21:45:03.719
65.0, 159.03363576577976, 42.44973444705829, -122.61075009731576, 27.922093069180846, 0.4800000227987766, 0.8160000387579203, 0.4480000212788582, 0.0, 0.0, 0.0, 0.0, 0.0, 1.710391503732725E9, 0.0, 2024-03-13 21:45:03.732
65.0, 163.95534410746768, 42.04208535188809, -128.60580972628668, 28.11656786687672, 0.4800000227987766, 0.8160000387579203, 0.4480000212788582, 0.0, 0.0, 0.0, 0.0, 0.0, 1.710391503732725E9, 0.0, 2024-03-13 21:45:03.732
66.0, 166.4348977780901, 45.445394311565906, -107.04902638169006, 36.90907266270369, 0.4800000227987766, 0.8160000387579203, 0.4480000212788582, 0.0, 0.0, 0.0, 0.0, 0.0, 1.7103915037485263E9, 0.0, 2024-03-13 21:45:03.748
66.0, 164.4639705014415, 50.18010765546933, -100.45558275980875, 44.58708727173507, 0.4800000227987766, 0.8160000387579203, 0.4480000212788582, 0.0, 0.0, 0.0, 0.0, 0.0, 1.7103915037485263E9, 0.0, 2024-03-13 21:45:03.748
67.0, 168.37216595513746, 49.899615158792585, -112.23252772027627, 43.74186988174915, 0.4800000227987766, 0.8160000387579203, 0.4480000212788582, 0.0, 0.0, 0.0, 0.0, 0.0, 1.71039150374915E9, 0.0, 2024-03-13 21:45:03.749
67.0, 164.6846245988272, 51.17866094363853, -102.59854543441907, 42.56006149575114, 0.4800000227987766, 0.8160000387579203, 0.4480000212788582, 0.0, 0.0, 0.0, 0.0, 0.0, 1.71039150374915E9, 0.0, 2024-03-13 21:45:03.749
68.0, 161.6515657347627, 50.53913805121556, -102.35545193729922, 39.90099262725562, 0.4800000227987766, 0.8160000387579203, 0.4480000212788582, 0.0, 0.0, 0.0, 0.0, 0.0, 1.7103915037630289E9, 0.0, 2024-03-13 21:45:03.763
68.0, 176.7271024561487, 60.378814834635705, -114.79435918992385, 43.248203087598085, 0.4800000227987766, 0.8160000387579203, 0.4480000212788582, 0.0, 0.0, 0.0, 0.0, 0.0, 1.7103915037630289E9, 0.0, 2024-03-13 21:45:03.763
69.0, 193.21258146082982, 77.06998833687976, -104.33759891381487, 56.150857934728265, 0.4800000227987766, 0.8160000387579203, 0.4480000212788582, 0.0, 0.0, 0.0, 0.0, 0.0, 1.7103915037785935E9, 0.0, 2024-03-13 21:45:03.778
69.0, 192.8460712651722, 76.13501334795728, -84.84524034475908, 54.969049548730254, 0.4800000227987766, 0.8160000387579203, 0.4480000212788582, 0.0, 0.0, 0.0, 0.0, 0.0, 1.7103915037785935E9, 0.0, 2024-03-13 21:45:03.778
70.0, 173.8436395903118, 55.64410149073228, -106.663816686254, 42.19729120004922, 0.4800000227987766, 0.8160000387579203, 0.4480000212788582, 0.0, 0.0, 0.0, 0.0, 0.0, 1.7103915037791936E9, 0.0, 2024-03-13 21:45:03.779
70.0, 188.75462071364745, 66.37761436356232, -108.19717566808686, 55.6197921410203, 0.4800000227987766, 0.8160000387579203, 0.4480000212788582, 0.0, 0.0, 0.0, 0.0, 0.0, 1.7103915037791936E9, 0.0, 2024-03-13 21:45:03.779
71.0, 196.5971909207292, 78.47993062017485, -85.23792984010652, 61.44281637202948, 0.4800000227987766, 0.8160000387579203, 0.4480000212788582, 0.0, 0.0, 0.0, 0.0, 0.0, 1.7103915037927005E9, 0.0, 2024-03-13 21:45:03.792
71.0, 195.34806433552876, 79.3176682102494, -90.95623687235638, 61.55875327065587, 0.4800000227987766, 0.8160000387579203, 0.4480000212788582, 0.0, 0.0, 0.0, 0.0, 0.0, 1.7103915037927005E9, 0.0, 2024-03-13 21:45:03.792
72.0, 194.32707164762542, 72.32405529310927, -112.38212371850386, 57.22046932205558, 0.4800000227987766, 0.8160000387579203, 0.4480000212788582, 0.0, 0.0, 0.0, 0.0, 0.0, 1.710391503808458E9, 0.0, 2024-03-13 21:45:03.808
72.0, 195.41912243468687, 69.75100412359461, -105.4371295007877, 51.95469018444419, 0.4800000227987766, 0.8160000387579203, 0.4480000212788582, 0.0, 0.0, 0.0, 0.0, 0.0, 1.710391503808458E9, 0.0, 2024-03-13 21:45:03.808
73.0, 193.76982655422762, 73.460984879639, -93.77612143894657, 52.923324272967875, 0.4800000227987766, 0.8160000387579203, 0.4480000212788582, 0.0, 0.0, 0.0, 0.0, 0.0, 1.7103915038092172E9, 0.0, 2024-03-13 21:45:03.809
73.0, 195.20220823725685, 68.19146584207192, -118.2238474492915, 45.94093105569482, 0.4800000227987766, 0.8160000387579203, 0.4480000212788582, 0.0, 0.0, 0.0, 0.0, 0.0, 1.7103915038092172E9, 0.0, 2024-03-13 21:45:03.809
74.0, 200.5203459742479, 77.24576363479719, -104.68914950964972, 55.04010764788836, 0.4800000227987766, 0.8160000387579203, 0.4480000212788582, 0.0, 0.0, 0.0, 0.0, 0.0, 1.7103915038227186E9, 0.0, 2024-03-13 21:45:03.822
74.0, 198.1866484018974, 81.10160048911348, -84.23937655193731, 63.780253844335675, 0.4800000227987766, 0.8160000387579203, 0.4480000212788582, 0.0, 0.0, 0.0, 0.0, 0.0, 1.7103915038227186E9, 0.0, 2024-03-13 21:45:03.822
75.0, 188.83689851267263, 77.09990753652528, -91.87999216141179, 67.105024904944, 0.4800000227987766, 0.8160000387579203, 0.4480000212788582, 0.0, 0.0, 0.0, 0.0, 0.0, 1.7103915038385046E9, 0.0, 2024-03-13 21:45:03.838
75.0, 197.49850681005046, 80.47703719651327, -100.1788301630877, 68.75806068535894, 0.4800000227987766, 0.8160000387579203, 0.4480000212788582, 0.0, 0.0, 0.0, 0.0, 0.0, 1.7103915038385046E9, 0.0, 2024-03-13 21:45:03.838
76.0, 194.959114740137, 80.51443619607016, -79.43734500883147, 73.65732962731272, 0.4800000227987766, 0.8160000387579203, 0.4480000212788582, 0.0, 0.0, 0.0, 0.0, 0.0, 1.7103915038393507E9, 0.0, 2024-03-13 21:45:03.839
76.0, 199.57415128545836, 85.24914953997359, -73.64050007751212, 79.0390456635505, 0.4800000227987766, 0.8160000387579203, 0.4480000212788582, 0.0, 0.0, 0.0, 0.0, 0.0, 1.7103915038393507E9, 0.0, 2024-03-13 21:45:03.839
77.0, 206.5565445027314, 88.63749889982864, -89.27328189229593, 81.63453623279929, 0.4800000227987766, 0.8160000387579203, 0.4480000212788582, 0.0, 0.0, 0.0, 0.0, 0.0, 1.7103915038691292E9, 0.0, 2024-03-13 21:45:03.869
77.0, 203.23177344212309, 90.63834537612274, -81.10160048911348, 78.04049237538129, 0.4800000227987766, 0.8160000387579203, 0.4480000212788582, 0.0, 0.0, 0.0, 0.0, 0.0, 1.7103915038691292E9, 0.0, 2024-03-13 21:45:03.869
78.0, 194.8169985418208, 83.00146966660395, -80.79118879279122, 68.71318188589066, 0.4800000227987766, 0.8160000387579203, 0.4480000212788582, 0.0, 0.0, 0.0, 0.0, 0.0, 1.7103915038697836E9, 0.0, 2024-03-13 21:45:03.869
78.0, 199.05804509157315, 77.92268552677706, -95.21598292188719, 67.89414379559457, 0.4800000227987766, 0.8160000387579203, 0.4480000212788582, 0.0, 0.0, 0.0, 0.0, 0.0, 1.7103915038697836E9, 0.0, 2024-03-13 21:45:03.869
79.0, 192.80867226561531, 77.79178902832791, -94.9915889245458, 68.48504798859358, 0.4800000227987766, 0.8160000387579203, 0.4480000212788582, 0.0, 0.0, 0.0, 0.0, 0.0, 1.7103915038705552E9, 0.0, 2024-03-13 21:45:03.870
79.0, 190.79286618949845, 74.51937656709924, -80.97070399066433, 68.65334348659962, 0.4800000227987766, 0.8160000387579203, 0.4480000212788582, 0.0, 0.0, 0.0, 0.0, 0.0, 1.7103915038705552E9, 0.0, 2024-03-13 21:45:03.870
80.0, 173.44347029505298, 60.22547893645242, -101.74958814447746, 55.12612534686923, 0.4800000227987766, 0.8160000387579203, 0.4480000212788582, 0.0, 0.0, 0.0, 0.0, 0.0, 1.7103915038829648E9, 0.0, 2024-03-13 21:45:03.882
80.0, 168.4656634540297, 60.62564823171124, -119.60761043289676, 51.90233158506453, 0.4800000227987766, 0.8160000387579203, 0.4480000212788582, 0.0, 0.0, 0.0, 0.0, 0.0, 1.7103915038829648E9, 0.0, 2024-03-13 21:45:03.882
81.0, 182.0265406933613, 71.91640619793907, -89.89036538498476, 62.605925258249044, 0.4800000227987766, 0.8160000387579203, 0.4480000212788582, 0.0, 0.0, 0.0, 0.0, 0.0, 1.7103915038983984E9, 0.0, 2024-03-13 21:45:03.898
81.0, 173.2115964978002, 66.99843775620684, -89.17604449344799, 53.93309726100415, 0.4800000227987766, 0.8160000387579203, 0.4480000212788582, 0.0, 0.0, 0.0, 0.0, 0.0, 1.7103915038983984E9, 0.0, 2024-03-13 21:45:03.898
82.0, 172.74784890329465, 54.54457090375945, -113.95662159984931, 49.669611311517656, 0.4800000227987766, 0.8160000387579203, 0.4480000212788582, 0.0, 0.0, 0.0, 0.0, 0.0, 1.7103915038990667E9, 0.0, 2024-03-13 21:45:03.899
82.0, 180.25756801432, 66.06720266724005, -95.8779452140443, 52.69893027562648, 0.4800000227987766, 0.8160000387579203, 0.4480000212788582, 0.0, 0.0, 0.0, 0.0, 0.0, 1.7103915038990667E9, 0.0, 2024-03-13 21:45:03.899
83.0, 177.9201305420138, 63.87188139325008, -87.5791072123684, 53.211296569556, 0.4800000227987766, 0.8160000387579203, 0.4480000212788582, 0.0, 0.0, 0.0, 0.0, 0.0, 1.710391503912948E9, 0.0, 2024-03-13 21:45:03.912
83.0, 179.46844912366942, 60.19181983685121, -104.30393981421366, 53.8395997621119, 0.4800000227987766, 0.8160000387579203, 0.4480000212788582, 0.0, 0.0, 0.0, 0.0, 0.0, 1.710391503912948E9, 0.0, 2024-03-13 21:45:03.912
84.0, 186.24140794342384, 70.28954971721396, -104.9210233069025, 57.82259321492165, 0.4800000227987766, 0.8160000387579203, 0.4480000212788582, 0.0, 0.0, 0.0, 0.0, 0.0, 1.7103915039285328E9, 0.0, 2024-03-13 21:45:03.928
84.0, 180.27626751409844, 69.02172363223508, -84.47873014910147, 51.90981138497591, 0.4800000227987766, 0.8160000387579203, 0.4480000212788582, 0.0, 0.0, 0.0, 0.0, 0.0, 1.7103915039285328E9, 0.0, 2024-03-13 21:45:03.928
85.0, 176.36807206040248, 59.2680645477958, -99.82353966729715, 46.22142355237156, 0.4800000227987766, 0.8160000387579203, 0.4480000212788582, 0.0, 0.0, 0.0, 0.0, 0.0, 1.7103915039293451E9, 0.0, 2024-03-13 21:45:03.929
85.0, 187.50175422849134, 68.11666784295812, -106.08413219312206, 54.01163516007364, 0.4800000227987766, 0.8160000387579203, 0.4480000212788582, 0.0, 0.0, 0.0, 0.0, 0.0, 1.7103915039293451E9, 0.0, 2024-03-13 21:45:03.929
86.0, 188.53022671630606, 72.89252008637413, -86.74510952224955, 58.32747970893979, 0.4800000227987766, 0.8160000387579203, 0.4480000212788582, 0.0, 0.0, 0.0, 0.0, 0.0, 1.7103915039426718E9, 0.0, 2024-03-13 21:45:03.942
86.0, 174.9917888767086, 65.85402836976573, -90.88891867315397, 56.31915343273431, 0.4800000227987766, 0.8160000387579203, 0.4480000212788582, 0.0, 0.0, 0.0, 0.0, 0.0, 1.7103915039426718E9, 0.0, 2024-03-13 21:45:03.942
87.0, 179.0346207288094, 64.57498258491978, -109.35280475439504, 50.02116190735251, 0.4800000227987766, 0.8160000387579203, 0.4480000212788582, 0.0, 0.0, 0.0, 0.0, 0.0, 1.710391503958397E9, 0.0, 2024-03-13 21:45:03.958
87.0, 171.82409361423925, 61.05573672661558, -97.07097329990938, 50.148318505845964, 0.4800000227987766, 0.8160000387579203, 0.4480000212788582, 0.0, 0.0, 0.0, 0.0, 0.0, 1.710391503958397E9, 0.0, 2024-03-13 21:45:03.958
88.0, 168.70501705119386, 58.58366285590455, -99.8833780665882, 40.73873021733016, 0.4800000227987766, 0.8160000387579203, 0.4480000212788582, 0.0, 0.0, 0.0, 0.0, 0.0, 1.7103915039590824E9, 0.0, 2024-03-13 21:45:03.959
88.0, 174.86463227821514, 60.6780068310909, -116.22674087295309, 42.915351991541684, 0.4800000227987766, 0.8160000387579203, 0.4480000212788582, 0.0, 0.0, 0.0, 0.0, 0.0, 1.7103915039590824E9, 0.0, 2024-03-13 21:45:03.959
89.0, 185.86741794785485, 73.52082327893004, -113.48913410538808, 49.10488641820848, 0.4800000227987766, 0.8160000387579203, 0.4480000212788582, 0.0, 0.0, 0.0, 0.0, 0.0, 1.7103915039726913E9, 0.0, 2024-03-13 21:45:03.972
89.0, 190.05236599827185, 73.65919957729056, -97.2504884977825, 44.22431697603315, 0.4800000227987766, 0.8160000387579203, 0.4480000212788582, 0.0, 0.0, 0.0, 0.0, 0.0, 1.7103915039726913E9, 0.0, 2024-03-13 21:45:03.972
90.0, 178.56339333439246, 59.29050394752994, -111.35739113064483, 35.06904188450426, 0.4800000227987766, 0.8160000387579203, 0.4480000212788582, 0.0, 0.0, 0.0, 0.0, 0.0, 1.71039150398835E9, 0.0, 2024-03-13 21:45:03.988
90.0, 180.34358571330085, 59.83652934106067, -123.37742958823219, 32.86998071055859, 0.4800000227987766, 0.8160000387579203, 0.4480000212788582, 0.0, 0.0, 0.0, 0.0, 0.0, 1.71039150398835E9, 0.0, 2024-03-13 21:45:03.988
91.0, 179.28145412588492, 57.64868786698207, -99.59914566995576, 38.21429774723947, 0.4800000227987766, 0.8160000387579203, 0.4480000212788582, 0.0, 0.0, 0.0, 0.0, 0.0, 1.7103915039890797E9, 0.0, 2024-03-13 21:45:03.989
91.0, 163.96656380733475, 45.33319731289521, -100.75477475626394, 31.02621003240347, 0.4800000227987766, 0.8160000387579203, 0.4480000212788582, 0.0, 0.0, 0.0, 0.0, 0.0, 1.7103915039890797E9, 0.0, 2024-03-13 21:45:03.989
92.0, 165.64203898748383, 44.656275420915335, -118.85963044175878, 34.91570598632097, 0.49600002355873585, 0.8160000387579203, 0.4480000212788582, 0.0, 0.0, 0.0, 0.0, 0.0, 1.7103915040026903E9, 0.0, 2024-03-13 21:45:04.002
92.0, 183.477621876169, 64.15237388992682, -96.89145810203627, 48.70471712294966, 0.49600002355873585, 0.8160000387579203, 0.4480000212788582, 0.0, 0.0, 0.0, 0.0, 0.0, 1.7103915040026903E9, 0.0, 2024-03-13 21:45:04.002
93.0, 179.63300472171977, 62.360961811151356, -83.7270102580078, 46.468256949447095, 0.49600002355873585, 0.8160000387579203, 0.4480000212788582, 0.0, 0.0, 0.0, 0.0, 0.0, 1.7103915040184927E9, 0.0, 2024-03-13 21:45:04.018
93.0, 168.37964575504884, 50.329703653696924, -112.95058851176873, 34.410819492302835, 0.49600002355873585, 0.8160000387579203, 0.4480000212788582, 0.0, 0.0, 0.0, 0.0, 0.0, 1.7103915040184927E9, 0.0, 2024-03-13 21:45:04.018
94.0, 173.1367984986864, 53.553497415501624, -113.16750270919874, 37.612173854373395, 0.49600002355873585, 0.8160000387579203, 0.4480000212788582, 0.0, 0.0, 0.0, 0.0, 0.0, 1.7103915040191915E9, 0.0, 2024-03-13 21:45:04.019
94.0, 165.45878388965502, 48.50837237527594, -101.48779514757916, 37.06988836079836, 0.49600002355873585, 0.8160000387579203, 0.4480000212788582, 0.0, 0.0, 0.0, 0.0, 0.0, 1.7103915040191915E9, 0.0, 2024-03-13 21:45:04.019
95.0, 170.64976502815261, 49.30871096579358, -105.38851080136374, 42.59372059535235, 0.49600002355873585, 0.8160000387579203, 0.4480000212788582, 0.0, 0.0, 0.0, 0.0, 0.0, 1.7103915040330167E9, 0.0, 2024-03-13 21:45:04.033
95.0, 168.353466455359, 49.450827164109796, -122.05350500391796, 39.227810635231435, 0.49600002355873585, 0.8160000387579203, 0.4480000212788582, 0.0, 0.0, 0.0, 0.0, 0.0, 1.7103915040330167E9, 0.0, 2024-03-13 21:45:04.033
96.0, 156.70367809338495, 38.2947055962868, -117.10187746258453, 23.80820311792195, 0.49600002355873585, 0.8160000387579203, 0.4480000212788582, 0.0, 0.0, 0.0, 0.0, 0.0, 1.7103915040487533E9, 0.0, 2024-03-13 21:45:04.048
96.0, 152.0175834489055, 34.266833344008774, -115.04493248695508, 23.142500925809145, 0.49600002355873585, 0.8160000387579203, 0.4480000212788582, 0.0, 0.0, 0.0, 0.0, 0.0, 1.7103915040487533E9, 0.0, 2024-03-13 21:45:04.048
97.0, 176.6971832565032, 50.99540584580973, -119.68614833196625, 37.00257016159594, 0.49600002355873585, 0.8160000387579203, 0.4480000212788582, 0.0, 0.0, 0.0, 0.0, 0.0, 1.7103915040494611E9, 0.0, 2024-03-13 21:45:04.049
97.0, 181.13270460395142, 61.0856559262611, -97.55342039419338, 46.445817549712956, 0.49600002355873585, 0.8160000387579203, 0.4480000212788582, 0.0, 0.0, 0.0, 0.0, 0.0, 1.7103915040494611E9, 0.0, 2024-03-13 21:45:04.049
98.0, 174.96560957701877, 58.09747586166486, -88.73847619863227, 42.76949589326978, 0.49600002355873585, 0.8160000387579203, 0.4480000212788582, 0.0, 0.0, 0.0, 0.0, 0.0, 1.7103915040631683E9, 0.0, 2024-03-13 21:45:04.063
98.0, 175.30220057303086, 50.5615774509497, -112.19512872071937, 39.01089643780142, 0.49600002355873585, 0.8160000387579203, 0.4480000212788582, 0.0, 0.0, 0.0, 0.0, 0.0, 1.7103915040631683E9, 0.0, 2024-03-13 21:45:04.063
99.0, 177.72565574431792, 57.76088486565277, -109.292966355104, 46.475736749358475, 0.49600002355873585, 0.8160000387579203, 0.4480000212788582, 0.0, 0.0, 0.0, 0.0, 0.0, 1.71039150407873E9, 0.0, 2024-03-13 21:45:04.078
99.0, 178.63071153359488, 64.02895719138905, -94.72231612773612, 43.37161978613585, 0.49600002355873585, 0.8160000387579203, 0.4480000212788582, 0.0, 0.0, 0.0, 0.0, 0.0, 1.71039150407873E9, 0.0, 2024-03-13 21:45:04.078
100.0, 171.22196972137317, 51.79948433628306, -105.5156673998572, 39.197891435585916, 0.49600002355873585, 0.8160000387579203, 0.4480000212788582, 0.0, 0.0, 0.0, 0.0, 0.0, 1.7103915040795472E9, 0.0, 2024-03-13 21:45:04.079
100.0, 177.87151184258983, 58.725779054220766, -114.79809908987954, 48.39056552667171, 0.49600002355873585, 0.8160000387579203, 0.4480000212788582, 0.0, 0.0, 0.0, 0.0, 0.0, 1.7103915040795472E9, 0.0, 2024-03-13 21:45:04.079
0.0, 170.92651762487367, 62.92942660441622, -98.3444092348218, 50.52043855143711, 0.49600002355873585, 0.8160000387579203, 0.4480000212788582, 0.0, 0.0, 0.0, 0.0, 0.0, 1.710391504093406E9, 0.0, 2024-03-13 21:45:04.093
1.0, 171.59595971694216, 56.739892177749425, -100.24801831226796, 45.99889950500801, 0.49600002355873585, 0.8160000387579203, 0.4480000212788582, 0.0, 0.0, 0.0, 0.0, 0.0, 1.7103915040942085E9, 0.0, 2024-03-13 21:45:04.094
1.0, 178.6568908332847, 57.3794150701724, -111.7182914763689, 47.24428619025275, 0.49600002355873585, 0.8160000387579203, 0.4480000212788582, 0.0, 0.0, 0.0, 0.0, 0.0, 1.7103915040942085E9, 0.0, 2024-03-13 21:45:04.094
2.0, 187.58029212756082, 73.44602527981624, -88.47855315171182, 65.09108877880499, 0.4800000227987766, 0.8160000387579203, 0.4480000212788582, 0.0, 0.0, 0.0, 0.0, 0.0, 1.7103915041076708E9, 0.0, 2024-03-13 21:45:04.107
2.0, 173.04330099979416, 62.58161590853706, -84.8171910950914, 59.578476244118065, 0.4800000227987766, 0.8160000387579203, 0.4480000212788582, 0.0, 0.0, 0.0, 0.0, 0.0, 1.7103915041076708E9, 0.0, 2024-03-13 21:45:04.107
3.0, 171.86897241370752, 56.51175828045234, -105.04257005546242, 56.40704108169302, 0.4800000227987766, 0.8160000387579203, 0.4480000212788582, 0.0, 0.0, 0.0, 0.0, 0.0, 1.7103915041233664E9, 0.0, 2024-03-13 21:45:04.123
3.0, 175.86692546634004, 63.550249997060746, -104.43670626264066, 56.40330118173733, 0.4800000227987766, 0.8160000387579203, 0.4480000212788582, 0.0, 0.0, 0.0, 0.0, 0.0, 1.7103915041233664E9, 0.0, 2024-03-13 21:45:04.123
4.0, 172.9498035009019, 63.67366669559851, -90.2288263309747, 62.12908801389858, 0.4800000227987766, 0.8160000387579203, 0.4480000212788582, 0.0, 0.0, 0.0, 0.0, 0.0, 1.7103915041241755E9, 0.0, 2024-03-13 21:45:04.124
4.0, 179.82747951941565, 62.53673710906878, -94.47735268063843, 59.30172364739701, 0.4800000227987766, 0.8160000387579203, 0.4480000212788582, 0.0, 0.0, 0.0, 0.0, 0.0, 1.7103915041241755E9, 0.0, 2024-03-13 21:45:04.124
5.0, 185.70660224976018, 68.66269323648885, -101.90853389259428, 57.48413226893172, 0.4800000227987766, 0.8160000387579203, 0.4480000212788582, 0.0, 0.0, 0.0, 0.0, 0.0, 1.710391504137654E9, 0.0, 2024-03-13 21:45:04.137
5.0, 168.2786684562452, 63.74846469471231, -93.88644848763943, 53.549757515545934, 0.4800000227987766, 0.8160000387579203, 0.4480000212788582, 0.0, 0.0, 0.0, 0.0, 0.0, 1.710391504137654E9, 0.0, 2024-03-13 21:45:04.137
6.0, 159.48242376046255, 45.101323515642434, -102.87342808116227, 43.463247335050255, 0.4800000227987766, 0.8160000387579203, 0.4480000212788582, 0.0, 0.0, 0.0, 0.0, 0.0, 1.71039150415344E9, 0.0, 2024-03-13 21:45:04.153
6.0, 168.43948415433988, 41.79151205485687, -116.7970756161958, 37.32233160780743, 0.4800000227987766, 0.8160000387579203, 0.4480000212788582, 0.0, 0.0, 0.0, 0.0, 0.0, 1.71039150415344E9, 0.0, 2024-03-13 21:45:04.153
7.0, 174.2886876850389, 53.564717115368694, -104.78077705856413, 45.56133121019229, 0.4800000227987766, 0.8160000387579203, 0.4480000212788582, 0.0, 0.0, 0.0, 0.0, 0.0, 1.7103915041542363E9, 0.0, 2024-03-13 21:45:04.154
7.0, 169.14632524596527, 51.82940353592858, -93.6358751906082, 41.99346665246412, 0.4800000227987766, 0.8160000387579203, 0.4480000212788582, 0.0, 0.0, 0.0, 0.0, 0.0, 1.7103915041542363E9, 0.0, 2024-03-13 21:45:04.154
8.0, 170.21593663329259, 55.68150049028918, -107.65676012448967, 46.331750601064414, 0.4800000227987766, 0.8160000387579203, 0.4480000212788582, 0.0, 0.0, 0.0, 0.0, 0.0, 1.7103915041678429E9, 0.0, 2024-03-13 21:45:04.167
8.0, 172.56459380546585, 60.08710263809189, -108.93206600937992, 50.759792148601264, 0.4800000227987766, 0.8160000387579203, 0.4480000212788582, 0.0, 0.0, 0.0, 0.0, 0.0, 1.7103915041678429E9, 0.0, 2024-03-13 21:45:04.167
9.0, 171.0648939232342, 62.85462860530242, -86.91901487018913, 54.92604069923982, 0.4800000227987766, 0.8160000387579203, 0.4480000212788582, 0.0, 0.0, 0.0, 0.0, 0.0, 1.710391504183427E9, 0.0, 2024-03-13 21:45:04.183
9.0, 181.87320479517803, 65.86150816967711, -89.66410143766552, 56.8595689763315, 0.4800000227987766, 0.8160000387579203, 0.4480000212788582, 0.0, 0.0, 0.0, 0.0, 0.0, 1.710391504183427E9, 0.0, 2024-03-13 21:45:04.183
10.0, 176.20725636230782, 58.21341276029125, -108.79742961097509, 51.522731739562005, 0.4800000227987766, 0.8160000387579203, 0.4480000212788582, 0.0, 0.0, 0.0, 0.0, 0.0, 1.7103915041842186E9, 0.0, 2024-03-13 21:45:04.184
10.0, 175.7322890679352, 66.54964976152405, -88.7440860485658, 54.40619460539892, 0.4800000227987766, 0.8160000387579203, 0.4480000212788582, 0.0, 0.0, 0.0, 0.0, 0.0, 1.7103915041842186E9, 0.0, 2024-03-13 21:45:04.184
11.0, 167.9121582605876, 50.00059245759621, -90.05679093301296, 47.113389691803604, 0.4800000227987766, 0.8160000387579203, 0.4480000212788582, 0.0, 0.0, 0.0, 0.0, 0.0, 1.7103915041979783E9, 0.0, 2024-03-13 21:45:04.197
11.0, 165.64203898748383, 42.49461324652657, -117.78814910445362, 43.94943432928994, 0.4800000227987766, 0.8160000387579203, 0.4480000212788582, 0.0, 0.0, 0.0, 0.0, 0.0, 1.7103915041979783E9, 0.0, 2024-03-13 21:45:04.197
12.0, 174.9917888767086, 57.947879863437265, -104.97899175621569, 45.36311651254073, 0.4800000227987766, 0.8160000387579203, 0.4480000212788582, 0.0, 0.0, 0.0, 0.0, 0.0, 1.7103915042137885E9, 0.0, 2024-03-13 21:45:04.213
12.0, 174.86089237825945, 53.86390911182389, -100.11712181381881, 34.610904139932245, 0.4800000227987766, 0.8160000387579203, 0.4480000212788582, 0.0, 0.0, 0.0, 0.0, 0.0, 1.7103915042137885E9, 0.0, 2024-03-13 21:45:04.213
13.0, 165.9823698834516, 42.1131434510462, -122.42562504950911, 28.211935315746814, 0.4800000227987766, 0.8160000387579203, 0.4480000212788582, 0.0, 0.0, 0.0, 0.0, 0.0, 1.7103915042144392E9, 0.0, 2024-03-13 21:45:04.214
13.0, 177.11231215158477, 59.189526648726314, -107.47350502666086, 43.67268173256889, 0.4800000227987766, 0.8160000387579203, 0.4480000212788582, 0.0, 0.0, 0.0, 0.0, 0.0, 1.7103915042144392E9, 0.0, 2024-03-13 21:45:04.214
14.0, 167.5045091654174, 49.925794458482414, -101.25779130030423, 30.73262788588181, 0.4800000227987766, 0.8160000387579203, 0.4480000212788582, 0.0, 0.0, 0.0, 0.0, 0.0, 1.7103915042276852E9, 0.0, 2024-03-13 21:45:04.227
14.0, 177.8490724428557, 47.56965748639777, -100.56964970845729, 36.15548282163218, 0.4800000227987766, 0.8160000387579203, 0.4480000212788582, 0.0, 0.0, 0.0, 0.0, 0.0, 1.7103915042276852E9, 0.0, 2024-03-13 21:45:04.227
15.0, 176.38677156018093, 52.57364362711087, -113.43490555603057, 39.93652167683467, 0.4800000227987766, 0.8160000387579203, 0.4480000212788582, 0.0, 0.0, 0.0, 0.0, 0.0, 1.7103915042436557E9, 0.0, 2024-03-13 21:45:04.243
15.0, 175.35081927245483, 55.73385908966884, -91.16006141994148, 50.711173449177295, 0.4800000227987766, 0.8160000387579203, 0.4480000212788582, 0.0, 0.0, 0.0, 0.0, 0.0, 1.7103915042436557E9, 0.0, 2024-03-13 21:45:04.243
16.0, 184.23308166721836, 66.28411686467007, -83.64286250900477, 58.84171595284715, 0.4800000227987766, 0.8160000387579203, 0.4480000212788582, 0.0, 0.0, 0.0, 0.0, 0.0, 1.7103915042442007E9, 0.0, 2024-03-13 21:45:04.244
16.0, 169.1313656461425, 48.55699107469991, -110.66363968886435, 43.33235083660111, 0.4800000227987766, 0.8160000387579203, 0.4480000212788582, 0.0, 0.0, 0.0, 0.0, 0.0, 1.7103915042442007E9, 0.0, 2024-03-13 21:45:04.244
17.0, 158.69704476976767, 43.72504033194855, -109.051742807962, 37.93193530058488, 0.4800000227987766, 0.8160000387579203, 0.4480000212788582, 0.0, 0.0, 0.0, 0.0, 0.0, 1.710391504257706E9, 0.0, 2024-03-13 21:45:04.257
17.0, 144.61258153663948, 36.271419720258564, -106.28047694079578, 30.73262788588181, 0.4800000227987766, 0.8160000387579203, 0.4480000212788582, 0.0, 0.0, 0.0, 0.0, 0.0, 1.710391504257706E9, 0.0, 2024-03-13 21:45:04.257
18.0, 140.58844918431714, 25.631404346320778, -119.28784898668528, 26.499061136040837, 0.4800000227987766, 0.8160000387579203, 0.4480000212788582, 0.0, 0.0, 0.0, 0.0, 0.0, 1.710391504273733E9, 0.0, 2024-03-13 21:45:04.273
18.0, 140.58096938440576, 26.02409384166822, -118.89515949133784, 29.51716040028259, 0.4800000227987766, 0.8160000387579203, 0.4480000212788582, 0.0, 0.0, 0.0, 0.0, 0.0, 1.710391504273733E9, 0.0, 2024-03-13 21:45:04.273
19.0, 131.90814138716087, 18.31242013303563, -107.00227763224393, 22.40761058451608, 0.4800000227987766, 0.8160000387579203, 0.4480000212788582, 0.0, 0.0, 0.0, 0.0, 0.0, 1.7103915042743556E9, 0.0, 2024-03-13 21:45:04.274
19.0, 121.60471700923517, 11.517021913547069, -120.7613695692271, 17.227849145885557, 0.4800000227987766, 0.8160000387579203, 0.4480000212788582, 0.0, 0.0, 0.0, 0.0, 0.0, 1.7103915042743556E9, 0.0, 2024-03-13 21:45:04.274
20.0, 133.3405230701901, 16.621985353063792, -131.35276624374092, 25.227495151106268, 0.4800000227987766, 0.8160000387579203, 0.4480000212788582, 0.0, 0.0, 0.0, 0.0, 0.0, 1.710391504287796E9, 0.0, 2024-03-13 21:45:04.287
20.0, 127.70075393700972, 16.210596357937902, -125.23428991623223, 18.69015002856031, 0.4800000227987766, 0.8160000387579203, 0.4480000212788582, 0.0, 0.0, 0.0, 0.0, 0.0, 1.710391504287796E9, 0.0, 2024-03-13 21:45:04.287
21.0, 116.10706407437101, 3.625833007041365, -117.91530570294708, 15.316760268528014, 0.4800000227987766, 0.8160000387579203, 0.4480000212788582, 0.0, 0.0, 0.0, 0.0, 0.0, 1.7103915043033924E9, 0.0, 2024-03-13 21:45:04.303
21.0, 112.03057312266901, -3.5510350079275668, -137.33660617284477, 11.524501713458449, 0.4800000227987766, 0.8160000387579203, 0.4480000212788582, 0.0, 0.0, 0.0, 0.0, 0.0, 1.7103915043033924E9, 0.0, 2024-03-13 21:45:04.303
22.0, 118.7062945435755, 12.010688707698137, -116.10519412439317, 26.42052323697135, 0.4800000227987766, 0.8160000387579203, 0.4480000212788582, 0.0, 0.0, 0.0, 0.0, 0.0, 1.7103915043041704E9, 0.0, 2024-03-13 21:45:04.304
22.0, 119.76468623103574, 13.88063868554309, -96.66893405467272, 27.063786029350013, 0.4800000227987766, 0.8160000387579203, 0.4480000212788582, 0.0, 0.0, 0.0, 0.0, 0.0, 1.7103915043041704E9, 0.0, 2024-03-13 21:45:04.304
23.0, 121.76553270732984, 10.484809525776654, -116.99529031384736, 21.59605229413137, 0.4800000227987766, 0.8160000387579203, 0.4480000212788582, 0.0, 0.0, 0.0, 0.0, 0.0, 1.710391504317712E9, 0.0, 2024-03-13 21:45:04.317
23.0, 132.35692938184366, 23.07331277662888, -117.54505560733378, 29.434882601257414, 0.4800000227987766, 0.8160000387579203, 0.4480000212788582, 0.0, 0.0, 0.0, 0.0, 0.0, 1.710391504317712E9, 0.0, 2024-03-13 21:45:04.317
24.0, 122.44993439922109, 18.66397072887048, -103.5653095729649, 27.837945320177823, 0.4800000227987766, 0.8160000387579203, 0.4480000212788582, 0.0, 0.0, 0.0, 0.0, 0.0, 1.7103915043334267E9, 0.0, 2024-03-13 21:45:04.333
24.0, 115.06363198673353, 3.898845703806728, -125.05477471835911, 11.236529416870326, 0.4800000227987766, 0.8160000387579203, 0.4480000212788582, 0.0, 0.0, 0.0, 0.0, 0.0, 1.7103915043334267E9, 0.0, 2024-03-13 21:45:04.333
25.0, 131.39951499318704, 21.274420897942036, -123.9477643314749, 26.79451323254034, 0.4800000227987766, 0.8160000387579203, 0.4480000212788582, 0.0, 0.0, 0.0, 0.0, 0.0, 1.7103915043342628E9, 0.0, 2024-03-13 21:45:04.334
25.0, 130.88340879930183, 23.60063867038116, -109.17515950649977, 30.83734508464113, 0.4800000227987766, 0.8160000387579203, 0.4480000212788582, 0.0, 0.0, 0.0, 0.0, 0.0, 1.7103915043342628E9, 0.0, 2024-03-13 21:45:04.334
26.0, 117.93213525274768, 10.787741422187537, -117.04764891322702, 21.12856479967013, 0.4800000227987766, 0.8160000387579203, 0.4480000212788582, 0.0, 0.0, 0.0, 0.0, 0.0, 1.7103915043480496E9, 0.0, 2024-03-13 21:45:04.348
26.0, 121.06617141561583, 8.173551353160292, -134.08289321139455, 19.423170419875532, 0.4800000227987766, 0.8160000387579203, 0.4480000212788582, 0.0, 0.0, 0.0, 0.0, 0.0, 1.7103915043480496E9, 0.0, 2024-03-13 21:45:04.348
27.0, 127.0425315448083, 22.063539788592607, -118.84280089195818, 26.73093493329361, 0.4800000227987766, 0.8160000387579203, 0.4480000212788582, 0.0, 0.0, 0.0, 0.0, 0.0, 1.7103915043636189E9, 0.0, 2024-03-13 21:45:04.363
27.0, 123.44100788747892, 22.934936478268355, -112.52236996684223, 19.1015390236862, 0.4800000227987766, 0.8160000387579203, 0.4480000212788582, 0.0, 0.0, 0.0, 0.0, 0.0, 1.7103915043636189E9, 0.0, 2024-03-13 21:45:04.363
28.0, 135.02721795020625, 17.50460174260661, -125.3165677152574, 20.141231211367995, 0.4800000227987766, 0.8160000387579203, 0.4480000212788582, 0.0, 0.0, 0.0, 0.0, 0.0, 1.7103915043640995E9, 0.0, 2024-03-13 21:45:04.364
28.0, 136.6054557315074, 24.78992685629055, -128.74979587458074, 18.74624852789566, 0.4800000227987766, 0.8160000387579203, 0.4480000212788582, 0.0, 0.0, 0.0, 0.0, 0.0, 1.7103915043640995E9, 0.0, 2024-03-13 21:45:04.364
29.0, 127.26692554214969, 14.897891473490745, -123.62239303532988, 7.870619456749409, 0.4800000227987766, 0.8160000387579203, 0.4480000212788582, 0.0, 0.0, 0.0, 0.0, 0.0, 1.7103915043780181E9, 0.0, 2024-03-13 21:45:04.378
29.0, 129.3799690171145, 15.698230064008385, -128.63385897595435, 11.700277011375874, 0.4800000227987766, 0.8160000387579203, 0.4480000212788582, 0.0, 0.0, 0.0, 0.0, 0.0, 1.7103915043780181E9, 0.0, 2024-03-13 21:45:04.378
30.0, 135.25161194754764, 16.3601923561655, -137.09351267572492, 15.701969963964075, 0.4800000227987766, 0.8160000387579203, 0.4480000212788582, 0.0, 0.0, 0.0, 0.0, 0.0, 1.710391504393393E9, 0.0, 2024-03-13 21:45:04.393
30.0, 129.64550191396847, 14.931550573091954, -127.69514408707619, 9.48251633765176, 0.4800000227987766, 0.8160000387579203, 0.4480000212788582, 0.0, 0.0, 0.0, 0.0, 0.0, 1.710391504393393E9, 0.0, 2024-03-13 21:45:04.393
31.0, 132.24847228312865, 15.758068463299423, -118.82036149222404, 11.176691017579287, 0.4800000227987766, 0.8160000387579203, 0.4480000212788582, 0.0, 0.0, 0.0, 0.0, 0.0, 1.7103915043940785E9, 0.0, 2024-03-13 21:45:04.394
31.0, 135.06461694976315, 13.596406288910657, -131.3265869440511, 12.799807598348707, 0.4800000227987766, 0.8160000387579203, 0.4480000212788582, 0.0, 0.0, 0.0, 0.0, 0.0, 1.7103915043940785E9, 0.0, 2024-03-13 21:45:04.394
32.0, 136.07438993779942, 19.0641400241293, -120.26396287512034, 25.264894150663167, 0.4800000227987766, 0.8160000387579203, 0.4480000212788582, 0.0, 0.0, 0.0, 0.0, 0.0, 1.710391504407736E9, 0.0, 2024-03-13 21:45:04.407
32.0, 126.21601365460083, 17.08573294756934, -115.18517873529345, 10.582046924624592, 0.4800000227987766, 0.8160000387579203, 0.4480000212788582, 0.0, 0.0, 0.0, 0.0, 0.0, 1.710391504407736E9, 0.0, 2024-03-13 21:45:04.407
33.0, 134.40639455756173, 17.54200074216351, -130.55990745313466, 12.612812600564212, 0.4800000227987766, 0.8160000387579203, 0.4480000212788582, 0.0, 0.0, 0.0, 0.0, 0.0, 1.7103915044233909E9, 0.0, 2024-03-13 21:45:04.423
33.0, 131.62390899052843, 17.987048836890608, -131.42756424285471, 14.957729872781783, 0.4800000227987766, 0.8160000387579203, 0.4480000212788582, 0.0, 0.0, 0.0, 0.0, 0.0, 1.7103915044233909E9, 0.0, 2024-03-13 21:45:04.423
34.0, 120.61738342093304, 10.380092327017337, -118.21449769940227, 16.524747954215854, 0.4800000227987766, 0.8160000387579203, 0.4480000212788582, 0.0, 0.0, 0.0, 0.0, 0.0, 1.7103915044241798E9, 0.0, 2024-03-13 21:45:04.424
34.0, 119.27849923679605, 4.156898800749332, -121.31113486271352, 15.260661769192666, 0.4800000227987766, 0.8160000387579203, 0.4480000212788582, 0.0, 0.0, 0.0, 0.0, 0.0, 1.7103915044241798E9, 0.0, 2024-03-13 21:45:04.424
35.0, 136.489518832881, 23.5482800710015, -130.93389744870365, 24.677729857619852, 0.4800000227987766, 0.8160000387579203, 0.4480000212788582, 0.0, 0.0, 0.0, 0.0, 0.0, 1.710391504437896E9, 0.0, 2024-03-13 21:45:04.437
35.0, 137.46189282136038, 23.09575217636302, -117.73953040502965, 21.330519397277385, 0.4800000227987766, 0.8160000387579203, 0.4480000212788582, 0.0, 0.0, 0.0, 0.0, 0.0, 1.710391504437896E9, 0.0, 2024-03-13 21:45:04.437
36.0, 136.46707943314686, 23.712835669051856, -115.83592132758349, 19.744801816064864, 0.4800000227987766, 0.8160000387579203, 0.4480000212788582, 0.0, 0.0, 0.0, 0.0, 0.0, 1.7103915044534206E9, 0.0, 2024-03-13 21:45:04.453
36.0, 144.99031143216416, 27.048826429527253, -133.62662541680038, 21.764347792137414, 0.4800000227987766, 0.8160000387579203, 0.4480000212788582, 0.0, 0.0, 0.0, 0.0, 0.0, 1.7103915044534206E9, 0.0, 2024-03-13 21:45:04.453
37.0, 151.03024986060336, 33.57495185220614, -122.62009984720498, 25.48928814800456, 0.4800000227987766, 0.8160000387579203, 0.4480000212788582, 0.0, 0.0, 0.0, 0.0, 0.0, 1.7103915044541044E9, 0.0, 2024-03-13 21:45:04.454
37.0, 149.71380507620052, 34.154636345338076, -112.67570586502552, 21.58109269430861, 0.4800000227987766, 0.8160000387579203, 0.4480000212788582, 0.0, 0.0, 0.0, 0.0, 0.0, 1.7103915044541044E9, 0.0, 2024-03-13 21:45:04.454
38.0, 138.87557500461116, 18.963162725325674, -132.78140802681446, 13.345832991879433, 0.4800000227987766, 0.8160000387579203, 0.4480000212788582, 0.0, 0.0, 0.0, 0.0, 0.0, 1.7103915044677567E9, 0.0, 2024-03-13 21:45:04.467
38.0, 143.44947265041992, 29.808872596826404, -127.16407829336822, 19.370811820495874, 0.4800000227987766, 0.8160000387579203, 0.4480000212788582, 0.0, 0.0, 0.0, 0.0, 0.0, 1.7103915044677567E9, 0.0, 2024-03-13 21:45:04.467
39.0, 144.00297784386203, 29.270327003207058, -107.78765662293881, 24.026987265329808, 0.4800000227987766, 0.8160000387579203, 0.4480000212788582, 0.0, 0.0, 0.0, 0.0, 0.0, 1.7103915044834273E9, 0.0, 2024-03-13 21:45:04.483
39.0, 134.7542052534409, 19.46056941943243, -120.33128107432276, 16.68930355226621, 0.4800000227987766, 0.8160000387579203, 0.4480000212788582, 0.0, 0.0, 0.0, 0.0, 0.0, 1.7103915044834273E9, 0.0, 2024-03-13 21:45:04.483
40.0, 145.13616753043607, 20.425463608000427, -131.31536724418402, 18.78364752745256, 0.4800000227987766, 0.8160000387579203, 0.4640000220388174, 0.0, 0.0, 0.0, 0.0, 0.0, 1.7103915044845335E9, 0.0, 2024-03-13 21:45:04.484
40.0, 143.39711405104026, 30.470834888983518, -105.41656005103141, 30.39603688986972, 0.4800000227987766, 0.8160000387579203, 0.4640000220388174, 0.0, 0.0, 0.0, 0.0, 0.0, 1.7103915044845335E9, 0.0, 2024-03-13 21:45:04.484
41.0, 139.15232760133222, 26.835652132052928, -110.41680629178882, 23.55575987091288, 0.4800000227987766, 0.8160000387579203, 0.4640000220388174, 0.0, 0.0, 0.0, 0.0, 0.0, 1.7103915044980464E9, 0.0, 2024-03-13 21:45:04.498
41.0, 141.01853767922148, 27.19094262784347, -129.18736416939646, 23.768934168387204, 0.4800000227987766, 0.8160000387579203, 0.4640000220388174, 0.0, 0.0, 0.0, 0.0, 0.0, 1.7103915044980464E9, 0.0, 2024-03-13 21:45:04.498
42.0, 147.72791819972917, 29.63683719886467, -114.54565584287047, 29.659276598598808, 0.4800000227987766, 0.8160000387579203, 0.4640000220388174, 0.0, 0.0, 0.0, 0.0, 0.0, 1.7103915045137043E9, 0.0, 2024-03-13 21:45:04.513
42.0, 142.50701786158606, 26.75337433302775, -107.89237382169813, 21.5848325942643, 0.4800000227987766, 0.8160000387579203, 0.4640000220388174, 0.0, 0.0, 0.0, 0.0, 0.0, 1.7103915045137043E9, 0.0, 2024-03-13 21:45:04.513
43.0, 142.26392436446622, 21.304340097587556, -125.79527490958571, 22.175736787263304, 0.4800000227987766, 0.8160000387579203, 0.4640000220388174, 0.0, 0.0, 0.0, 0.0, 0.0, 1.7103915045143194E9, 0.0, 2024-03-13 21:45:04.514
43.0, 153.81647532759234, 34.618383939843625, -121.26251616328955, 31.97053477121517, 0.4800000227987766, 0.8160000387579203, 0.4640000220388174, 0.0, 0.0, 0.0, 0.0, 0.0, 1.7103915045143194E9, 0.0, 2024-03-13 21:45:04.514
44.0, 140.50617138529196, 20.522701006848365, -117.26456311065704, 19.621385117527097, 0.4800000227987766, 0.8160000387579203, 0.4640000220388174, 0.0, 0.0, 0.0, 0.0, 0.0, 1.7103915045279512E9, 0.0, 2024-03-13 21:45:04.527
44.0, 129.8624161113985, 7.691104258876294, -135.21982279792428, 6.094166977796704, 0.4800000227987766, 0.8160000387579203, 0.4640000220388174, 0.0, 0.0, 0.0, 0.0, 0.0, 1.7103915045279512E9, 0.0, 2024-03-13 21:45:04.527
45.0, 137.828403017018, 13.181277393829077, -139.87599824275821, 17.747695239726454, 0.4800000227987766, 0.8160000387579203, 0.4640000220388174, 0.0, 0.0, 0.0, 0.0, 0.0, 1.7103915045437465E9, 0.0, 2024-03-13 21:45:04.543
45.0, 136.02203133841977, 18.27502113347873, -111.43779897969216, 25.070419352967292, 0.4800000227987766, 0.8160000387579203, 0.4640000220388174, 0.0, 0.0, 0.0, 0.0, 0.0, 1.7103915045437465E9, 0.0, 2024-03-13 21:45:04.543
46.0, 126.42170815216377, 8.166071553248912, -120.67909177020192, 7.489149661269039, 0.4800000227987766, 0.8160000387579203, 0.4640000220388174, 0.0, 0.0, 0.0, 0.0, 0.0, 1.7103915045443387E9, 0.0, 2024-03-13 21:45:04.544
46.0, 132.01285858592018, 6.168964976910502, -140.0667331404984, 10.166918029543012, 0.4800000227987766, 0.8160000387579203, 0.4640000220388174, 0.0, 0.0, 0.0, 0.0, 0.0, 1.7103915045443387E9, 0.0, 2024-03-13 21:45:04.544
47.0, 144.80705633433536, 21.304340097587556, -119.10833378881216, 22.052320088725537, 0.4800000227987766, 0.8160000387579203, 0.4640000220388174, 0.0, 0.0, 0.0, 0.0, 0.0, 1.7103915045578215E9, 0.0, 2024-03-13 21:45:04.557
47.0, 139.384201398585, 22.30663328571245, -115.76860312838107, 17.631758341100067, 0.4800000227987766, 0.8160000387579203, 0.4640000220388174, 0.0, 0.0, 0.0, 0.0, 0.0, 1.7103915045578215E9, 0.0, 2024-03-13 21:45:04.557
48.0, 140.55852998467162, 18.936983425635844, -126.58813370019197, 15.836606362368912, 0.4800000227987766, 0.8160000387579203, 0.4640000220388174, 0.0, 0.0, 0.0, 0.0, 0.0, 1.71039150457347E9, 0.0, 2024-03-13 21:45:04.573
48.0, 141.76277777040377, 22.38891108473763, -128.25986898038536, 18.33111963281408, 0.4800000227987766, 0.8160000387579203, 0.4640000220388174, 0.0, 0.0, 0.0, 0.0, 0.0, 1.71039150457347E9, 0.0, 2024-03-13 21:45:04.573
49.0, 132.8580759759061, 17.10443244734779, -114.02206984907389, 18.454536331351846, 0.4800000227987766, 0.8160000387579203, 0.4640000220388174, 0.0, 0.0, 0.0, 0.0, 0.0, 1.7103915045741453E9, 0.0, 2024-03-13 21:45:04.574
49.0, 124.92200826993212, 5.634159283246845, -124.83038072101772, 14.901631373446435, 0.4800000227987766, 0.8160000387579203, 0.4640000220388174, 0.0, 0.0, 0.0, 0.0, 0.0, 1.7103915045741453E9, 0.0, 2024-03-13 21:45:04.574
50.0, 132.33448998210952, 16.25547515740618, -129.66607136372477, 23.873651367146522, 0.4800000227987766, 0.8160000387579203, 0.4640000220388174, 0.0, 0.0, 0.0, 0.0, 0.0, 1.7103915045877097E9, 0.0, 2024-03-13 21:45:04.587
50.0, 128.818984023761, 19.213736022356898, -111.25454388186336, 22.998514777515084, 0.4800000227987766, 0.8160000387579203, 0.4640000220388174, 0.0, 0.0, 0.0, 0.0, 0.0, 1.7103915045877097E9, 0.0, 2024-03-13 21:45:04.587
51.0, 129.51460541551933, 14.939030373003334, -116.3146285219118, 14.437883778940886, 0.4800000227987766, 0.8160000387579203, 0.4640000220388174, 0.0, 0.0, 0.0, 0.0, 0.0, 1.7103915046033928E9, 0.0, 2024-03-13 21:45:04.603
51.0, 141.35138877527788, 22.26923428615555, -134.96924950089306, 17.94964983733371, 0.4800000227987766, 0.8160000387579203, 0.4640000220388174, 0.0, 0.0, 0.0, 0.0, 0.0, 1.7103915046033928E9, 0.0, 2024-03-13 21:45:04.603
52.0, 155.28999591013417, 34.996113835368305, -119.16069238819182, 26.674836433958262, 0.4800000227987766, 0.8160000387579203, 0.4640000220388174, 0.0, 0.0, 0.0, 0.0, 0.0, 1.7103915046040616E9, 0.0, 2024-03-13 21:45:04.604
52.0, 151.9839243493043, 25.59400534676388, -117.18976511154324, 18.140384735073894, 0.4800000227987766, 0.8160000387579203, 0.4640000220388174, 0.0, 0.0, 0.0, 0.0, 0.0, 1.7103915046040616E9, 0.0, 2024-03-13 21:45:04.604
53.0, 143.51679084962234, 19.96171601349488, -131.9174911370501, 16.621985353063792, 0.4800000227987766, 0.8160000387579203, 0.4640000220388174, 0.0, 0.0, 0.0, 0.0, 0.0, 1.7103915046177692E9, 0.0, 2024-03-13 21:45:04.617
53.0, 140.92504018032923, 21.379138096701354, -128.7310963748023, 19.718622516375035, 0.4800000227987766, 0.8160000387579203, 0.4640000220388174, 0.0, 0.0, 0.0, 0.0, 0.0, 1.7103915046177692E9, 0.0, 2024-03-13 21:45:04.617
54.0, 142.95206595631316, 16.128318558912724, -112.09602137189358, 20.582539406139404, 0.4800000227987766, 0.8160000387579203, 0.4640000220388174, 0.0, 0.0, 0.0, 0.0, 0.0, 1.7103915046334093E9, 0.0, 2024-03-13 21:45:04.633
54.0, 131.95302018662915, 10.582046924624592, -125.73543651029468, 13.91803768509999, 0.4800000227987766, 0.8160000387579203, 0.4640000220388174, 0.0, 0.0, 0.0, 0.0, 0.0, 1.7103915046334093E9, 0.0, 2024-03-13 21:45:04.633
55.0, 147.0173372081481, 23.821292767766863, -125.84763350896537, 23.53706037113443, 0.4800000227987766, 0.8160000387579203, 0.4640000220388174, 0.0, 0.0, 0.0, 0.0, 0.0, 1.7103915046340888E9, 0.0, 2024-03-13 21:45:04.634
55.0, 147.7578373993747, 30.01082719443366, -101.35128879919648, 35.366363930981606, 0.4800000227987766, 0.8160000387579203, 0.4640000220388174, 0.0, 0.0, 0.0, 0.0, 0.0, 1.7103915046340888E9, 0.0, 2024-03-13 21:45:04.634
56.0, 138.22483241232112, 23.780153868254274, -100.43127341009676, 29.715375097934157, 0.4800000227987766, 0.8160000387579203, 0.4640000220388174, 0.0, 0.0, 0.0, 0.0, 0.0, 1.7103915046479936E9, 0.0, 2024-03-13 21:45:04.647
56.0, 140.9773987797089, 25.769780644681305, -130.0587608590722, 28.133397416677326, 0.4800000227987766, 0.8160000387579203, 0.4640000220388174, 0.0, 0.0, 0.0, 0.0, 0.0, 1.7103915046479936E9, 0.0, 2024-03-13 21:45:04.647
57.0, 139.2009463007562, 21.289380497764796, -124.64712562318891, 26.29336663847789, 0.4800000227987766, 0.8160000387579203, 0.4640000220388174, 0.0, 0.0, 0.0, 0.0, 0.0, 1.710391504663698E9, 0.0, 2024-03-13 21:45:04.663
57.0, 133.46767966868356, 16.981015748810023, -111.90154657419771, 23.20046937512234, 0.4800000227987766, 0.8160000387579203, 0.4640000220388174, 0.0, 0.0, 0.0, 0.0, 0.0, 1.710391504663698E9, 0.0, 2024-03-13 21:45:04.663
58.0, 137.22627912415192, 22.545986882876605, -124.67704482283443, 25.59400534676388, 0.4800000227987766, 0.8160000387579203, 0.4640000220388174, 0.0, 0.0, 0.0, 0.0, 0.0, 1.7103915046643703E9, 0.0, 2024-03-13 21:45:04.664
58.0, 149.25379738165066, 34.30049244360998, -116.18747192341834, 38.90430928906426, 0.4800000227987766, 0.8160000387579203, 0.4640000220388174, 0.0, 0.0, 0.0, 0.0, 0.0, 1.7103915046643703E9, 0.0, 2024-03-13 21:45:04.664
59.0, 149.40339337987825, 29.057152705732733, -102.89586748089641, 31.716221574228257, 0.4800000227987766, 0.8160000387579203, 0.4640000220388174, 0.0, 0.0, 0.0, 0.0, 0.0, 1.7103915046777549E9, 0.0, 2024-03-13 21:45:04.677
59.0, 143.086702354718, 25.478068448137492, -114.81492863968015, 27.714528621640056, 0.4800000227987766, 0.8160000387579203, 0.4640000220388174, 0.0, 0.0, 0.0, 0.0, 0.0, 1.7103915046777549E9, 0.0, 2024-03-13 21:45:04.677
60.0, 151.55009595444426, 35.71791452681646, -127.19773739296943, 34.79789913771674, 0.4800000227987766, 0.8160000387579203, 0.4480000212788582, 0.0, 0.0, 0.0, 0.0, 0.0, 1.7103915046934478E9, 0.0, 2024-03-13 21:45:04.693
60.0, 152.04376274859533, 32.69233546266332, -118.24815679900348, 26.536460135597736, 0.4800000227987766, 0.8160000387579203, 0.4480000212788582, 0.0, 0.0, 0.0, 0.0, 0.0, 1.7103915046934478E9, 0.0, 2024-03-13 21:45:04.693
61.0, 149.04436298413202, 26.065232741180807, -111.32934188097715, 22.650704081635922, 0.4800000227987766, 0.8160000387579203, 0.4480000212788582, 0.0, 0.0, 0.0, 0.0, 0.0, 1.7103915046942537E9, 0.0, 2024-03-13 21:45:04.694
61.0, 151.456598455552, 26.75711423298344, -131.00495554786175, 23.9933281657286, 0.4800000227987766, 0.8160000387579203, 0.4480000212788582, 0.0, 0.0, 0.0, 0.0, 0.0, 1.7103915046942537E9, 0.0, 2024-03-13 21:45:04.694
62.0, 153.13581353565678, 32.47168136527762, -114.96078473795205, 31.65638317493722, 0.4800000227987766, 0.8160000387579203, 0.4480000212788582, 0.0, 0.0, 0.0, 0.0, 0.0, 1.7103915047076976E9, 0.0, 2024-03-13 21:45:04.707
62.0, 148.81996898679063, 34.06487874640152, -104.84809525776654, 28.73926120949909, 0.4800000227987766, 0.8160000387579203, 0.4480000212788582, 0.0, 0.0, 0.0, 0.0, 0.0, 1.7103915047076976E9, 0.0, 2024-03-13 21:45:04.707
63.0, 146.28057691687718, 24.947002654429525, -118.19579819962382, 24.71512885717675, 0.4800000227987766, 0.8160000387579203, 0.4480000212788582, 0.0, 0.0, 0.0, 0.0, 0.0, 1.7103915047234392E9, 0.0, 2024-03-13 21:45:04.723
63.0, 143.80102324625477, 29.91358979558572, -122.14887245278805, 28.74300110945478, 0.4800000227987766, 0.8160000387579203, 0.4480000212788582, 0.0, 0.0, 0.0, 0.0, 0.0, 1.7103915047234392E9, 0.0, 2024-03-13 21:45:04.723
64.0, 137.84710251679644, 30.34367829049006, -108.74881091155112, 25.5117275477387, 0.4800000227987766, 0.8160000387579203, 0.4480000212788582, 0.0, 0.0, 0.0, 0.0, 0.0, 1.7103915047241695E9, 0.0, 2024-03-13 21:45:04.724
64.0, 132.65238147834316, 28.589665211271495, -119.2803691867739, 22.72550208074972, 0.4800000227987766, 0.8160000387579203, 0.4480000212788582, 0.0, 0.0, 0.0, 0.0, 0.0, 1.7103915047241695E9, 0.0, 2024-03-13 21:45:04.724
65.0, 145.66723332414404, 32.79705266142264, -124.62468622345477, 29.24788760347292, 0.4800000227987766, 0.8160000387579203, 0.4480000212788582, 0.0, 0.0, 0.0, 0.0, 0.0, 1.710391504737719E9, 0.0, 2024-03-13 21:45:04.737
65.0, 156.3857865971513, 40.71816076757386, -106.53853003773838, 34.82407843740657, 0.4800000227987766, 0.8160000387579203, 0.4480000212788582, 0.0, 0.0, 0.0, 0.0, 0.0, 1.710391504737719E9, 0.0, 2024-03-13 21:45:04.737
66.0, 148.15426679467782, 31.731181174051017, -108.10180821921676, 21.798006891738623, 0.4800000227987766, 0.8160000387579203, 0.4480000212788582, 0.0, 0.0, 0.0, 0.0, 0.0, 1.710391504753433E9, 0.0, 2024-03-13 21:45:04.753
66.0, 149.55672927806154, 31.372150778304785, -128.56280087679625, 27.733228121418506, 0.4800000227987766, 0.8160000387579203, 0.4480000212788582, 0.0, 0.0, 0.0, 0.0, 0.0, 1.710391504753433E9, 0.0, 2024-03-13 21:45:04.753
67.0, 160.71285084588453, 50.13896875595674, -105.96258544456214, 41.24922656128183, 0.4800000227987766, 0.8160000387579203, 0.4480000212788582, 0.0, 0.0, 0.0, 0.0, 0.0, 1.7103915047542071E9, 0.0, 2024-03-13 21:45:04.754
67.0, 160.09202745324, 51.3394766417332, -96.66145425476134, 39.887902977410704, 0.4800000227987766, 0.8160000387579203, 0.4480000212788582, 0.0, 0.0, 0.0, 0.0, 0.0, 1.7103915047542071E9, 0.0, 2024-03-13 21:45:04.754
68.0, 155.07308171270415, 44.33090412477031, -115.166479235515, 33.48145435331389, 0.4800000227987766, 0.8160000387579203, 0.4480000212788582, 0.0, 0.0, 0.0, 0.0, 0.0, 1.7103915047676911E9, 0.0, 2024-03-13 21:45:04.767
68.0, 159.04485546564683, 42.91348204156384, -115.25249693449587, 34.79415923776105, 0.4800000227987766, 0.8160000387579203, 0.4480000212788582, 0.0, 0.0, 0.0, 0.0, 0.0, 1.7103915047676911E9, 0.0, 2024-03-13 21:45:04.767
69.0, 153.71549802878872, 39.6298498804681, -103.95799906831235, 30.78124658530578, 0.4800000227987766, 0.8160000387579203, 0.4480000212788582, 0.0, 0.0, 0.0, 0.0, 0.0, 1.7103915047834504E9, 0.0, 2024-03-13 21:45:04.783
69.0, 146.9761983086355, 32.03785297041759, -113.06839536037296, 24.161623663734645, 0.4800000227987766, 0.8160000387579203, 0.4480000212788582, 0.0, 0.0, 0.0, 0.0, 0.0, 1.7103915047834504E9, 0.0, 2024-03-13 21:45:04.783
70.0, 153.82021522754803, 40.98369366442785, -118.23319719918072, 39.805625178385526, 0.4800000227987766, 0.8160000387579203, 0.4480000212788582, 0.0, 0.0, 0.0, 0.0, 0.0, 1.710391504784193E9, 0.0, 2024-03-13 21:45:04.784
70.0, 155.92577890260145, 48.08576368028298, -100.33777591120452, 44.09903032751754, 0.4800000227987766, 0.8160000387579203, 0.4480000212788582, 0.0, 0.0, 0.0, 0.0, 0.0, 1.710391504784193E9, 0.0, 2024-03-13 21:45:04.784
