%OpenBCI Raw EXG Data
%Number of channels = 4
%Sample Rate = 200 Hz
%Board = OpenBCI_GUI$BoardGanglionBLE
Sample Index, EXG Channel 0, EXG Channel 1, EXG Channel 2, EXG Channel 3, Accel Channel 0, Accel Channel 1, Accel Channel 2, Other, Other, Other, Other, Other, Timestamp, Other, Timestamp (Formatted)
2.0, 15.543024215847254, 12.943793746642768, 8.209080402739346, 11.70588686130941, 0.8640000410377979, 0.0, 0.0, 0.0, 0.0, 0.0, 0.0, 0.0, 1.710394548821894E9, 0.0, 2024-03-13 22:35:48.821
2.0, 7.853789906948805, 6.6196229215711355, 12.06117735709995, 9.525525187142193, 0.8640000410377979, 0.0, 0.0, 0.0, 0.0, 0.0, 0.0, 0.0, 1.710394548821894E9, 0.0, 2024-03-13 22:35:48.821
3.0, 5.022685640491545, 8.788764895871282, -2.7937052669003606, -1.7876721788197756, 0.8640000410377979, 0.0, 0.0, 0.0, 0.0, 0.0, 0.0, 0.0, 1.710394548836368E9, 0.0, 2024-03-13 22:35:48.836
3.0, 15.984332410618663, 17.71964599005878, 14.667887626215816, 11.144901867955923, 0.8640000410377979, 0.0, 0.0, 0.0, 0.0, 0.0, 0.0, 0.0, 1.710394548836368E9, 0.0, 2024-03-13 22:35:48.836
4.0, 10.714813373051584, 19.069749874062836, 8.960800293833017, 7.169388215057552, 0.8640000410377979, 0.0, 0.0, 0.0, 0.0, 0.0, 0.0, 0.0, 1.7103945488370829E9, 0.0, 2024-03-13 22:35:48.837
4.0, 21.956952639855444, 17.929080387577415, -7.9061485063284636, 4.581377445720136, 0.8640000410377979, 0.0, 0.0, 0.0, 0.0, 0.0, 0.0, 0.0, 1.7103945488370829E9, 0.0, 2024-03-13 22:35:48.837
5.0, 23.935359716415405, 23.68852631933987, 12.44264715258032, 14.806263924576342, 0.8640000410377979, 0.0, 0.0, 0.0, 0.0, 0.0, 0.0, 0.0, 1.7103945488507748E9, 0.0, 2024-03-13 22:35:48.850
5.0, 16.672474002465606, 24.844155405648053, 13.519738339819014, 13.041031145490706, 0.8640000410377979, 0.0, 0.0, 0.0, 0.0, 0.0, 0.0, 0.0, 1.7103945488507748E9, 0.0, 2024-03-13 22:35:48.850
6.0, 16.679953802376986, 20.49465175718069, 2.8423239663243294, 13.205586743541062, 0.8640000410377979, 0.0, 0.0, 0.0, 0.0, 0.0, 0.0, 0.0, 1.710394548866418E9, 0.0, 2024-03-13 22:35:48.866
6.0, 20.356275458820164, 19.836429364979267, 7.214267014525831, 11.982639458030462, 0.8640000410377979, 0.0, 0.0, 0.0, 0.0, 0.0, 0.0, 0.0, 1.710394548866418E9, 0.0, 2024-03-13 22:35:48.866
7.0, 19.013651374727488, 18.411527481861413, 18.415267381817102, 17.27459789533168, 0.8640000410377979, 0.0, 0.0, 0.0, 0.0, 0.0, 0.0, 0.0, 1.710394548867125E9, 0.0, 2024-03-13 22:35:48.867
7.0, 8.983239693567157, 14.263978431001306, 13.25794534292072, 13.557137339375913, 0.8640000410377979, 0.0, 0.0, 0.0, 0.0, 0.0, 0.0, 0.0, 1.710394548867125E9, 0.0, 2024-03-13 22:35:48.867
8.0, 11.395475164987147, 18.374128482304513, 12.207033455371857, 16.825809900648892, 0.8640000410377979, 0.0, 0.0, 0.0, 0.0, 0.0, 0.0, 0.0, 1.7103945488811643E9, 0.0, 2024-03-13 22:35:48.881
8.0, 9.574143886566162, 18.55738358013332, 26.265317388810217, 20.58066945616156, 0.8640000410377979, 0.0, 0.0, 0.0, 0.0, 0.0, 0.0, 0.0, 1.7103945488811643E9, 0.0, 2024-03-13 22:35:48.881
9.0, 10.763432072475553, 17.947779887355864, 26.063362791202962, 19.211866072379053, 0.8640000410377979, 0.0, 0.0, 0.0, 0.0, 0.0, 0.0, 0.0, 1.7103945488966396E9, 0.0, 2024-03-13 22:35:48.896
9.0, 11.500192363746464, 9.854636383242905, 0.8078183904290199, 5.1722816387191415, 0.8640000410377979, 0.0, 0.0, 0.0, 0.0, 0.0, 0.0, 0.0, 1.7103945488966396E9, 0.0, 2024-03-13 22:35:48.896
10.0, 8.414774900302291, 6.5822239220142365, 13.781531336717308, 9.349749889224768, 0.8640000410377979, 0.0, 0.4640000220388174, 0.0, 0.0, 0.0, 0.0, 0.0, 1.7103945488973787E9, 0.0, 2024-03-13 22:35:48.897
10.0, 6.185794526711106, 26.123201190494, 25.41262019891292, 16.44434010516852, 0.8640000410377979, 0.0, 0.4640000220388174, 0.0, 0.0, 0.0, 0.0, 0.0, 1.7103945488973787E9, 0.0, 2024-03-13 22:35:48.897
11.0, 7.861269706860185, 12.711919949389994, 7.487279711291194, 9.319830689579248, 0.8640000410377979, 0.3680000174790621, 0.4640000220388174, 0.0, 0.0, 0.0, 0.0, 0.0, 1.7103945489110775E9, 0.0, 2024-03-13 22:35:48.911
11.0, 14.738945725373924, 18.9725124752149, 6.376529424451292, 11.014005369506776, 0.8640000410377979, 0.3680000174790621, 0.4640000220388174, 0.0, 0.0, 0.0, 0.0, 0.0, 1.7103945489110775E9, 0.0, 2024-03-13 22:35:48.911
12.0, 8.384855700656772, 10.112689480185509, 17.027764498256147, 13.164447844028473, 0.8640000410377979, 0.3680000174790621, 0.4640000220388174, 0.0, 0.0, 0.0, 0.0, 0.0, 1.7103945489263673E9, 0.0, 2024-03-13 22:35:48.926
12.0, 13.119569044560194, 13.65437473822385, 15.352289318107069, 15.640261614695191, 0.8640000410377979, 0.3680000174790621, 0.4640000220388174, 0.0, 0.0, 0.0, 0.0, 0.0, 1.7103945489263673E9, 0.0, 2024-03-13 22:35:48.926
13.0, 38.34145434573293, 49.96132350806147, 32.20427851844579, 42.26086949929595, 0.8640000410377979, 0.3680000174790621, 0.4640000220388174, 0.0, 0.0, 0.0, 0.0, 0.0, 1.7103945489270892E9, 0.0, 2024-03-13 22:35:48.927
13.0, 41.15385911241174, 33.89471329841763, 40.873366615734994, 39.78131582867354, 0.8640000410377979, 0.3680000174790621, 0.4640000220388174, 0.0, 0.0, 0.0, 0.0, 0.0, 1.7103945489270892E9, 0.0, 2024-03-13 22:35:48.927
14.0, 4.962847241200507, 20.5283108567819, 15.973112710751593, 13.014851845800877, 0.8640000410377979, 0.3680000174790621, 0.4640000220388174, 0.0, 0.0, 0.0, 0.0, 0.0, 1.7103945489406888E9, 0.0, 2024-03-13 22:35:48.940
14.0, 6.129696027375758, 14.742685625329614, 4.2859253492206335, 7.315244313329458, 0.8640000410377979, 0.3680000174790621, 0.4640000220388174, 0.0, 0.0, 0.0, 0.0, 0.0, 1.7103945489406888E9, 0.0, 2024-03-13 22:35:48.940
15.0, 9.27495189011097, 16.631335102953017, 15.68140051420778, 14.1181223327294, 0.8640000410377979, 0.3680000174790621, 0.4640000220388174, 0.0, 0.0, 0.0, 0.0, 0.0, 1.710394548956365E9, 0.0, 2024-03-13 22:35:48.956
15.0, -7.719153508543968, -8.119322803802788, 6.787918419577181, -2.5244324700906873, 0.8640000410377979, 0.3680000174790621, 0.4640000220388174, 0.0, 0.0, 0.0, 0.0, 0.0, 1.710394548956365E9, 0.0, 2024-03-13 22:35:48.956
16.0, -30.035136544145644, -22.865748329088092, -11.769465160556138, -14.443493628874421, 0.8640000410377979, 0.3680000174790621, 0.4640000220388174, 0.0, 0.0, 0.0, 0.0, 0.0, 1.7103945489571464E9, 0.0, 2024-03-13 22:35:48.957
16.0, -38.004863349720836, -18.50502498075366, -14.993258922360837, -19.933666763827205, 0.8640000410377979, 0.3680000174790621, 0.4640000220388174, 0.0, 0.0, 0.0, 0.0, 0.0, 1.7103945489571464E9, 0.0, 2024-03-13 22:35:48.957
17.0, -33.10185450781137, -24.458945710211992, -4.270965749397874, -19.058530174195766, 0.8640000410377979, 0.3680000174790621, 0.4640000220388174, 0.0, 0.0, 0.0, 0.0, 0.0, 1.7103945489706843E9, 0.0, 2024-03-13 22:35:48.970
17.0, -47.91559823229909, -33.84983449894935, -23.221038824878633, -26.078322391025722, 0.8640000410377979, 0.3680000174790621, 0.4640000220388174, 0.0, 0.0, 0.0, 0.0, 0.0, 1.7103945489706843E9, 0.0, 2024-03-13 22:35:48.970
18.0, -42.7994150929153, -30.22587144188583, -21.063116550445557, -26.20921888947487, 0.8640000410377979, 0.3680000174790621, 0.4640000220388174, 0.0, 0.0, 0.0, 0.0, 0.0, 1.710394548986437E9, 0.0, 2024-03-13 22:35:48.986
18.0, -40.54799531958997, -23.542670221067965, -3.5977837573736906, -19.574636368080974, 0.8640000410377979, 0.3680000174790621, 0.4640000220388174, 0.0, 0.0, 0.0, 0.0, 0.0, 1.710394548986437E9, 0.0, 2024-03-13 22:35:48.986
19.0, -48.895452020689845, -33.973251197487116, -14.121862232685089, -29.107641355134547, 0.8640000410377979, 0.3680000174790621, 0.4640000220388174, 0.0, 0.0, 0.0, 0.0, 0.0, 1.7103945489871016E9, 0.0, 2024-03-13 22:35:48.987
19.0, -49.11610611807555, -33.13551360741258, -26.246617889031768, -33.31502880528569, 0.8640000410377979, 0.3680000174790621, 0.4640000220388174, 0.0, 0.0, 0.0, 0.0, 0.0, 1.7103945489871016E9, 0.0, 2024-03-13 22:35:48.987
20.0, -42.6872180942446, -36.26206997036934, -22.301023435778916, -30.93271253351122, 0.8640000410377979, 0.3680000174790621, 0.4640000220388174, 0.0, 0.0, 0.0, 0.0, 0.0, 1.7103945490007324E9, 0.0, 2024-03-13 22:35:49.000
20.0, -44.40009227395058, -27.088095379061997, -22.304763335734606, -35.90303957462311, 0.8640000410377979, 0.3680000174790621, 0.4640000220388174, 0.0, 0.0, 0.0, 0.0, 0.0, 1.7103945490007324E9, 0.0, 2024-03-13 22:35:49.000
21.0, -42.503962996415794, -20.94343975186348, -23.954059216193855, -30.61482103727758, 0.8640000410377979, 0.3680000174790621, 0.4640000220388174, 0.0, 0.0, 0.0, 0.0, 0.0, 1.710394549016602E9, 0.0, 2024-03-13 22:35:49.016
21.0, -27.462085374630988, -18.06745668593794, -17.906640987843275, -24.369188111275434, 0.8640000410377979, 0.3680000174790621, 0.4640000220388174, 0.0, 0.0, 0.0, 0.0, 0.0, 1.710394549016602E9, 0.0, 2024-03-13 22:35:49.016
22.0, -31.194505530409515, -20.09448246192187, -3.014359364286065, -18.800477077253163, 0.8640000410377979, 0.3680000174790621, 0.4640000220388174, 0.0, 0.0, 0.0, 0.0, 0.0, 1.7103945490170891E9, 0.0, 2024-03-13 22:35:49.017
22.0, -30.697098836302757, -22.402000734582543, -13.28038474265486, -22.323462835513055, 0.8640000410377979, 0.3680000174790621, 0.4640000220388174, 0.0, 0.0, 0.0, 0.0, 0.0, 1.7103945490170891E9, 0.0, 2024-03-13 22:35:49.017
23.0, -18.385348182171583, -3.4481877591460943, -11.313197365961969, -13.766571736894548, 0.8640000410377979, 0.3680000174790621, 0.4640000220388174, 0.0, 0.0, 0.0, 0.0, 0.0, 1.71039454903104E9, 0.0, 2024-03-13 22:35:49.031
23.0, -14.824963424354792, -14.196660231798887, -6.881415918469429, -16.298484006896615, 0.8640000410377979, 0.3680000174790621, 0.4640000220388174, 0.0, 0.0, 0.0, 0.0, 0.0, 1.71039454903104E9, 0.0, 2024-03-13 22:35:49.031
24.0, -18.329249682836235, -9.948133882135153, 4.644955744966865, -9.476906487718225, 0.8640000410377979, 0.3680000174790621, 0.4640000220388174, 0.0, 0.0, 0.0, 0.0, 0.0, 1.7103945490461638E9, 0.0, 2024-03-13 22:35:49.046
24.0, -22.013051139190793, -5.531312034465373, -17.599969191476703, -21.481985345482826, 0.8640000410377979, 0.3680000174790621, 0.4640000220388174, 0.0, 0.0, 0.0, 0.0, 0.0, 1.7103945490461638E9, 0.0, 2024-03-13 22:35:49.046
25.0, -24.002677915617824, -17.31573679484427, -20.92474025208503, -23.849342017434537, 0.8640000410377979, 0.3680000174790621, 0.4640000220388174, 0.0, 0.0, 0.0, 0.0, 0.0, 1.7103945490616333E9, 0.0, 2024-03-13 22:35:49.061
25.0, -29.32081565260887, -19.36520197056234, -0.6544824922457337, -15.984332410618663, 0.8640000410377979, 0.3680000174790621, 0.4640000220388174, 0.0, 0.0, 0.0, 0.0, 0.0, 1.7103945490616333E9, 0.0, 2024-03-13 22:35:49.061
26.0, -30.96263173315674, -21.549303544685245, -17.27085799537599, -23.946579416282475, 0.8640000410377979, 0.3680000174790621, 0.4640000220388174, 0.0, 0.0, 0.0, 0.0, 0.0, 1.710394549062284E9, 0.0, 2024-03-13 22:35:49.062
26.0, -20.45725275762379, -15.206433219835162, -9.828457083553076, -18.90145437605679, 0.8640000410377979, 0.3680000174790621, 0.4640000220388174, 0.0, 0.0, 0.0, 0.0, 0.0, 1.710394549062284E9, 0.0, 2024-03-13 22:35:49.062
27.0, -23.3818545229733, -12.50622545182705, 2.060684875585139, -9.536744887009263, 0.8640000410377979, 0.3680000174790621, 0.4640000220388174, 0.0, 0.0, 0.0, 0.0, 0.0, 1.710394549076366E9, 0.0, 2024-03-13 22:35:49.076
27.0, -24.028857215307653, -8.01834550499916, -6.002539428882301, -14.260238531045616, 0.8640000410377979, 0.3680000174790621, 0.4640000220388174, 0.0, 0.0, 0.0, 0.0, 0.0, 1.710394549076366E9, 0.0, 2024-03-13 22:35:49.076
28.0, -17.71590609010309, -16.14888800866902, -8.43721430003643, -11.892881859093904, 0.8640000410377979, 0.3680000174790621, 0.4640000220388174, 0.0, 0.0, 0.0, 0.0, 0.0, 1.710394549077289E9, 0.0, 2024-03-13 22:35:49.077
28.0, -11.818083859980106, -20.367495158687234, -0.2692727968096733, -15.187733720056713, 0.8640000410377979, 0.3680000174790621, 0.4640000220388174, 0.0, 0.0, 0.0, 0.0, 0.0, 1.710394549077289E9, 0.0, 2024-03-13 22:35:49.077
29.0, -21.844755641184747, -6.918814918026328, -3.582824157550931, -16.418160805478692, 0.8640000410377979, 0.3680000174790621, 0.4640000220388174, 0.0, 0.0, 0.0, 0.0, 0.0, 1.7103945490906825E9, 0.0, 2024-03-13 22:35:49.090
29.0, -14.821223524399102, -9.304871089756489, -10.595136574469507, -13.26916504278779, 0.8640000410377979, 0.3680000174790621, 0.4640000220388174, 0.0, 0.0, 0.0, 0.0, 0.0, 1.7103945490906825E9, 0.0, 2024-03-13 22:35:49.090
30.0, -8.968280093744397, -11.511412063613534, -1.727833779528737, -9.794797983951867, 0.8640000410377979, 0.3680000174790621, 0.4640000220388174, 0.0, 0.0, 0.0, 0.0, 0.0, 1.7103945491064248E9, 0.0, 2024-03-13 22:35:49.106
30.0, -15.759938413277268, -18.8603154765442, 0.40016929525882006, -11.380515565164387, 0.8640000410377979, 0.3680000174790621, 0.4640000220388174, 0.0, 0.0, 0.0, 0.0, 0.0, 1.7103945491064248E9, 0.0, 2024-03-13 22:35:49.106
31.0, -9.435767588205636, -9.899515182711184, -4.977806841023266, -7.577037310227752, 0.8640000410377979, 0.3680000174790621, 0.4640000220388174, 0.0, 0.0, 0.0, 0.0, 0.0, 1.710394549107136E9, 0.0, 2024-03-13 22:35:49.107
31.0, -8.246479402296245, -8.250219302251935, 0.23187379725277424, -3.4070488596335053, 0.8640000410377979, 0.3680000174790621, 0.4640000220388174, 0.0, 0.0, 0.0, 0.0, 0.0, 1.710394549107136E9, 0.0, 2024-03-13 22:35:49.107
32.0, -16.48547900468111, -5.363016536459327, 4.83569064270705, -6.316691025160253, 0.8640000410377979, 0.3680000174790621, 0.4640000220388174, 0.0, 0.0, 0.0, 0.0, 0.0, 1.7103945491206548E9, 0.0, 2024-03-13 22:35:49.120
32.0, -26.485971486195922, -17.446633293293417, -4.43178144749254, -8.945840694010258, 0.8640000410377979, 0.3680000174790621, 0.4640000220388174, 0.0, 0.0, 0.0, 0.0, 0.0, 1.7103945491206548E9, 0.0, 2024-03-13 22:35:49.120
33.0, -19.76537126582116, -25.72303189523518, -7.476060011424124, -10.138868779875338, 0.8640000410377979, 0.3680000174790621, 0.4640000220388174, 0.0, 0.0, 0.0, 0.0, 0.0, 1.7103945491363611E9, 0.0, 2024-03-13 22:35:49.136
33.0, -22.06914963852614, -17.110042297281325, 2.247679873369634, -5.5761908339336514, 0.8640000410377979, 0.3680000174790621, 0.4640000220388174, 0.0, 0.0, 0.0, 0.0, 0.0, 1.7103945491363611E9, 0.0, 2024-03-13 22:35:49.136
34.0, -19.7130126664415, -20.322616359218955, 0.5460253935307264, -10.669934573583305, 0.8640000410377979, 0.3680000174790621, 0.4640000220388174, 0.0, 0.0, 0.0, 0.0, 0.0, 1.7103945491372087E9, 0.0, 2024-03-13 22:35:49.137
34.0, -12.592243150807917, -9.738699484616518, -6.750519420020282, -6.092297027818859, 0.8640000410377979, 0.3680000174790621, 0.4640000220388174, 0.0, 0.0, 0.0, 0.0, 0.0, 1.7103945491372087E9, 0.0, 2024-03-13 22:35:49.137
35.0, -15.808557112701237, -11.63856866210699, -6.4999461229890585, -9.473166587762535, 0.8640000410377979, 0.3680000174790621, 0.4640000220388174, 0.0, 0.0, 0.0, 0.0, 0.0, 1.7103945491506734E9, 0.0, 2024-03-13 22:35:49.150
35.0, -12.943793746642768, -9.013158893212676, 0.80407849047333, -12.734359349124134, 0.8640000410377979, 0.3680000174790621, 0.4640000220388174, 0.0, 0.0, 0.0, 0.0, 0.0, 1.7103945491506734E9, 0.0, 2024-03-13 22:35:49.150
36.0, -5.340577136725187, -4.383162748068571, -1.6193766808137298, -6.43636782374233, 0.8640000410377979, 0.3680000174790621, 0.4640000220388174, 0.0, 0.0, 0.0, 0.0, 0.0, 1.7103945491663692E9, 0.0, 2024-03-13 22:35:49.166
36.0, -2.053205075673759, 7.378822612576187, 3.466887258924544, 2.329957672394812, 0.8640000410377979, 0.3680000174790621, 0.4640000220388174, 0.0, 0.0, 0.0, 0.0, 0.0, 1.7103945491663692E9, 0.0, 2024-03-13 22:35:49.166
37.0, 0.8601769898086786, 12.753058848902583, 22.465579033829272, 14.824963424354792, 0.8640000410377979, 0.3680000174790621, 0.4640000220388174, 0.0, 0.0, 0.0, 0.0, 0.0, 1.7103945491670728E9, 0.0, 2024-03-13 22:35:49.167
37.0, -1.5408387817442417, 11.305717566050589, 17.098822597414255, 12.337929953821003, 0.8640000410377979, 0.3680000174790621, 0.4640000220388174, 0.0, 0.0, 0.0, 0.0, 0.0, 1.7103945491670728E9, 0.0, 2024-03-13 22:35:49.167
38.0, -6.503686022944748, -0.7442400911822915, -0.9087956892326474, -0.9349749889224768, 0.8640000410377979, 0.3680000174790621, 0.4640000220388174, 0.0, 0.0, 0.0, 0.0, 0.0, 1.7103945491811264E9, 0.0, 2024-03-13 22:35:49.181
38.0, 1.7091342797502875, 7.846310107037425, 16.08530970942229, 7.330203913152218, 0.8640000410377979, 0.3680000174790621, 0.4640000220388174, 0.0, 0.0, 0.0, 0.0, 0.0, 1.7103945491811264E9, 0.0, 2024-03-13 22:35:49.181
39.0, 1.9110888773575425, 6.731819920241833, 8.915921494364738, 1.0957906870171428, 0.8640000410377979, 0.3680000174790621, 0.4640000220388174, 0.0, 0.0, 0.0, 0.0, 0.0, 1.710394549196386E9, 0.0, 2024-03-13 22:35:49.196
39.0, 8.04452480468899, 8.86730279494077, -0.7180607914924622, 3.141515962779522, 0.8640000410377979, 0.3680000174790621, 0.4640000220388174, 0.0, 0.0, 0.0, 0.0, 0.0, 1.710394549196386E9, 0.0, 2024-03-13 22:35:49.196
40.0, 12.49500575195998, 10.146348579786718, 15.550504015758634, 9.491866087540984, 0.8640000410377979, 0.3680000174790621, 0.4640000220388174, 0.0, 0.0, 0.0, 0.0, 0.0, 1.710394549197102E9, 0.0, 2024-03-13 22:35:49.197
40.0, 1.3538437839597464, 11.193520567379892, 16.96418619900942, 0.7442400911822915, 0.8640000410377979, 0.3680000174790621, 0.4640000220388174, 0.0, 0.0, 0.0, 0.0, 0.0, 1.710394549197102E9, 0.0, 2024-03-13 22:35:49.197
41.0, -5.64724893309176, 0.6881415918469429, -2.41971527133137, -7.62939590960741, 0.8640000410377979, 0.3680000174790621, 0.4640000220388174, 0.0, 0.0, 0.0, 0.0, 0.0, 1.7103945492108138E9, 0.0, 2024-03-13 22:35:49.210
41.0, 3.62396305706352, 9.959353582002223, 0.927495189011097, -3.6389226568862796, 0.8640000410377979, 0.3680000174790621, 0.4640000220388174, 0.0, 0.0, 0.0, 0.0, 0.0, 1.7103945492108138E9, 0.0, 2024-03-13 22:35:49.210
42.0, 1.9223085772246122, 13.149488244205713, 13.590796438977122, 0.38520969543606043, 0.8640000410377979, 0.3680000174790621, 0.4640000220388174, 0.0, 0.0, 0.0, 0.0, 0.0, 1.7103945492263613E9, 0.0, 2024-03-13 22:35:49.226
42.0, -0.4375682948157191, 9.069257392548025, 15.29993071872741, -2.1541823744773865, 0.8640000410377979, 0.3680000174790621, 0.4640000220388174, 0.0, 0.0, 0.0, 0.0, 0.0, 1.7103945492263613E9, 0.0, 2024-03-13 22:35:49.226
43.0, -4.779592143371701, 11.017745269462466, 1.6006771810352802, -4.44300114735961, 0.8640000410377979, 0.3680000174790621, 0.4640000220388174, 0.0, 0.0, 0.0, 0.0, 0.0, 1.7103945492272174E9, 0.0, 2024-03-13 22:35:49.227
43.0, 5.306918037123978, 15.812297012656927, 21.560523244552314, 8.242739502340555, 0.8640000410377979, 0.3680000174790621, 0.4640000220388174, 0.0, 0.0, 0.0, 0.0, 0.0, 1.7103945492272174E9, 0.0, 2024-03-13 22:35:49.227
44.0, 9.555444386787713, 17.203539796173573, 18.433966881595552, 4.162508650682867, 0.8640000410377979, 0.3680000174790621, 0.4640000220388174, 0.0, 0.0, 0.0, 0.0, 0.0, 1.7103945492406898E9, 0.0, 2024-03-13 22:35:49.240
44.0, 12.708180049434304, 8.160461703315377, 1.8774297777563334, -0.49740669410675764, 0.8640000410377979, 0.3680000174790621, 0.4640000220388174, 0.0, 0.0, 0.0, 0.0, 0.0, 1.7103945492406898E9, 0.0, 2024-03-13 22:35:49.240
45.0, -5.071304339915514, 10.168787979520857, 9.114136192016304, 5.24707963783294, 0.8640000410377979, 0.3680000174790621, 0.4640000220388174, 0.0, 0.0, 0.0, 0.0, 0.0, 1.7103945492563844E9, 0.0, 2024-03-13 22:35:49.256
45.0, -9.918214682489634, 8.179161203093827, 15.924494011327624, 3.4332281593233347, 0.8640000410377979, 0.3680000174790621, 0.4640000220388174, 0.0, 0.0, 0.0, 0.0, 0.0, 1.7103945492563844E9, 0.0, 2024-03-13 22:35:49.256
46.0, -2.0793843753635883, -4.184948050417006, -6.129696027375758, -10.284724878147244, 0.8640000410377979, 0.3680000174790621, 0.4640000220388174, 0.0, 0.0, 0.0, 0.0, 0.0, 1.7103945492570827E9, 0.0, 2024-03-13 22:35:49.257
46.0, 3.7959984550252557, -4.2073874501511455, -3.8894959539175034, -3.2424932615831494, 0.8640000410377979, 0.3680000174790621, 0.4640000220388174, 0.0, 0.0, 0.0, 0.0, 0.0, 1.7103945492570827E9, 0.0, 2024-03-13 22:35:49.257
47.0, 9.742439384572208, 8.238999602384865, 19.174467072822154, 7.434921111911535, 0.8640000410377979, 0.3680000174790621, 0.4640000220388174, 0.0, 0.0, 0.0, 0.0, 0.0, 1.7103945492706993E9, 0.0, 2024-03-13 22:35:49.270
47.0, 6.507425922900438, 4.211127350106835, 13.512258539907634, 8.003385905176401, 0.8640000410377979, 0.3680000174790621, 0.4640000220388174, 0.0, 0.0, 0.0, 0.0, 0.0, 1.7103945492706993E9, 0.0, 2024-03-13 22:35:49.270
48.0, 4.158768750727177, 13.957306634634733, 2.4271950712427497, 6.7430396201089025, 0.8640000410377979, 0.3680000174790621, 0.4640000220388174, 0.0, 0.0, 0.0, 0.0, 0.0, 1.710394549286419E9, 0.0, 2024-03-13 22:35:49.286
48.0, 18.003878386691213, 21.220192348584533, 36.96517116203904, 28.97300495672971, 0.8640000410377979, 0.3680000174790621, 0.4640000220388174, 0.0, 0.0, 0.0, 0.0, 0.0, 1.710394549286419E9, 0.0, 2024-03-13 22:35:49.286
49.0, 5.381716036237776, 13.418761041015387, 21.855975341051817, 18.370388582348824, 0.8640000410377979, 0.3680000174790621, 0.4640000220388174, 0.0, 0.0, 0.0, 0.0, 0.0, 1.7103945492870767E9, 0.0, 2024-03-13 22:35:49.287
49.0, 12.236952655017376, 4.252266249619424, 6.193274326622486, 13.594536338932812, 0.8640000410377979, 0.3680000174790621, 0.4640000220388174, 0.0, 0.0, 0.0, 0.0, 0.0, 1.7103945492870767E9, 0.0, 2024-03-13 22:35:49.287
50.0, 25.655713696032763, 25.868887993507087, 25.506117697805166, 22.615175032056868, 0.8640000410377979, 0.3680000174790621, 0.4640000220388174, 0.0, 0.0, 0.0, 0.0, 0.0, 1.7103945493008049E9, 0.0, 2024-03-13 22:35:49.300
50.0, 4.181208150461316, 18.217052684165537, 28.56535586155951, 20.689126554876566, 0.8640000410377979, 0.3680000174790621, 0.4640000220388174, 0.0, 0.0, 0.0, 0.0, 0.0, 1.7103945493008049E9, 0.0, 2024-03-13 22:35:49.300
51.0, -1.8026317786425352, 6.114736427552998, 9.22259329073131, 8.283878401853144, 0.8640000410377979, 0.3680000174790621, 0.4640000220388174, 0.0, 0.0, 0.0, 0.0, 0.0, 1.7103945493165567E9, 0.0, 2024-03-13 22:35:49.316
51.0, 12.199553655460477, 4.263485949486494, 10.84196997154504, 10.359522877261043, 0.8640000410377979, 0.3680000174790621, 0.4640000220388174, 0.0, 0.0, 0.0, 0.0, 0.0, 1.7103945493165567E9, 0.0, 2024-03-13 22:35:49.316
52.0, 10.284724878147244, 23.942839516326785, 27.682739472016692, 21.448326245881617, 0.8640000410377979, 0.3680000174790621, 0.4640000220388174, 0.0, 0.0, 0.0, 0.0, 0.0, 1.7103945493171353E9, 0.0, 2024-03-13 22:35:49.317
52.0, 3.9268949534744024, 19.70553286653012, 17.476552492938936, 11.877922259271145, 0.8640000410377979, 0.3680000174790621, 0.4640000220388174, 0.0, 0.0, 0.0, 0.0, 0.0, 1.7103945493171353E9, 0.0, 2024-03-13 22:35:49.317
53.0, 10.348303177393973, 9.716260084882379, 7.618176209740341, 3.777298955246806, 0.8640000410377979, 0.3680000174790621, 0.4640000220388174, 0.0, 0.0, 0.0, 0.0, 0.0, 1.7103945493306487E9, 0.0, 2024-03-13 22:35:49.330
53.0, 12.240692554973066, 18.591042679734528, 20.782624053768814, 12.293051154352725, 0.8640000410377979, 0.3680000174790621, 0.4640000220388174, 0.0, 0.0, 0.0, 0.0, 0.0, 1.7103945493306487E9, 0.0, 2024-03-13 22:35:49.330
54.0, 17.087602897547185, 17.33443629462272, 23.561369720846415, 19.27170447167009, 0.8640000410377979, 0.3680000174790621, 0.4640000220388174, 0.0, 0.0, 0.0, 0.0, 0.0, 1.710394549346602E9, 0.0, 2024-03-13 22:35:49.346
54.0, 14.200400131754577, 8.257699102163315, 5.3742362363263965, 11.137422068044543, 0.8640000410377979, 0.3680000174790621, 0.4640000220388174, 0.0, 0.0, 0.0, 0.0, 0.0, 1.710394549346602E9, 0.0, 2024-03-13 22:35:49.346
55.0, 15.737499013543129, 12.753058848902583, 13.587056539021432, 13.381362041458488, 0.8640000410377979, 0.3680000174790621, 0.4640000220388174, 0.0, 0.0, 0.0, 0.0, 0.0, 1.7103945493471267E9, 0.0, 2024-03-13 22:35:49.347
55.0, 6.7019007205963135, 15.101716021075845, 23.983978415839374, 13.153228144161403, 0.8640000410377979, 0.3680000174790621, 0.4640000220388174, 0.0, 0.0, 0.0, 0.0, 0.0, 1.7103945493471267E9, 0.0, 2024-03-13 22:35:49.347
56.0, 15.445786816999316, 13.976006134413183, 11.593689862638712, 11.141161968000233, 0.8640000410377979, 0.3680000174790621, 0.4640000220388174, 0.0, 0.0, 0.0, 0.0, 0.0, 1.7103945493607047E9, 0.0, 2024-03-13 22:35:49.360
56.0, 12.10605615656823, 10.942947270348668, 12.536144651472569, 15.225132719613612, 0.8640000410377979, 0.3680000174790621, 0.4640000220388174, 0.0, 0.0, 0.0, 0.0, 0.0, 1.7103945493607047E9, 0.0, 2024-03-13 22:35:49.360
57.0, 12.132235456258059, 21.186533248983324, 24.17471331357956, 22.338422435335815, 0.8640000410377979, 0.3680000174790621, 0.4640000220388174, 0.0, 0.0, 0.0, 0.0, 0.0, 1.7103945493768384E9, 0.0, 2024-03-13 22:35:49.376
57.0, 14.320076930336654, 17.67850709054619, 18.740638677962124, 18.46014618128538, 0.8640000410377979, 0.3680000174790621, 0.4640000220388174, 0.0, 0.0, 0.0, 0.0, 0.0, 1.7103945493768384E9, 0.0, 2024-03-13 22:35:49.376
58.0, 15.928233911283314, 11.963939958252013, 9.865856083109975, 14.320076930336654, 0.8640000410377979, 0.3680000174790621, 0.4640000220388174, 0.0, 0.0, 0.0, 0.0, 0.0, 1.7103945493773491E9, 0.0, 2024-03-13 22:35:49.377
58.0, 12.771758348681033, 19.75789146590978, 20.89108115248382, 18.13477488514036, 0.8640000410377979, 0.3680000174790621, 0.4640000220388174, 0.0, 0.0, 0.0, 0.0, 0.0, 1.7103945493773491E9, 0.0, 2024-03-13 22:35:49.377
59.0, 8.216560202650726, 12.46508655231446, 13.845109635964036, 9.443247388117015, 0.8640000410377979, 0.3680000174790621, 0.4640000220388174, 0.0, 0.0, 0.0, 0.0, 0.0, 1.7103945493906837E9, 0.0, 2024-03-13 22:35:49.390
59.0, -5.033905340358615, -4.615036545321345, -5.370496336370707, -1.0995305869728327, 0.8640000410377979, 0.3680000174790621, 0.4640000220388174, 0.0, 0.0, 0.0, 0.0, 0.0, 1.7103945493906837E9, 0.0, 2024-03-13 22:35:49.390
60.0, 17.166140796616673, 17.192320096306503, 29.504070750437677, 14.824963424354792, 0.8640000410377979, 0.3680000174790621, 0.4640000220388174, 0.0, 0.0, 0.0, 0.0, 0.0, 1.7103945494065683E9, 0.0, 2024-03-13 22:35:49.406
60.0, 9.413328188471496, 11.361816065385938, 31.168326230719686, 17.2671180954203, 0.8640000410377979, 0.3680000174790621, 0.4640000220388174, 0.0, 0.0, 0.0, 0.0, 0.0, 1.7103945494065683E9, 0.0, 2024-03-13 22:35:49.406
61.0, -11.560030763037503, 6.241893026046455, 6.099776827730238, 5.916521729901433, 0.8640000410377979, 0.3680000174790621, 0.4640000220388174, 0.0, 0.0, 0.0, 0.0, 0.0, 1.7103945494071488E9, 0.0, 2024-03-13 22:35:49.407
61.0, 9.469426687806845, 4.697314344346523, 0.2617929968982935, 2.4271950712427497, 0.8640000410377979, 0.3680000174790621, 0.4640000220388174, 0.0, 0.0, 0.0, 0.0, 0.0, 1.7103945494071488E9, 0.0, 2024-03-13 22:35:49.407
62.0, 1.3613235838711262, 5.905302030034363, 18.763078077696264, 4.895529041998088, 0.8640000410377979, 0.3680000174790621, 0.4640000220388174, 0.0, 0.0, 0.0, 0.0, 0.0, 1.7103945494207296E9, 0.0, 2024-03-13 22:35:49.420
62.0, 2.9881800645962358, 6.02123892866075, 7.921108106151223, 5.037645240314305, 0.8640000410377979, 0.3680000174790621, 0.4640000220388174, 0.0, 0.0, 0.0, 0.0, 0.0, 1.7103945494207296E9, 0.0, 2024-03-13 22:35:49.420
63.0, 5.751966131851077, 11.320677165873349, 3.4781069587916136, 4.652435544878244, 0.8640000410377979, 0.3680000174790621, 0.4640000220388174, 0.0, 0.0, 0.0, 0.0, 0.0, 1.7103945494364288E9, 0.0, 2024-03-13 22:35:49.436
63.0, -2.890942665748298, 1.2005078857764602, 18.000138486735523, 5.359276636503637, 0.8640000410377979, 0.3680000174790621, 0.4640000220388174, 0.0, 0.0, 0.0, 0.0, 0.0, 1.7103945494364288E9, 0.0, 2024-03-13 22:35:49.436
64.0, 12.214513255283237, 12.023778357543051, 20.027164262719452, 8.186641003005207, 0.8640000410377979, 0.3680000174790621, 0.4640000220388174, 0.0, 0.0, 0.0, 0.0, 0.0, 1.7103945494371672E9, 0.0, 2024-03-13 22:35:49.437
64.0, 13.220546343363822, 18.17965368460864, 11.365555965341628, 10.411881476640701, 0.8640000410377979, 0.3680000174790621, 0.4640000220388174, 0.0, 0.0, 0.0, 0.0, 0.0, 1.7103945494371672E9, 0.0, 2024-03-13 22:35:49.437
65.0, 26.94597918074578, 18.280630983412266, 23.168680225498974, 17.211019596084952, 0.8640000410377979, 0.3680000174790621, 0.4640000220388174, 0.0, 0.0, 0.0, 0.0, 0.0, 1.710394549450802E9, 0.0, 2024-03-13 22:35:49.450
65.0, 11.960200058296323, 14.017145033925772, 23.662347019650042, 13.65063483826816, 0.8640000410377979, 0.3680000174790621, 0.4640000220388174, 0.0, 0.0, 0.0, 0.0, 0.0, 1.710394549450802E9, 0.0, 2024-03-13 22:35:49.450
66.0, 16.54905730392784, 28.707472059875727, 12.319230454042554, 13.007372045889497, 0.8640000410377979, 0.3680000174790621, 0.4640000220388174, 0.0, 0.0, 0.0, 0.0, 0.0, 1.7103945494665222E9, 0.0, 2024-03-13 22:35:49.466
66.0, 21.182793349027634, 18.56112348008901, 19.582116167992353, 16.309703706763685, 0.8640000410377979, 0.3680000174790621, 0.4640000220388174, 0.0, 0.0, 0.0, 0.0, 0.0, 1.7103945494665222E9, 0.0, 2024-03-13 22:35:49.466
67.0, 15.3036706186831, 22.17012693732977, 31.76297032367438, 19.563416668213904, 0.8640000410377979, 0.3680000174790621, 0.4640000220388174, 0.0, 0.0, 0.0, 0.0, 0.0, 1.7103945494671464E9, 0.0, 2024-03-13 22:35:49.467
67.0, 15.786117712967098, 26.22791838925332, 22.89192762877792, 16.219946107827127, 0.8640000410377979, 0.3680000174790621, 0.4640000220388174, 0.0, 0.0, 0.0, 0.0, 0.0, 1.7103945494671464E9, 0.0, 2024-03-13 22:35:49.467
68.0, 27.592981873080134, 35.51035007927567, 21.807356641627848, 21.448326245881617, 0.8640000410377979, 0.3680000174790621, 0.4640000220388174, 0.0, 0.0, 0.0, 0.0, 0.0, 1.710394549480678E9, 0.0, 2024-03-13 22:35:49.480
68.0, 33.39356670435518, 32.89242011029273, 32.19679871853441, 25.483678298071027, 0.8640000410377979, 0.3680000174790621, 0.4640000220388174, 0.0, 0.0, 0.0, 0.0, 0.0, 1.710394549480678E9, 0.0, 2024-03-13 22:35:49.480
69.0, 32.08460171986371, 40.74247011728585, 32.63436701335013, 30.16977294255048, 0.8640000410377979, 0.3680000174790621, 0.4640000220388174, 0.0, 0.0, 0.0, 0.0, 0.0, 1.7103945494964352E9, 0.0, 2024-03-13 22:35:49.496
69.0, 27.043216579593718, 38.023562849499285, 22.865748329088092, 29.522770250216126, 0.8640000410377979, 0.3680000174790621, 0.4640000220388174, 0.0, 0.0, 0.0, 0.0, 0.0, 1.7103945494964352E9, 0.0, 2024-03-13 22:35:49.496
70.0, 32.30899571720511, 40.024409325793386, 39.77383602876216, 36.16109267156571, 0.8640000410377979, 0.3680000174790621, 0.4640000220388174, 0.0, 0.0, 0.0, 0.0, 0.0, 1.7103945494971328E9, 0.0, 2024-03-13 22:35:49.497
70.0, 23.79698341805488, 34.58659479022026, 40.27124272286892, 31.721831424161792, 0.8640000410377979, 0.3680000174790621, 0.4640000220388174, 0.0, 0.0, 0.0, 0.0, 0.0, 1.7103945494971328E9, 0.0, 2024-03-13 22:35:49.497
71.0, 22.357121935114264, 14.933420523069799, 19.74293186608702, 21.29873024765402, 0.8640000410377979, 0.3680000174790621, 0.4640000220388174, 0.0, 0.0, 0.0, 0.0, 0.0, 1.710394549511107E9, 0.0, 2024-03-13 22:35:49.511
71.0, 26.97215848043561, 17.2671180954203, 39.08943433687091, 33.240230806171894, 0.8640000410377979, 0.3680000174790621, 0.4640000220388174, 0.0, 0.0, 0.0, 0.0, 0.0, 1.710394549511107E9, 0.0, 2024-03-13 22:35:49.511
72.0, 19.840169264934957, 22.327202735468745, 41.54280870780349, 29.75838394742459, 0.8640000410377979, 0.3680000174790621, 0.4640000220388174, 0.0, 0.0, 0.0, 0.0, 0.0, 1.71039454952657E9, 0.0, 2024-03-13 22:35:49.526
72.0, 27.43216617498547, 29.683585948310792, 32.24167751800269, 28.9393458571285, 0.8640000410377979, 0.3680000174790621, 0.4640000220388174, 0.0, 0.0, 0.0, 0.0, 0.0, 1.71039454952657E9, 0.0, 2024-03-13 22:35:49.526
73.0, 31.546056126244366, 25.150827202014625, 23.213559024967253, 25.251804500818253, 0.8640000410377979, 0.3680000174790621, 0.4640000220388174, 0.0, 0.0, 0.0, 0.0, 0.0, 1.710394549527666E9, 0.0, 2024-03-13 22:35:49.527
73.0, 32.24541741795838, 27.966971868649125, 41.41939200926572, 30.281969941221178, 0.8640000410377979, 0.3680000174790621, 0.4640000220388174, 0.0, 0.0, 0.0, 0.0, 0.0, 1.710394549527666E9, 0.0, 2024-03-13 22:35:49.527
74.0, 26.803862982429564, 28.729911459609866, 42.503962996415794, 32.89242011029273, 0.8640000410377979, 0.3680000174790621, 0.4640000220388174, 0.0, 0.0, 0.0, 0.0, 0.0, 1.7103945495407896E9, 0.0, 2024-03-13 22:35:49.540
74.0, 20.404894158244133, 30.95889183320105, 25.464978798292577, 22.58151593245566, 0.8640000410377979, 0.3680000174790621, 0.4640000220388174, 0.0, 0.0, 0.0, 0.0, 0.0, 1.7103945495407896E9, 0.0, 2024-03-13 22:35:49.540
75.0, 34.399599792435765, 34.20512499473989, 44.022362378425896, 31.80784912314266, 0.8640000410377979, 0.3680000174790621, 0.4640000220388174, 0.0, 0.0, 0.0, 0.0, 0.0, 1.7103945495563753E9, 0.0, 2024-03-13 22:35:49.556
75.0, 24.645940707996488, 27.80241627059877, 43.03502879012376, 27.41346667520702, 0.8640000410377979, 0.3680000174790621, 0.4640000220388174, 0.0, 0.0, 0.0, 0.0, 0.0, 1.7103945495563753E9, 0.0, 2024-03-13 22:35:49.556
76.0, 15.30741051863879, 20.662947255186737, 23.164940325543284, 19.32406307104975, 0.8640000410377979, 0.3680000174790621, 0.4640000220388174, 0.0, 0.0, 0.0, 0.0, 0.0, 1.7103945495571537E9, 0.0, 2024-03-13 22:35:49.557
76.0, 17.139961496926844, 16.87816850002855, 26.52337048575282, 22.716152330860496, 0.8640000410377979, 0.3680000174790621, 0.4640000220388174, 0.0, 0.0, 0.0, 0.0, 0.0, 1.7103945495571537E9, 0.0, 2024-03-13 22:35:49.557
77.0, 18.53868408035487, 23.430473222397268, 42.866733292117715, 30.334328540600836, 0.8640000410377979, 0.3680000174790621, 0.4640000220388174, 0.0, 0.0, 0.0, 0.0, 0.0, 1.7103945495707967E9, 0.0, 2024-03-13 22:35:49.570
77.0, 20.47969215735793, 25.40888029895723, 35.203678282909095, 30.682139236479998, 0.8640000410377979, 0.3680000174790621, 0.4640000220388174, 0.0, 0.0, 0.0, 0.0, 0.0, 1.7103945495707967E9, 0.0, 2024-03-13 22:35:49.570
78.0, 25.74547129496932, 34.773589788004756, 28.6064947610721, 29.526510150171816, 0.8640000410377979, 0.3680000174790621, 0.4640000220388174, 0.0, 0.0, 0.0, 0.0, 0.0, 1.710394549586365E9, 0.0, 2024-03-13 22:35:49.586
78.0, 30.091235043480992, 33.37112730462104, 41.284755610860884, 30.756937235593796, 0.8640000410377979, 0.3680000174790621, 0.4640000220388174, 0.0, 0.0, 0.0, 0.0, 0.0, 1.710394549586365E9, 0.0, 2024-03-13 22:35:49.586
79.0, 28.703732159920037, 29.00666405633092, 35.76466327626258, 29.302116152830422, 0.8640000410377979, 0.3680000174790621, 0.4640000220388174, 0.0, 0.0, 0.0, 0.0, 0.0, 1.710394549587109E9, 0.0, 2024-03-13 22:35:49.587
79.0, 28.060469367541373, 25.78287029452622, 18.606002279557288, 18.452666381374, 0.8640000410377979, 0.3680000174790621, 0.4640000220388174, 0.0, 0.0, 0.0, 0.0, 0.0, 1.710394549587109E9, 0.0, 2024-03-13 22:35:49.587
80.0, 32.07712191995233, 25.3453019997105, 27.252650977112353, 22.671273531392217, 0.8640000410377979, 0.3680000174790621, 0.4640000220388174, 0.0, 0.0, 0.0, 0.0, 0.0, 1.7103945496007702E9, 0.0, 2024-03-13 22:35:49.600
80.0, 23.490311621688306, 31.80784912314266, 42.29826849885285, 27.929572869092226, 0.8640000410377979, 0.3680000174790621, 0.4640000220388174, 0.0, 0.0, 0.0, 0.0, 0.0, 1.7103945496007702E9, 0.0, 2024-03-13 22:35:49.600
81.0, 16.687433602288365, 20.46099265757948, 16.994105398654938, 17.925340487621725, 0.8640000410377979, 0.3680000174790621, 0.4640000220388174, 0.0, 0.0, 0.0, 0.0, 0.0, 1.71039454961647E9, 0.0, 2024-03-13 22:35:49.616
81.0, 16.95296649914235, 14.90350132342428, 15.378468617796898, 8.796244695782661, 0.8640000410377979, 0.3680000174790621, 0.4640000220388174, 0.0, 0.0, 0.0, 0.0, 0.0, 1.71039454961647E9, 0.0, 2024-03-13 22:35:49.616
82.0, 19.70553286653012, 20.374974958598614, 31.37402072828263, 19.511058068834245, 0.8640000410377979, 0.3680000174790621, 0.4640000220388174, 0.0, 0.0, 0.0, 0.0, 0.0, 1.7103945496171424E9, 0.0, 2024-03-13 22:35:49.617
82.0, 22.832089229486883, 28.273643665015697, 28.666333160363138, 27.682739472016692, 0.8640000410377979, 0.3680000174790621, 0.4640000220388174, 0.0, 0.0, 0.0, 0.0, 0.0, 1.7103945496171424E9, 0.0, 2024-03-13 22:35:49.617
83.0, 28.96926505677402, 36.72955746483058, 28.726171559654176, 34.34350129310042, 0.8640000410377979, 0.3680000174790621, 0.4640000220388174, 0.0, 0.0, 0.0, 0.0, 0.0, 1.710394549631152E9, 0.0, 2024-03-13 22:35:49.631
83.0, 29.556429349817336, 32.742824112065136, 36.60614076629281, 31.673212724737823, 0.8640000410377979, 0.3680000174790621, 0.4640000220388174, 0.0, 0.0, 0.0, 0.0, 0.0, 1.710394549631152E9, 0.0, 2024-03-13 22:35:49.631
84.0, 29.500330850481987, 28.853328158147633, 36.58744126651436, 30.401646739803255, 0.8640000410377979, 0.3680000174790621, 0.4640000220388174, 0.0, 0.0, 0.0, 0.0, 0.0, 1.7103945496467693E9, 0.0, 2024-03-13 22:35:49.646
84.0, 35.1288802837953, 43.16218538861722, 20.842462453059852, 29.238537853583694, 0.8640000410377979, 0.3680000174790621, 0.4640000220388174, 0.0, 0.0, 0.0, 0.0, 0.0, 1.7103945496467693E9, 0.0, 2024-03-13 22:35:49.646
85.0, 28.673812960274518, 44.15325887687504, 27.290049976669252, 28.51673716213554, 0.8640000410377979, 0.3680000174790621, 0.4640000220388174, 0.0, 0.0, 0.0, 0.0, 0.0, 1.7103945496473536E9, 0.0, 2024-03-13 22:35:49.647
85.0, 25.921246592886746, 28.61023466102779, 33.172912606969476, 27.41720657516271, 0.8640000410377979, 0.3680000174790621, 0.4640000220388174, 0.0, 0.0, 0.0, 0.0, 0.0, 1.7103945496473536E9, 0.0, 2024-03-13 22:35:49.647
86.0, 15.68140051420778, 16.06287030968815, 14.11438243277371, 16.46303960494697, 0.8640000410377979, 0.3680000174790621, 0.4640000220388174, 0.0, 0.0, 0.0, 0.0, 0.0, 1.7103945496610065E9, 0.0, 2024-03-13 22:35:49.661
86.0, 27.937052669003606, 26.62808768451214, 20.54327045660466, 18.837876076810062, 0.8640000410377979, 0.3680000174790621, 0.4640000220388174, 0.0, 0.0, 0.0, 0.0, 0.0, 1.7103945496610065E9, 0.0, 2024-03-13 22:35:49.661
87.0, 28.18762596603483, 24.283170412294567, 31.175806030631065, 24.90773370489478, 0.8640000410377979, 0.3680000174790621, 0.4640000220388174, 0.0, 0.0, 0.0, 0.0, 0.0, 1.7103945496764643E9, 0.0, 2024-03-13 22:35:49.676
87.0, 33.01209690887481, 30.14733354281634, 27.77249707095325, 26.781423582695425, 0.8640000410377979, 0.3680000174790621, 0.4640000220388174, 0.0, 0.0, 0.0, 0.0, 0.0, 1.7103945496764643E9, 0.0, 2024-03-13 22:35:49.676
88.0, 35.47669097967446, 34.71001148875803, 19.391381270252168, 27.058176179416478, 0.8640000410377979, 0.3680000174790621, 0.4640000220388174, 0.0, 0.0, 0.0, 0.0, 0.0, 1.7103945496771E9, 0.0, 2024-03-13 22:35:49.677
88.0, 36.17605227138847, 32.33517501689494, 36.381746768951416, 34.33602149318904, 0.8640000410377979, 0.3680000174790621, 0.4640000220388174, 0.0, 0.0, 0.0, 0.0, 0.0, 1.7103945496771E9, 0.0, 2024-03-13 22:35:49.677
89.0, 27.7537975711748, 34.21634469460696, 33.68527890089899, 29.620007649064064, 0.8640000410377979, 0.3680000174790621, 0.4640000220388174, 0.0, 0.0, 0.0, 0.0, 0.0, 1.7103945496910129E9, 0.0, 2024-03-13 22:35:49.691
89.0, 21.074336250312626, 21.841015741229057, 4.7272335439920425, 16.814590200781822, 0.8640000410377979, 0.3680000174790621, 0.4640000220388174, 0.0, 0.0, 0.0, 0.0, 0.0, 1.7103945496910129E9, 0.0, 2024-03-13 22:35:49.691
90.0, 34.810988787561655, 30.405386639758945, 28.011850668117404, 23.28835702408105, 0.8640000410377979, 0.3680000174790621, 0.4800000227987766, 0.0, 0.0, 0.0, 0.0, 0.0, 1.7103945497064E9, 0.0, 2024-03-13 22:35:49.706
90.0, 16.182547108270228, 17.128741797059774, 24.95261250436306, 19.193166572600603, 0.8640000410377979, 0.3680000174790621, 0.4800000227987766, 0.0, 0.0, 0.0, 0.0, 0.0, 1.7103945497064E9, 0.0, 2024-03-13 22:35:49.706
91.0, 22.97046552784741, 29.642447048798203, 20.08700266201049, 23.505271221511066, 0.8640000410377979, 0.3680000174790621, 0.4800000227987766, 0.0, 0.0, 0.0, 0.0, 0.0, 1.7103945497070963E9, 0.0, 2024-03-13 22:35:49.707
91.0, 29.657406648620963, 19.626994967460632, 10.022931881248951, 15.348549418151379, 0.8640000410377979, 0.3680000174790621, 0.4800000227987766, 0.0, 0.0, 0.0, 0.0, 0.0, 1.7103945497070963E9, 0.0, 2024-03-13 22:35:49.707
92.0, 26.1979991896078, 15.221392819657922, 20.808803353458643, 15.008218522183597, 0.8640000410377979, 0.3680000174790621, 0.4800000227987766, 0.0, 0.0, 0.0, 0.0, 0.0, 1.7103945497207215E9, 0.0, 2024-03-13 22:35:49.720
92.0, 11.578730262815952, 11.462793364189565, 9.716260084882379, 8.141762203536928, 0.8640000410377979, 0.3680000174790621, 0.4800000227987766, 0.0, 0.0, 0.0, 0.0, 0.0, 1.7103945497207215E9, 0.0, 2024-03-13 22:35:49.720
93.0, 12.47256635222584, 16.08904960937798, 4.83943054266274, 5.370496336370707, 0.8640000410377979, 0.3680000174790621, 0.4800000227987766, 0.0, 0.0, 0.0, 0.0, 0.0, 1.7103945497363725E9, 0.0, 2024-03-13 22:35:49.736
93.0, 11.197260467335582, 4.618776445277035, 20.374974958598614, 9.368449389003217, 0.8640000410377979, 0.3680000174790621, 0.4800000227987766, 0.0, 0.0, 0.0, 0.0, 0.0, 1.7103945497363725E9, 0.0, 2024-03-13 22:35:49.736
94.0, 13.69925353769213, 17.955259687267244, 25.629534396342933, 19.29040397144854, 0.8640000410377979, 0.3680000174790621, 0.4800000227987766, 0.0, 0.0, 0.0, 0.0, 0.0, 1.7103945497371151E9, 0.0, 2024-03-13 22:35:49.737
94.0, 13.041031145490706, 3.695021156221628, 4.525278946384788, 5.149842238985002, 0.8640000410377979, 0.3680000174790621, 0.4800000227987766, 0.0, 0.0, 0.0, 0.0, 0.0, 1.7103945497371151E9, 0.0, 2024-03-13 22:35:49.737
95.0, 8.123062703758478, 1.8325509782880545, 1.6455559805035591, 0.6395228924229741, 0.8640000410377979, 0.3680000174790621, 0.4800000227987766, 0.0, 0.0, 0.0, 0.0, 0.0, 1.7103945497509353E9, 0.0, 2024-03-13 22:35:49.750
95.0, 0.22439399734139442, 3.141515962779522, 10.651235073804855, -0.04113889951258898, 0.8640000410377979, 0.3680000174790621, 0.4800000227987766, 0.0, 0.0, 0.0, 0.0, 0.0, 1.7103945497509353E9, 0.0, 2024-03-13 22:35:49.750
96.0, 13.388841841369867, 15.524324716068804, 9.981792981736362, 3.900715653784573, 0.8640000410377979, 0.3680000174790621, 0.4800000227987766, 0.0, 0.0, 0.0, 0.0, 0.0, 1.7103945497665517E9, 0.0, 2024-03-13 22:35:49.766
96.0, 18.018837986513972, 9.944393982179463, 4.263485949486494, 5.744486331939697, 0.8640000410377979, 0.3680000174790621, 0.4800000227987766, 0.0, 0.0, 0.0, 0.0, 0.0, 1.7103945497665517E9, 0.0, 2024-03-13 22:35:49.766
97.0, 26.785163482651114, 21.979392039589584, 26.437352786771953, 15.2662716191262, 0.8640000410377979, 0.3680000174790621, 0.4800000227987766, 0.0, 0.0, 0.0, 0.0, 0.0, 1.710394549767135E9, 0.0, 2024-03-13 22:35:49.767
97.0, 26.20173908956349, 23.36689492315054, 15.109195820987225, 14.035844533704221, 0.8640000410377979, 0.3680000174790621, 0.4800000227987766, 0.0, 0.0, 0.0, 0.0, 0.0, 1.710394549767135E9, 0.0, 2024-03-13 22:35:49.767
98.0, 33.36364750470966, 24.61976140830666, 6.376529424451292, 11.904101558960974, 0.8640000410377979, 0.3680000174790621, 0.4800000227987766, 0.0, 0.0, 0.0, 0.0, 0.0, 1.7103945497811005E9, 0.0, 2024-03-13 22:35:49.781
98.0, 36.24337047059089, 36.13491337187588, 25.853928393684328, 18.811696777120233, 0.8640000410377979, 0.3680000174790621, 0.4800000227987766, 0.0, 0.0, 0.0, 0.0, 0.0, 1.7103945497811005E9, 0.0, 2024-03-13 22:35:49.781
99.0, 37.94128505047411, 26.22043858934194, 19.522277768701315, 14.720246225595474, 0.8640000410377979, 0.3680000174790621, 0.4800000227987766, 0.0, 0.0, 0.0, 0.0, 0.0, 1.7103945497967656E9, 0.0, 2024-03-13 22:35:49.796
99.0, 30.689619036391377, 15.127895320765674, -1.368803383782506, 6.668241620995104, 0.8640000410377979, 0.3680000174790621, 0.4800000227987766, 0.0, 0.0, 0.0, 0.0, 0.0, 1.7103945497967656E9, 0.0, 2024-03-13 22:35:49.796
100.0, 33.69275870081037, 28.385840663686395, 13.31404384225607, 9.409588288515806, 0.8640000410377979, 0.3680000174790621, 0.4800000227987766, 0.0, 0.0, 0.0, 0.0, 0.0, 1.710394549797351E9, 0.0, 2024-03-13 22:35:49.797
100.0, 28.63267406076193, 25.30042320024222, 14.05454403348267, 7.382562512531877, 0.8640000410377979, 0.3680000174790621, 0.4800000227987766, 0.0, 0.0, 0.0, 0.0, 0.0, 1.710394549797351E9, 0.0, 2024-03-13 22:35:49.797
0.0, -707.9032232128084, -344.0053476742469, -478.91662872582674, -392.3809536010958, 0.8640000410377979, 0.3680000174790621, 0.4800000227987766, 0.0, 0.0, 0.0, 0.0, 0.0, 1.7103945498119864E9, 0.0, 2024-03-13 22:35:49.811
1.0, -706.6017380282283, -336.8023003595881, -473.54239248950034, -387.85193475475535, 0.8640000410377979, 0.3680000174790621, 0.4800000227987766, 0.0, 0.0, 0.0, 0.0, 0.0, 1.710394549812358E9, 0.0, 2024-03-13 22:35:49.812
1.0, -708.4567284062505, -335.00340848090127, -462.4049704214558, -379.9009074489586, 0.8640000410377979, 0.3680000174790621, 0.4800000227987766, 0.0, 0.0, 0.0, 0.0, 0.0, 1.710394549812358E9, 0.0, 2024-03-13 22:35:49.812
2.0, -711.9797141645104, -329.591773245018, -471.6761824116111, -383.5323503059335, 0.8640000410377979, 0.3680000174790621, 0.4800000227987766, 0.0, 0.0, 0.0, 0.0, 0.0, 1.7103945498263588E9, 0.0, 2024-03-13 22:35:49.826
2.0, -701.0068476945162, -334.2928274893202, -477.4917268427089, -388.01275045285, 0.8640000410377979, 0.3680000174790621, 0.4800000227987766, 0.0, 0.0, 0.0, 0.0, 0.0, 1.7103945498263588E9, 0.0, 2024-03-13 22:35:49.826
3.0, -700.2663475032896, -333.5074484986253, -468.6393836475909, -383.2107189097442, 0.8640000410377979, 0.3680000174790621, 0.4800000227987766, 0.0, 0.0, 0.0, 0.0, 0.0, 1.7103945498413572E9, 0.0, 2024-03-13 22:35:49.841
3.0, -708.0079404115677, -337.9990683454089, -469.3050858397037, -385.5705957817845, 0.8640000410377979, 0.3680000174790621, 0.4800000227987766, 0.0, 0.0, 0.0, 0.0, 0.0, 1.7103945498413572E9, 0.0, 2024-03-13 22:35:49.841
4.0, -704.1820227568969, -337.6998763489537, -477.61514354124665, -386.04182317620143, 0.8640000410377979, 0.3680000174790621, 0.4800000227987766, 0.0, 0.0, 0.0, 0.0, 0.0, 1.7103945498420882E9, 0.0, 2024-03-13 22:35:49.842
4.0, -701.7847468852997, -324.04924151068553, -468.227994652465, -376.5723964883946, 0.8640000410377979, 0.3680000174790621, 0.4800000227987766, 0.0, 0.0, 0.0, 0.0, 0.0, 1.7103945498420882E9, 0.0, 2024-03-13 22:35:49.842
5.0, -704.4886945532635, -322.51588252885267, -453.6685641249642, -370.10236956505105, 0.8640000410377979, 0.3680000174790621, 0.4800000227987766, 0.0, 0.0, 0.0, 0.0, 0.0, 1.7103945498556976E9, 0.0, 2024-03-13 22:35:49.855
5.0, -703.0338734705001, -328.3239471600391, -473.50499348994344, -382.59363541705534, 0.8640000410377979, 0.3680000174790621, 0.4800000227987766, 0.0, 0.0, 0.0, 0.0, 0.0, 1.7103945498556976E9, 0.0, 2024-03-13 22:35:49.855
6.0, -694.4171439725906, -337.27726765396073, -474.3352512801066, -383.62958770478144, 0.8640000410377979, 0.3680000174790621, 0.4800000227987766, 0.0, 0.0, 0.0, 0.0, 0.0, 1.7103945498713627E9, 0.0, 2024-03-13 22:35:49.871
6.0, -703.6733963629231, -330.0218617399223, -460.71827554143965, -381.355728531722, 0.8640000410377979, 0.3680000174790621, 0.4800000227987766, 0.0, 0.0, 0.0, 0.0, 0.0, 1.7103945498713627E9, 0.0, 2024-03-13 22:35:49.871
7.0, -713.9207222415134, -333.3167136008851, -467.2668403638527, -385.0806688875891, 0.8640000410377979, 0.3680000174790621, 0.4800000227987766, 0.0, 0.0, 0.0, 0.0, 0.0, 1.710394549872111E9, 0.0, 2024-03-13 22:35:49.872
7.0, -703.3555048666894, -334.8351129828952, -468.7889796458185, -377.6831467752345, 0.8640000410377979, 0.3680000174790621, 0.4800000227987766, 0.0, 0.0, 0.0, 0.0, 0.0, 1.710394549872111E9, 0.0, 2024-03-13 22:35:49.872
8.0, -693.893557978794, -316.879853295628, -445.5754206208512, -361.407102168072, 0.8640000410377979, 0.3680000174790621, 0.4800000227987766, 0.0, 0.0, 0.0, 0.0, 0.0, 1.7103945498856785E9, 0.0, 2024-03-13 22:35:49.885
8.0, -691.529941206798, -319.026555870194, -443.86254644114524, -360.65164237702265, 0.8640000410377979, 0.3680000174790621, 0.4800000227987766, 0.0, 0.0, 0.0, 0.0, 0.0, 1.7103945498856785E9, 0.0, 2024-03-13 22:35:49.885
9.0, -702.7272016741335, -326.4053784827702, -455.08598620817065, -366.09319681255147, 0.8640000410377979, 0.3680000174790621, 0.4800000227987766, 0.0, 0.0, 0.0, 0.0, 0.0, 1.7103945499013476E9, 0.0, 2024-03-13 22:35:49.901
9.0, -695.7186291571707, -322.5869406280108, -445.68013781961054, -367.31614409806207, 0.8640000410377979, 0.3680000174790621, 0.4800000227987766, 0.0, 0.0, 0.0, 0.0, 0.0, 1.7103945499013476E9, 0.0, 2024-03-13 22:35:49.901
10.0, -712.2901258608326, -334.5807997859083, -452.1464248429984, -375.28587090363726, 0.8640000410377979, 0.3680000174790621, 0.4800000227987766, 0.0, 0.0, 0.0, 0.0, 0.0, 1.7103945499020615E9, 0.0, 2024-03-13 22:35:49.902
10.0, -713.7898257430643, -350.4828543975018, -473.13848329428583, -391.62549381004646, 0.8640000410377979, 0.3680000174790621, 0.4800000227987766, 0.0, 0.0, 0.0, 0.0, 0.0, 1.7103945499020615E9, 0.0, 2024-03-13 22:35:49.902
11.0, -697.2258088393137, -326.59611338051036, -466.30942597519606, -382.65721371630207, 0.8640000410377979, 0.3680000174790621, 0.4800000227987766, 0.0, 0.0, 0.0, 0.0, 0.0, 1.7103945499156904E9, 0.0, 2024-03-13 22:35:49.915
11.0, -696.5077480478212, -320.85910684848204, -454.42402391601354, -372.58566313562915, 0.8640000410377979, 0.3680000174790621, 0.4800000227987766, 0.0, 0.0, 0.0, 0.0, 0.0, 1.7103945499156904E9, 0.0, 2024-03-13 22:35:49.915
12.0, -711.7441004673019, -334.7790144835599, -467.8427849570289, -381.84191552596167, 0.8640000410377979, 0.3680000174790621, 0.4800000227987766, 0.0, 0.0, 0.0, 0.0, 0.0, 1.7103945499313352E9, 0.0, 2024-03-13 22:35:49.931
12.0, -714.1376364389434, -341.64547080220655, -483.8158976677805, -395.5299493637867, 0.8640000410377979, 0.3680000174790621, 0.4800000227987766, 0.0, 0.0, 0.0, 0.0, 0.0, 1.7103945499313352E9, 0.0, 2024-03-13 22:35:49.931
13.0, -711.3775902716443, -336.19269666681066, -469.54443943686783, -387.7584372558631, 0.8640000410377979, 0.3680000174790621, 0.4800000227987766, 0.0, 0.0, 0.0, 0.0, 0.0, 1.710394549932068E9, 0.0, 2024-03-13 22:35:49.932
13.0, -722.11484304443, -344.0689259734936, -479.7057476164773, -395.11482046870515, 0.8640000410377979, 0.3680000174790621, 0.4800000227987766, 0.0, 0.0, 0.0, 0.0, 0.0, 1.710394549932068E9, 0.0, 2024-03-13 22:35:49.932
14.0, -721.1424690559506, -348.0818386259489, -490.65243478678167, -399.9953899108805, 0.8640000410377979, 0.3680000174790621, 0.4800000227987766, 0.0, 0.0, 0.0, 0.0, 0.0, 1.710394549945677E9, 0.0, 2024-03-13 22:35:49.945
14.0, -718.7638926841319, -341.11814490845427, -474.8214382743463, -393.81333528412506, 0.8640000410377979, 0.3680000174790621, 0.4800000227987766, 0.0, 0.0, 0.0, 0.0, 0.0, 1.710394549945677E9, 0.0, 2024-03-13 22:35:49.945
15.0, -712.6192370569333, -340.0223542214371, -466.8554513687268, -388.6821925449185, 0.8640000410377979, 0.3680000174790621, 0.4800000227987766, 0.0, 0.0, 0.0, 0.0, 0.0, 1.7103945499616492E9, 0.0, 2024-03-13 22:35:49.961
15.0, -720.2972516659647, -345.89773705182597, -489.4107880014926, -398.8023618250154, 0.8640000410377979, 0.3680000174790621, 0.4800000227987766, 0.0, 0.0, 0.0, 0.0, 0.0, 1.7103945499616492E9, 0.0, 2024-03-13 22:35:49.961
16.0, -712.5967976571992, -335.75138847203925, -472.9215690968558, -389.9088797303848, 0.8640000410377979, 0.3680000174790621, 0.4800000227987766, 0.0, 0.0, 0.0, 0.0, 0.0, 1.7103945499622624E9, 0.0, 2024-03-13 22:35:49.962
16.0, -710.3790369834751, -339.87275822320953, -457.3673251811415, -379.0482102590613, 0.8640000410377979, 0.3680000174790621, 0.4800000227987766, 0.0, 0.0, 0.0, 0.0, 0.0, 1.7103945499622624E9, 0.0, 2024-03-13 22:35:49.962
17.0, -705.7079019388184, -329.53193484572694, -456.56698659062386, -374.58276971196756, 0.8640000410377979, 0.3680000174790621, 0.4800000227987766, 0.0, 0.0, 0.0, 0.0, 0.0, 1.7103945499760094E9, 0.0, 2024-03-13 22:35:49.976
17.0, -693.9795756777748, -326.2034238851629, -462.90985691547394, -375.5364442006685, 0.8640000410377979, 0.3680000174790621, 0.4800000227987766, 0.0, 0.0, 0.0, 0.0, 0.0, 1.7103945499760094E9, 0.0, 2024-03-13 22:35:49.976
18.0, -696.69100314565, -319.5127428644337, -445.9456707164645, -370.95506675494835, 0.8640000410377979, 0.3680000174790621, 0.4800000227987766, 0.0, 0.0, 0.0, 0.0, 0.0, 1.7103945499913416E9, 0.0, 2024-03-13 22:35:49.991
18.0, -697.173450239934, -326.26326228445396, -451.01323515642434, -367.2376061989926, 0.8640000410377979, 0.3680000174790621, 0.4800000227987766, 0.0, 0.0, 0.0, 0.0, 0.0, 1.7103945499913416E9, 0.0, 2024-03-13 22:35:49.991
19.0, -700.5356203000993, -326.70831037918106, -470.6215306241065, -374.87448190851137, 0.8640000410377979, 0.3680000174790621, 0.4800000227987766, 0.0, 0.0, 0.0, 0.0, 0.0, 1.7103945499920857E9, 0.0, 2024-03-13 22:35:49.992
19.0, -704.036166658625, -332.3667790121399, -467.67822935897857, -378.70413946313784, 0.8640000410377979, 0.3680000174790621, 0.4800000227987766, 0.0, 0.0, 0.0, 0.0, 0.0, 1.7103945499920857E9, 0.0, 2024-03-13 22:35:49.992
20.0, -707.8882636129856, -332.5911730094813, -458.45937596820295, -377.9673791718669, 0.8640000410377979, 0.3680000174790621, 0.4800000227987766, 0.0, 0.0, 0.0, 0.0, 0.0, 1.7103945500057068E9, 0.0, 2024-03-13 22:35:50.005
20.0, -709.0925113987178, -335.8897647703998, -476.3772366559133, -383.2481179093011, 0.8640000410377979, 0.3680000174790621, 0.4800000227987766, 0.0, 0.0, 0.0, 0.0, 0.0, 1.7103945500057068E9, 0.0, 2024-03-13 22:35:50.005
21.0, -706.1155510339886, -337.05287365661934, -473.01506659574807, -383.10974161094055, 0.8640000410377979, 0.3680000174790621, 0.4800000227987766, 0.0, 0.0, 0.0, 0.0, 0.0, 1.7103945500214248E9, 0.0, 2024-03-13 22:35:50.021
21.0, -716.3441774128005, -340.964809010271, -462.46106892079115, -384.9048935896717, 0.8640000410377979, 0.3680000174790621, 0.4800000227987766, 0.0, 0.0, 0.0, 0.0, 0.0, 1.7103945500214248E9, 0.0, 2024-03-13 22:35:50.021
22.0, -715.3157049249858, -346.60831804340705, -471.0104802194983, -388.13990705134347, 0.8640000410377979, 0.3680000174790621, 0.4800000227987766, 0.0, 0.0, 0.0, 0.0, 0.0, 1.7103945500221505E9, 0.0, 2024-03-13 22:35:50.022
22.0, -713.7673863433301, -344.05396637367085, -484.69103425741196, -391.51329681137577, 0.8640000410377979, 0.3680000174790621, 0.4800000227987766, 0.0, 0.0, 0.0, 0.0, 0.0, 1.7103945500221505E9, 0.0, 2024-03-13 22:35:50.022
23.0, -716.9612609054893, -337.3932045525871, -463.6615768065676, -379.69147305143997, 0.8640000410377979, 0.3680000174790621, 0.4800000227987766, 0.0, 0.0, 0.0, 0.0, 0.0, 1.7103945500356965E9, 0.0, 2024-03-13 22:35:50.035
23.0, -716.0150662166998, -334.3526658886112, -462.87245791591704, -382.96014561271295, 0.8640000410377979, 0.3680000174790621, 0.4800000227987766, 0.0, 0.0, 0.0, 0.0, 0.0, 1.7103945500356965E9, 0.0, 2024-03-13 22:35:50.035
24.0, -715.9552278174087, -337.0678332564421, -475.87982996180654, -381.5763826291077, 0.8640000410377979, 0.3680000174790621, 0.4800000227987766, 0.0, 0.0, 0.0, 0.0, 0.0, 1.7103945500514174E9, 0.0, 2024-03-13 22:35:50.051
24.0, -704.9038234483451, -330.97927612857893, -460.71453564148396, -374.6052091117017, 0.8640000410377979, 0.3680000174790621, 0.4800000227987766, 0.0, 0.0, 0.0, 0.0, 0.0, 1.7103945500514174E9, 0.0, 2024-03-13 22:35:50.051
25.0, -706.4297026302665, -329.85356624191627, -449.401338275522, -368.595189882908, 0.8640000410377979, 0.3680000174790621, 0.4800000227987766, 0.0, 0.0, 0.0, 0.0, 0.0, 1.7103945500521555E9, 0.0, 2024-03-13 22:35:50.052
25.0, -709.9452085886151, -326.2931814840995, -463.5232005082071, -374.39951461413875, 0.8640000410377979, 0.3680000174790621, 0.4800000227987766, 0.0, 0.0, 0.0, 0.0, 0.0, 1.7103945500521555E9, 0.0, 2024-03-13 22:35:50.052
26.0, -697.6745968339965, -320.33552085468546, -458.2836006702855, -370.5698570595123, 0.8640000410377979, 0.3680000174790621, 0.4800000227987766, 0.0, 0.0, 0.0, 0.0, 0.0, 1.7103945500657644E9, 0.0, 2024-03-13 22:35:50.065
26.0, -705.8238388374448, -323.22272362047806, -448.89645178150386, -366.73271970497444, 0.8640000410377979, 0.3680000174790621, 0.4800000227987766, 0.0, 0.0, 0.0, 0.0, 0.0, 1.7103945500657644E9, 0.0, 2024-03-13 22:35:50.065
27.0, -707.7050085151568, -332.60987250925973, -464.64143059495836, -375.30083050346, 0.8640000410377979, 0.3680000174790621, 0.4800000227987766, 0.0, 0.0, 0.0, 0.0, 0.0, 1.7103945500814953E9, 0.0, 2024-03-13 22:35:50.081
27.0, -711.0858780751005, -334.0385142923333, -471.27227321639657, -383.1209613108076, 0.8640000410377979, 0.3680000174790621, 0.4800000227987766, 0.0, 0.0, 0.0, 0.0, 0.0, 1.7103945500814953E9, 0.0, 2024-03-13 22:35:50.081
28.0, -717.7428999962285, -338.23468204261735, -462.655543718487, -383.37153460783884, 0.8640000410377979, 0.3680000174790621, 0.4800000227987766, 0.0, 0.0, 0.0, 0.0, 0.0, 1.7103945500821185E9, 0.0, 2024-03-13 22:35:50.082
28.0, -715.3157049249858, -342.146617396269, -463.2614075113088, -383.76796400314197, 0.8640000410377979, 0.3680000174790621, 0.4800000227987766, 0.0, 0.0, 0.0, 0.0, 0.0, 1.7103945500821185E9, 0.0, 2024-03-13 22:35:50.082
29.0, -713.3672170480713, -333.00630190456286, -474.2529734810814, -379.6503341519274, 0.8640000410377979, 0.3680000174790621, 0.4800000227987766, 0.0, 0.0, 0.0, 0.0, 0.0, 1.7103945500961092E9, 0.0, 2024-03-13 22:35:50.096
29.0, -709.4590215943754, -328.5072022578679, -457.82733287569135, -378.07209637062624, 0.8640000410377979, 0.3680000174790621, 0.4800000227987766, 0.0, 0.0, 0.0, 0.0, 0.0, 1.7103945500961092E9, 0.0, 2024-03-13 22:35:50.096
30.0, -706.2015687329695, -327.7966212662868, -454.4838623153046, -378.69291976327077, 0.8640000410377979, 0.3680000174790621, 0.4800000227987766, 0.0, 0.0, 0.0, 0.0, 0.0, 1.710394550111834E9, 0.0, 2024-03-13 22:35:50.111
30.0, -717.7690792959183, -334.2068097903393, -461.93748292699456, -377.3914345786907, 0.8640000410377979, 0.3680000174790621, 0.4800000227987766, 0.0, 0.0, 0.0, 0.0, 0.0, 1.710394550111834E9, 0.0, 2024-03-13 22:35:50.111
31.0, -694.8883713670075, -330.7773215309717, -452.30350064113736, -371.9461402432062, 0.8640000410377979, 0.3680000174790621, 0.4800000227987766, 0.0, 0.0, 0.0, 0.0, 0.0, 1.7103945501122632E9, 0.0, 2024-03-13 22:35:50.112
31.0, -707.7050085151568, -336.5405073626898, -446.74600930698216, -374.1152822175063, 0.8640000410377979, 0.3680000174790621, 0.4800000227987766, 0.0, 0.0, 0.0, 0.0, 0.0, 1.7103945501122632E9, 0.0, 2024-03-13 22:35:50.112
32.0, -718.8648699829355, -338.1860633431934, -460.6733967419714, -383.8315423023887, 0.8640000410377979, 0.3680000174790621, 0.4800000227987766, 0.0, 0.0, 0.0, 0.0, 0.0, 1.7103945501260393E9, 0.0, 2024-03-13 22:35:50.126
32.0, -711.6431231684983, -335.6691106730141, -469.3649242389947, -383.52113060606644, 0.8640000410377979, 0.3680000174790621, 0.4800000227987766, 0.0, 0.0, 0.0, 0.0, 0.0, 1.7103945501260393E9, 0.0, 2024-03-13 22:35:50.126
33.0, -719.6614686734974, -340.05227342108265, -463.20530901197344, -377.8252629735507, 0.8640000410377979, 0.3680000174790621, 0.4800000227987766, 0.0, 0.0, 0.0, 0.0, 0.0, 1.7103945501414597E9, 0.0, 2024-03-13 22:35:50.141
33.0, -716.1123036155477, -336.4769290634431, -456.8886179868132, -372.6417616349645, 0.8640000410377979, 0.3680000174790621, 0.4800000227987766, 0.0, 0.0, 0.0, 0.0, 0.0, 1.7103945501414597E9, 0.0, 2024-03-13 22:35:50.141
34.0, -710.9849007762969, -333.86647889437154, -466.5188603727147, -373.6777139226906, 0.8640000410377979, 0.3680000174790621, 0.4800000227987766, 0.0, 0.0, 0.0, 0.0, 0.0, 1.710394550142198E9, 0.0, 2024-03-13 22:35:50.142
34.0, -716.8528038067743, -333.12223880318925, -460.4415229447186, -377.8664018730633, 0.8640000410377979, 0.3680000174790621, 0.4800000227987766, 0.0, 0.0, 0.0, 0.0, 0.0, 1.710394550142198E9, 0.0, 2024-03-13 22:35:50.142
35.0, -716.9014225061983, -325.2460094965063, -446.555274409242, -366.0894569125958, 0.8640000410377979, 0.3680000174790621, 0.4800000227987766, 0.0, 0.0, 0.0, 0.0, 0.0, 1.7103945501558015E9, 0.0, 2024-03-13 22:35:50.155
35.0, -717.0846776040271, -327.40767167089507, -459.0689796609804, -370.72693285765126, 0.8640000410377979, 0.3680000174790621, 0.4800000227987766, 0.0, 0.0, 0.0, 0.0, 0.0, 1.7103945501558015E9, 0.0, 2024-03-13 22:35:50.155
36.0, -713.4607145469636, -330.6950437319465, -452.3222001409158, -362.31963775726035, 0.8640000410377979, 0.3680000174790621, 0.4800000227987766, 0.0, 0.0, 0.0, 0.0, 0.0, 1.710394550171415E9, 0.0, 2024-03-13 22:35:50.171
36.0, -709.5936579927802, -328.3576062596403, -442.37406625878066, -365.65936841769144, 0.8640000410377979, 0.3680000174790621, 0.4800000227987766, 0.0, 0.0, 0.0, 0.0, 0.0, 1.710394550171415E9, 0.0, 2024-03-13 22:35:50.171
37.0, -707.3197988197207, -327.6844242676161, -456.30519359372556, -371.3701956500299, 0.8640000410377979, 0.3680000174790621, 0.4800000227987766, 0.0, 0.0, 0.0, 0.0, 0.0, 1.7103945501721148E9, 0.0, 2024-03-13 22:35:50.172
37.0, -691.6870170049369, -319.96527075907215, -458.27986077032983, -370.9401071551256, 0.8640000410377979, 0.3680000174790621, 0.4800000227987766, 0.0, 0.0, 0.0, 0.0, 0.0, 1.7103945501721148E9, 0.0, 2024-03-13 22:35:50.172
38.0, -694.4470631722361, -313.85801413143054, -449.4387372750789, -368.1838008877821, 0.8640000410377979, 0.3680000174790621, 0.4800000227987766, 0.0, 0.0, 0.0, 0.0, 0.0, 1.7103945501858609E9, 0.0, 2024-03-13 22:35:50.185
38.0, -705.5732655404136, -315.51852971175686, -455.59835250210017, -371.10840265313163, 0.8640000410377979, 0.3680000174790621, 0.4800000227987766, 0.0, 0.0, 0.0, 0.0, 0.0, 1.7103945501858609E9, 0.0, 2024-03-13 22:35:50.185
39.0, -700.2513879034668, -326.11366628622636, -468.6992220468819, -375.32326990319416, 0.8640000410377979, 0.3680000174790621, 0.4800000227987766, 0.0, 0.0, 0.0, 0.0, 0.0, 1.7103945502014368E9, 0.0, 2024-03-13 22:35:50.201
39.0, -698.9611224187538, -319.2359902677126, -453.4740893272683, -367.02817180147395, 0.8640000410377979, 0.3680000174790621, 0.4800000227987766, 0.0, 0.0, 0.0, 0.0, 0.0, 1.7103945502014368E9, 0.0, 2024-03-13 22:35:50.201
40.0, -699.2490947153419, -318.0579217816703, -450.34753296431154, -366.9982526018284, 0.8640000410377979, 0.3680000174790621, 0.4800000227987766, 0.0, 0.0, 0.0, 0.0, 0.0, 1.7103945502021048E9, 0.0, 2024-03-13 22:35:50.202
40.0, -713.57665144559, -336.996775157284, -467.01626706682146, -377.3502956791781, 0.8640000410377979, 0.3680000174790621, 0.4800000227987766, 0.0, 0.0, 0.0, 0.0, 0.0, 1.7103945502021048E9, 0.0, 2024-03-13 22:35:50.202
41.0, -708.2435541087762, -341.4135970049538, -462.20301582384855, -380.7610844387673, 0.8640000410377979, 0.3680000174790621, 0.4800000227987766, 0.0, 0.0, 0.0, 0.0, 0.0, 1.710394550215751E9, 0.0, 2024-03-13 22:35:50.215
41.0, -723.4387676287442, -340.78903371235356, -459.12133826036006, -380.2636777446605, 0.8640000410377979, 0.3680000174790621, 0.4800000227987766, 0.0, 0.0, 0.0, 0.0, 0.0, 1.710394550215751E9, 0.0, 2024-03-13 22:35:50.215
42.0, -724.9459473108873, -344.7720271651633, -472.9627079963684, -387.5677023581229, 0.8640000410377979, 0.3680000174790621, 0.4800000227987766, 0.0, 0.0, 0.0, 0.0, 0.0, 1.7103945502314808E9, 0.0, 2024-03-13 22:35:50.231
42.0, -729.2318726601079, -345.9313961514272, -480.034858812578, -392.7250243970193, 0.8640000410377979, 0.3680000174790621, 0.4800000227987766, 0.0, 0.0, 0.0, 0.0, 0.0, 1.7103945502314808E9, 0.0, 2024-03-13 22:35:50.231
43.0, -717.9037156943232, -338.09256584430113, -457.89839097484946, -378.786417262163, 0.8640000410377979, 0.3680000174790621, 0.4800000227987766, 0.0, 0.0, 0.0, 0.0, 0.0, 1.7103945502321007E9, 0.0, 2024-03-13 22:35:50.232
43.0, -726.4269476933405, -336.94815645786, -460.75941444095224, -378.6330813639797, 0.8640000410377979, 0.3680000174790621, 0.4800000227987766, 0.0, 0.0, 0.0, 0.0, 0.0, 1.7103945502321007E9, 0.0, 2024-03-13 22:35:50.232
44.0, -728.0014455746859, -349.2935662115924, -480.0124194128439, -390.0622156285681, 0.8640000410377979, 0.3680000174790621, 0.4800000227987766, 0.0, 0.0, 0.0, 0.0, 0.0, 1.7103945502458708E9, 0.0, 2024-03-13 22:35:50.245
44.0, -712.9820073526353, -334.41250428790227, -463.7363748056814, -379.5306573533453, 0.8640000410377979, 0.3680000174790621, 0.4800000227987766, 0.0, 0.0, 0.0, 0.0, 0.0, 1.7103945502458708E9, 0.0, 2024-03-13 22:35:50.245
45.0, -710.6370900804177, -331.07651352742687, -451.282507953234, -377.80656347377226, 0.8640000410377979, 0.3680000174790621, 0.4800000227987766, 0.0, 0.0, 0.0, 0.0, 0.0, 1.7103945502617087E9, 0.0, 2024-03-13 22:35:50.261
45.0, -710.8652239777148, -337.82703294744715, -471.8594375094399, -391.99948380561545, 0.8640000410377979, 0.3680000174790621, 0.4800000227987766, 0.0, 0.0, 0.0, 0.0, 0.0, 1.7103945502617087E9, 0.0, 2024-03-13 22:35:50.261
46.0, -699.7165822098032, -332.703370008152, -462.221715323627, -381.9129736251198, 0.8640000410377979, 0.3680000174790621, 0.4800000227987766, 0.0, 0.0, 0.0, 0.0, 0.0, 1.7103945502623215E9, 0.0, 2024-03-13 22:35:50.262
46.0, -708.7073017032817, -330.96805642871186, -453.85929902270436, -379.0594299589284, 0.8640000410377979, 0.3680000174790621, 0.4800000227987766, 0.0, 0.0, 0.0, 0.0, 0.0, 1.7103945502623215E9, 0.0, 2024-03-13 22:35:50.262
47.0, -699.3201528145, -326.53253508126363, -460.6995760416612, -379.28756385622546, 0.8640000410377979, 0.3680000174790621, 0.4800000227987766, 0.0, 0.0, 0.0, 0.0, 0.0, 1.7103945502759228E9, 0.0, 2024-03-13 22:35:50.275
47.0, -698.5085945241153, -324.11655970988795, -468.79645944572985, -376.10490899393335, 0.8640000410377979, 0.3680000174790621, 0.4800000227987766, 0.0, 0.0, 0.0, 0.0, 0.0, 1.7103945502759228E9, 0.0, 2024-03-13 22:35:50.275
48.0, -699.7165822098032, -324.67380480328575, -462.87245791591704, -381.02661733562127, 0.8640000410377979, 0.3680000174790621, 0.4800000227987766, 0.0, 0.0, 0.0, 0.0, 0.0, 1.7103945502913992E9, 0.0, 2024-03-13 22:35:50.291
48.0, -698.4562359247357, -322.56824112823233, -459.00914126168936, -374.77724450966343, 0.8640000410377979, 0.3680000174790621, 0.4800000227987766, 0.0, 0.0, 0.0, 0.0, 0.0, 1.7103945502913992E9, 0.0, 2024-03-13 22:35:50.291
49.0, -692.2854009978473, -318.2075177798979, -475.31884496845305, -380.6002687406726, 0.8640000410377979, 0.3680000174790621, 0.4800000227987766, 0.0, 0.0, 0.0, 0.0, 0.0, 1.7103945502921703E9, 0.0, 2024-03-13 22:35:50.292
49.0, -697.5437003355473, -322.93849122384563, -467.8091258574277, -379.3137431559153, 0.8640000410377979, 0.3680000174790621, 0.4800000227987766, 0.0, 0.0, 0.0, 0.0, 0.0, 1.7103945502921703E9, 0.0, 2024-03-13 22:35:50.292
50.0, -700.9320496954024, -330.60154623305425, -457.94700967427343, -376.59109598817304, 0.8640000410377979, 0.3680000174790621, 0.4800000227987766, 0.0, 0.0, 0.0, 0.0, 0.0, 1.7103945503058012E9, 0.0, 2024-03-13 22:35:50.305
50.0, -705.3488715430722, -320.2382834558375, -466.61235787160695, -374.21625951630995, 0.8640000410377979, 0.3680000174790621, 0.4800000227987766, 0.0, 0.0, 0.0, 0.0, 0.0, 1.7103945503058012E9, 0.0, 2024-03-13 22:35:50.305
51.0, -702.0353201823309, -324.6850245031528, -465.6362439831719, -375.21855270443484, 0.8640000410377979, 0.3680000174790621, 0.4800000227987766, 0.0, 0.0, 0.0, 0.0, 0.0, 1.710394550337787E9, 0.0, 2024-03-13 22:35:50.337
51.0, -717.6942812968045, -333.8889182941057, -456.83251948747784, -372.5744434357621, 0.8640000410377979, 0.3680000174790621, 0.4800000227987766, 0.0, 0.0, 0.0, 0.0, 0.0, 1.710394550337787E9, 0.0, 2024-03-13 22:35:50.337
52.0, -713.7000681441277, -335.41479747602716, -473.0674251951277, -379.8261094498448, 0.8640000410377979, 0.3680000174790621, 0.4800000227987766, 0.0, 0.0, 0.0, 0.0, 0.0, 1.710394550338916E9, 0.0, 2024-03-13 22:35:50.338
52.0, -708.1051778104156, -330.27617493690923, -472.68595539964736, -378.6817000634037, 0.8640000410377979, 0.3680000174790621, 0.4800000227987766, 0.0, 0.0, 0.0, 0.0, 0.0, 1.710394550338916E9, 0.0, 2024-03-13 22:35:50.338
53.0, -706.6914956271648, -331.41310452343896, -457.38976458087564, -373.5580371241085, 0.8640000410377979, 0.3680000174790621, 0.4800000227987766, 0.0, 0.0, 0.0, 0.0, 0.0, 1.7103945503397167E9, 0.0, 2024-03-13 22:35:50.339
53.0, -722.1821612436324, -345.8528582523577, -466.0438930783421, -384.40000709565356, 0.8640000410377979, 0.3680000174790621, 0.4800000227987766, 0.0, 0.0, 0.0, 0.0, 0.0, 1.7103945503397167E9, 0.0, 2024-03-13 22:35:50.339
54.0, -729.6507414551452, -347.27028033556417, -479.01760602463037, -388.15486665116623, 0.8640000410377979, 0.3680000174790621, 0.4800000227987766, 0.0, 0.0, 0.0, 0.0, 0.0, 1.7103945503400905E9, 0.0, 2024-03-13 22:35:50.340
54.0, -709.3804836953059, -335.3287797770463, -463.7737738052383, -379.29504365613684, 0.8640000410377979, 0.3680000174790621, 0.4800000227987766, 0.0, 0.0, 0.0, 0.0, 0.0, 1.7103945503400905E9, 0.0, 2024-03-13 22:35:50.340
55.0, -716.314258213155, -343.1900494839065, -462.2291951235384, -380.44693284248933, 0.8640000410377979, 0.3680000174790621, 0.4800000227987766, 0.0, 0.0, 0.0, 0.0, 0.0, 1.7103945503506768E9, 0.0, 2024-03-13 22:35:50.350
55.0, -719.2612993782386, -334.48730228701606, -476.3360977564007, -382.44029951887205, 0.8640000410377979, 0.3680000174790621, 0.4800000227987766, 0.0, 0.0, 0.0, 0.0, 0.0, 1.7103945503506768E9, 0.0, 2024-03-13 22:35:50.350
56.0, -696.6386445462704, -323.18532462092116, -461.2269019354135, -371.28043805109337, 0.8640000410377979, 0.3680000174790621, 0.4800000227987766, 0.0, 0.0, 0.0, 0.0, 0.0, 1.7103945503659277E9, 0.0, 2024-03-13 22:35:50.365
56.0, -700.2513879034668, -322.78889522561803, -442.5049627572298, -360.94709447352216, 0.8640000410377979, 0.3680000174790621, 0.4800000227987766, 0.0, 0.0, 0.0, 0.0, 0.0, 1.7103945503659277E9, 0.0, 2024-03-13 22:35:50.365
57.0, -701.2349815918133, -325.19365089712664, -456.08453949633986, -366.7439394048415, 0.8640000410377979, 0.3680000174790621, 0.4800000227987766, 0.0, 0.0, 0.0, 0.0, 0.0, 1.7103945503813632E9, 0.0, 2024-03-13 22:35:50.381
57.0, -698.6507107224315, -328.0696339630522, -463.934589503333, -370.4613999607973, 0.8640000410377979, 0.3680000174790621, 0.4800000227987766, 0.0, 0.0, 0.0, 0.0, 0.0, 1.7103945503813632E9, 0.0, 2024-03-13 22:35:50.381
58.0, -710.8577441778034, -337.8382526473142, -454.9663094095886, -377.58216947643086, 0.8640000410377979, 0.3680000174790621, 0.4800000227987766, 0.0, 0.0, 0.0, 0.0, 0.0, 1.7103945503821013E9, 0.0, 2024-03-13 22:35:50.382
58.0, -724.6317957146093, -338.3917578407563, -458.6949896654114, -376.2993837916292, 0.8640000410377979, 0.3680000174790621, 0.4800000227987766, 0.0, 0.0, 0.0, 0.0, 0.0, 1.7103945503821013E9, 0.0, 2024-03-13 22:35:50.382
59.0, -719.3847160767764, -344.1773830722086, -468.8450781451538, -381.88679432542995, 0.8640000410377979, 0.3680000174790621, 0.4800000227987766, 0.0, 0.0, 0.0, 0.0, 0.0, 1.7103945503960845E9, 0.0, 2024-03-13 22:35:50.396
59.0, -712.7463936554268, -338.4740356397815, -459.56264645513147, -374.0030852188356, 0.8640000410377979, 0.3680000174790621, 0.4800000227987766, 0.0, 0.0, 0.0, 0.0, 0.0, 1.7103945503960845E9, 0.0, 2024-03-13 22:35:50.396
60.0, -722.0400450453162, -340.7740741125308, -456.6904032891616, -377.55225027678534, 0.8640000410377979, 0.3680000174790621, 0.4800000227987766, 0.0, 0.0, 0.0, 0.0, 0.0, 1.7103945504117243E9, 0.0, 2024-03-13 22:35:50.411
60.0, -720.933034658432, -339.64088442595676, -467.1583832651377, -379.48203865392134, 0.8640000410377979, 0.3680000174790621, 0.4800000227987766, 0.0, 0.0, 0.0, 0.0, 0.0, 1.7103945504117243E9, 0.0, 2024-03-13 22:35:50.411
61.0, -698.3141197264194, -333.6645242967643, -465.57266568392515, -371.51605174830183, 0.8640000410377979, 0.3680000174790621, 0.4800000227987766, 0.0, 0.0, 0.0, 0.0, 0.0, 1.7103945504121852E9, 0.0, 2024-03-13 22:35:50.412
61.0, -709.8965898891911, -330.8109806305729, -453.0739200320095, -370.21082666376606, 0.8640000410377979, 0.3680000174790621, 0.4800000227987766, 0.0, 0.0, 0.0, 0.0, 0.0, 1.7103945504121852E9, 0.0, 2024-03-13 22:35:50.412
62.0, -702.2185752801597, -326.4352976824157, -462.37879112176597, -374.65756771108136, 0.8640000410377979, 0.3680000174790621, 0.4800000227987766, 0.0, 0.0, 0.0, 0.0, 0.0, 1.710394550442082E9, 0.0, 2024-03-13 22:35:50.442
62.0, -707.4245160184801, -332.5537740099244, -481.8300107913092, -381.69979932764545, 0.8640000410377979, 0.3680000174790621, 0.4800000227987766, 0.0, 0.0, 0.0, 0.0, 0.0, 1.710394550442082E9, 0.0, 2024-03-13 22:35:50.442
63.0, -700.0830924054608, -335.22780247824267, -467.79790615756065, -380.77604403859004, 0.8640000410377979, 0.3680000174790621, 0.4800000227987766, 0.0, 0.0, 0.0, 0.0, 0.0, 1.7103945504428244E9, 0.0, 2024-03-13 22:35:50.442
63.0, -710.8278249781579, -342.23637499520555, -469.0732120424509, -382.9077870133333, 0.8640000410377979, 0.3680000174790621, 0.4800000227987766, 0.0, 0.0, 0.0, 0.0, 0.0, 1.7103945504428244E9, 0.0, 2024-03-13 22:35:50.442
64.0, -713.9469015412033, -341.41733690490946, -483.58776377048343, -389.5797685342841, 0.8640000410377979, 0.3680000174790621, 0.4800000227987766, 0.0, 0.0, 0.0, 0.0, 0.0, 1.7103945504437E9, 0.0, 2024-03-13 22:35:50.443
64.0, -707.9294025124982, -323.9071253123693, -461.4774752324447, -375.51400480093434, 0.8640000410377979, 0.3680000174790621, 0.4800000227987766, 0.0, 0.0, 0.0, 0.0, 0.0, 1.7103945504437E9, 0.0, 2024-03-13 22:35:50.443
65.0, -707.3983367187902, -320.1784450565465, -446.67495120782405, -364.69447422912344, 0.8640000410377979, 0.3680000174790621, 0.4800000227987766, 0.0, 0.0, 0.0, 0.0, 0.0, 1.7103945504558747E9, 0.0, 2024-03-13 22:35:50.455
65.0, -706.1604298334569, -314.89396641915664, -461.8851243276149, -368.5615307833068, 0.8640000410377979, 0.3680000174790621, 0.4800000227987766, 0.0, 0.0, 0.0, 0.0, 0.0, 1.7103945504558747E9, 0.0, 2024-03-13 22:35:50.455
66.0, -704.2156818564981, -328.67175785591826, -459.6299646543339, -368.3333968860097, 0.8640000410377979, 0.3680000174790621, 0.4800000227987766, 0.0, 0.0, 0.0, 0.0, 0.0, 1.7103945504713948E9, 0.0, 2024-03-13 22:35:50.471
66.0, -708.9017765009776, -329.651611644309, -449.93614396918565, -369.95651346677914, 0.8640000410377979, 0.3680000174790621, 0.4800000227987766, 0.0, 0.0, 0.0, 0.0, 0.0, 1.7103945504713948E9, 0.0, 2024-03-13 22:35:50.471
67.0, -705.9285560362041, -333.8515192945488, -464.83964529260993, -373.65901442291215, 0.8640000410377979, 0.3680000174790621, 0.4800000227987766, 0.0, 0.0, 0.0, 0.0, 0.0, 1.710394550472164E9, 0.0, 2024-03-13 22:35:50.472
67.0, -703.011434070766, -329.3972984473221, -468.7740200459957, -371.21685975184664, 0.8640000410377979, 0.3680000174790621, 0.4800000227987766, 0.0, 0.0, 0.0, 0.0, 0.0, 1.710394550472164E9, 0.0, 2024-03-13 22:35:50.472
68.0, -711.6730423681438, -330.0929198390804, -457.1167518841103, -373.28128452738747, 0.8640000410377979, 0.3680000174790621, 0.4800000227987766, 0.0, 0.0, 0.0, 0.0, 0.0, 1.710394550485906E9, 0.0, 2024-03-13 22:35:50.485
68.0, -708.4081097068265, -340.2504881187342, -464.7087487941608, -379.5643164529465, 0.8640000410377979, 0.3680000174790621, 0.4800000227987766, 0.0, 0.0, 0.0, 0.0, 0.0, 1.710394550485906E9, 0.0, 2024-03-13 22:35:50.485
69.0, -701.5528730880469, -323.93704451201484, -465.7821000814438, -373.24762542778626, 0.8640000410377979, 0.3680000174790621, 0.4800000227987766, 0.0, 0.0, 0.0, 0.0, 0.0, 1.7103945505013735E9, 0.0, 2024-03-13 22:35:50.501
69.0, -708.6138042043895, -327.89011876517907, -458.45937596820295, -378.412427266594, 0.8640000410377979, 0.3680000174790621, 0.4800000227987766, 0.0, 0.0, 0.0, 0.0, 0.0, 1.7103945505013735E9, 0.0, 2024-03-13 22:35:50.501
70.0, -713.3784367479384, -339.27437423029914, -457.4346433803439, -378.1618539695628, 0.8640000410377979, 0.3680000174790621, 0.4800000227987766, 0.0, 0.0, 0.0, 0.0, 0.0, 1.7103945505020924E9, 0.0, 2024-03-13 22:35:50.502
70.0, -720.2224536668509, -342.7450013891794, -482.12920278776437, -392.1715192035772, 0.8640000410377979, 0.3680000174790621, 0.4800000227987766, 0.0, 0.0, 0.0, 0.0, 0.0, 1.7103945505020924E9, 0.0, 2024-03-13 22:35:50.502
71.0, -698.560953123495, -327.4787297700532, -460.82299274019897, -373.13542842911556, 0.8640000410377979, 0.3680000174790621, 0.4800000227987766, 0.0, 0.0, 0.0, 0.0, 0.0, 1.7103945505157497E9, 0.0, 2024-03-13 22:35:50.515
71.0, -707.2001220211387, -330.9530968288891, -457.8759515751153, -372.88111523212865, 0.8640000410377979, 0.3680000174790621, 0.4800000227987766, 0.0, 0.0, 0.0, 0.0, 0.0, 1.7103945505157497E9, 0.0, 2024-03-13 22:35:50.515
72.0, -709.6946352915838, -339.9662557221018, -475.95088806096464, -382.055089823436, 0.8640000410377979, 0.3680000174790621, 0.4800000227987766, 0.0, 0.0, 0.0, 0.0, 0.0, 1.7103945505318272E9, 0.0, 2024-03-13 22:35:50.531
72.0, -701.0741658937186, -325.55642119282857, -468.2579138521105, -376.5349974888377, 0.8640000410377979, 0.3680000174790621, 0.4800000227987766, 0.0, 0.0, 0.0, 0.0, 0.0, 1.7103945505318272E9, 0.0, 2024-03-13 22:35:50.531
73.0, -705.1880558449775, -323.92582481214777, -453.9153975220397, -365.3676562211476, 0.8640000410377979, 0.3680000174790621, 0.4800000227987766, 0.0, 0.0, 0.0, 0.0, 0.0, 1.7103945505321276E9, 0.0, 2024-03-13 22:35:50.532
73.0, -704.9337426479906, -330.7698417310603, -455.6544510014355, -370.16968776425347, 0.8640000410377979, 0.3680000174790621, 0.4800000227987766, 0.0, 0.0, 0.0, 0.0, 0.0, 1.7103945505321276E9, 0.0, 2024-03-13 22:35:50.532
74.0, -705.109517945908, -325.9902495876886, -474.1445163823664, -373.73755232198164, 0.8640000410377979, 0.3680000174790621, 0.4800000227987766, 0.0, 0.0, 0.0, 0.0, 0.0, 1.7103945505462444E9, 0.0, 2024-03-13 22:35:50.546
74.0, -699.3538119141012, -320.6234931512736, -458.8184063639492, -366.40360850887373, 0.8640000410377979, 0.3680000174790621, 0.4800000227987766, 0.0, 0.0, 0.0, 0.0, 0.0, 1.7103945505462444E9, 0.0, 2024-03-13 22:35:50.546
75.0, -708.763400202617, -328.0322349634953, -451.0244548562914, -368.5914499829523, 0.8640000410377979, 0.3680000174790621, 0.4800000227987766, 0.0, 0.0, 0.0, 0.0, 0.0, 1.7103945505617783E9, 0.0, 2024-03-13 22:35:50.561
75.0, -702.8954971721396, -325.2908882959746, -468.2579138521105, -372.61558233527467, 0.8640000410377979, 0.3680000174790621, 0.4800000227987766, 0.0, 0.0, 0.0, 0.0, 0.0, 1.7103945505617783E9, 0.0, 2024-03-13 22:35:50.561
76.0, -690.0003221249208, -319.6959979622625, -459.39061105716974, -374.87822180846706, 0.8640000410377979, 0.3680000174790621, 0.4800000227987766, 0.0, 0.0, 0.0, 0.0, 0.0, 1.7103945505622544E9, 0.0, 2024-03-13 22:35:50.562
76.0, -701.8109261849895, -331.5140818222426, -450.5794067615643, -370.51375856017694, 0.8640000410377979, 0.3680000174790621, 0.4800000227987766, 0.0, 0.0, 0.0, 0.0, 0.0, 1.7103945505622544E9, 0.0, 2024-03-13 22:35:50.562
77.0, -707.9630616120994, -340.2205689190887, -464.35345829837024, -381.4978447300382, 0.8640000410377979, 0.3680000174790621, 0.4800000227987766, 0.0, 0.0, 0.0, 0.0, 0.0, 1.7103945505760164E9, 0.0, 2024-03-13 22:35:50.576
77.0, -713.0381058519706, -340.57585941487923, -470.8122655218467, -383.85398170212284, 0.8640000410377979, 0.3680000174790621, 0.4800000227987766, 0.0, 0.0, 0.0, 0.0, 0.0, 1.7103945505760164E9, 0.0, 2024-03-13 22:35:50.576
78.0, -711.321491772309, -344.19982247194275, -462.24041482340544, -384.13821409875527, 0.8640000410377979, 0.3680000174790621, 0.4800000227987766, 0.0, 0.0, 0.0, 0.0, 0.0, 1.7103945505913815E9, 0.0, 2024-03-13 22:35:50.591
78.0, -720.1177364680916, -339.34917222941294, -470.34851792734116, -384.63188089290634, 0.8640000410377979, 0.3680000174790621, 0.4800000227987766, 0.0, 0.0, 0.0, 0.0, 0.0, 1.7103945505913815E9, 0.0, 2024-03-13 22:35:50.591
79.0, -704.7467476502061, -321.7305035381578, -465.91299657989293, -371.4823926487006, 0.8640000410377979, 0.3680000174790621, 0.4800000227987766, 0.0, 0.0, 0.0, 0.0, 0.0, 1.7103945505921373E9, 0.0, 2024-03-13 22:35:50.592
79.0, -694.2937272740528, -323.2152438205667, -451.63779844902456, -363.6772214411758, 0.8640000410377979, 0.3680000174790621, 0.4800000227987766, 0.0, 0.0, 0.0, 0.0, 0.0, 1.7103945505921373E9, 0.0, 2024-03-13 22:35:50.592
80.0, -718.2515263902023, -333.0960595034994, -462.1169981248677, -383.6183680049144, 0.8640000410377979, 0.3680000174790621, 0.4800000227987766, 0.0, 0.0, 0.0, 0.0, 0.0, 1.710394550605799E9, 0.0, 2024-03-13 22:35:50.605
80.0, -719.7923651719466, -334.52470128657296, -474.95233477279544, -388.29698284948245, 0.8640000410377979, 0.3680000174790621, 0.4800000227987766, 0.0, 0.0, 0.0, 0.0, 0.0, 1.710394550605799E9, 0.0, 2024-03-13 22:35:50.605
81.0, -710.2032616855577, -333.23817570181563, -466.57495887205005, -376.4527196898125, 0.8640000410377979, 0.3680000174790621, 0.4800000227987766, 0.0, 0.0, 0.0, 0.0, 0.0, 1.7103945506214793E9, 0.0, 2024-03-13 22:35:50.621
81.0, -719.26877917815, -331.2522888253443, -457.01203468535095, -376.55743688857183, 0.8640000410377979, 0.3680000174790621, 0.4800000227987766, 0.0, 0.0, 0.0, 0.0, 0.0, 1.7103945506214793E9, 0.0, 2024-03-13 22:35:50.621
82.0, -726.8944351878017, -348.28005332360044, -475.69657486397773, -387.313389161136, 0.8640000410377979, 0.3680000174790621, 0.4800000227987766, 0.0, 0.0, 0.0, 0.0, 0.0, 1.7103945506223893E9, 0.0, 2024-03-13 22:35:50.622
82.0, -730.4660396454856, -351.3018924877979, -492.0436775702983, -399.9505111114122, 0.8640000410377979, 0.3680000174790621, 0.4800000227987766, 0.0, 0.0, 0.0, 0.0, 0.0, 1.7103945506223893E9, 0.0, 2024-03-13 22:35:50.622
83.0, -728.180960772559, -353.2503803647123, -469.80249253381044, -390.2753899260424, 0.8640000410377979, 0.3680000174790621, 0.4800000227987766, 0.0, 0.0, 0.0, 0.0, 0.0, 1.7103945506361084E9, 0.0, 2024-03-13 22:35:50.636
83.0, -730.3837618464604, -353.8599840574898, -466.35804467462003, -393.4917038879357, 0.8640000410377979, 0.3680000174790621, 0.4800000227987766, 0.0, 0.0, 0.0, 0.0, 0.0, 1.7103945506361084E9, 0.0, 2024-03-13 22:35:50.636
84.0, -745.0591292725876, -373.47949922503904, -487.03221162967384, -404.0157823632471, 0.8640000410377979, 0.3680000174790621, 0.4800000227987766, 0.0, 0.0, 0.0, 0.0, 0.0, 1.7103945506514213E9, 0.0, 2024-03-13 22:35:50.651
84.0, -752.3519341861829, -372.0022387425415, -479.7543663159013, -404.318714259658, 0.8640000410377979, 0.3680000174790621, 0.4800000227987766, 0.0, 0.0, 0.0, 0.0, 0.0, 1.7103945506514213E9, 0.0, 2024-03-13 22:35:50.651
85.0, -749.0084636257961, -368.44185398472473, -469.8548511331901, -403.3313806713559, 0.8640000410377979, 0.3680000174790621, 0.4800000227987766, 0.0, 0.0, 0.0, 0.0, 0.0, 1.7103945506521072E9, 0.0, 2024-03-13 22:35:50.652
85.0, -754.0386290661991, -377.2418385804631, -490.16998769249767, -410.04824099177495, 0.8640000410377979, 0.3680000174790621, 0.4800000227987766, 0.0, 0.0, 0.0, 0.0, 0.0, 1.7103945506521072E9, 0.0, 2024-03-13 22:35:50.652
86.0, -742.2542043058202, -368.0753437890671, -475.6030773650855, -399.92433181172237, 0.8640000410377979, 0.3680000174790621, 0.4800000227987766, 0.0, 0.0, 0.0, 0.0, 0.0, 1.710394550666011E9, 0.0, 2024-03-13 22:35:50.666
86.0, -756.0357356425375, -378.5321040651761, -472.2184679051861, -405.3509266474284, 0.8640000410377979, 0.3680000174790621, 0.4800000227987766, 0.0, 0.0, 0.0, 0.0, 0.0, 1.710394550666011E9, 0.0, 2024-03-13 22:35:50.666
87.0, -757.7261704225093, -375.1175754056312, -479.83290421497077, -403.2827619719319, 0.8640000410377979, 0.3680000174790621, 0.4800000227987766, 0.0, 0.0, 0.0, 0.0, 0.0, 1.710394550681382E9, 0.0, 2024-03-13 22:35:50.681
87.0, -742.2916033053771, -359.74284668779, -475.35624396800995, -393.29722909023985, 0.8640000410377979, 0.3680000174790621, 0.4800000227987766, 0.0, 0.0, 0.0, 0.0, 0.0, 1.710394550681382E9, 0.0, 2024-03-13 22:35:50.681
88.0, -740.2159588299692, -368.2585988868959, -459.8468788517639, -392.5455091991462, 0.8640000410377979, 0.3680000174790621, 0.4800000227987766, 0.0, 0.0, 0.0, 0.0, 0.0, 1.7103945506821103E9, 0.0, 2024-03-13 22:35:50.682
88.0, -753.5487021720037, -373.9282872197218, -469.50704043731093, -395.5112498640083, 0.8640000410377979, 0.3680000174790621, 0.4800000227987766, 0.0, 0.0, 0.0, 0.0, 0.0, 1.7103945506821103E9, 0.0, 2024-03-13 22:35:50.682
89.0, -749.2365975230932, -382.7170521155931, -481.91976839024574, -397.8038085368462, 0.8640000410377979, 0.3680000174790621, 0.4800000227987766, 0.0, 0.0, 0.0, 0.0, 0.0, 1.7103945506961904E9, 0.0, 2024-03-13 22:35:50.696
89.0, -739.976605232805, -369.81065736850724, -469.361184339039, -397.7551898374222, 0.8640000410377979, 0.3680000174790621, 0.4800000227987766, 0.0, 0.0, 0.0, 0.0, 0.0, 1.7103945506961904E9, 0.0, 2024-03-13 22:35:50.696
90.0, -752.0527421897277, -371.06726375361905, -477.7909188391641, -404.4383910582401, 0.8640000410377979, 0.3680000174790621, 0.4800000227987766, 0.0, 0.0, 0.0, 0.0, 0.0, 1.710394550711386E9, 0.0, 2024-03-13 22:35:50.711
90.0, -756.933311631903, -378.02721757115796, -494.0071250470355, -413.49268885096535, 0.8640000410377979, 0.3680000174790621, 0.4800000227987766, 0.0, 0.0, 0.0, 0.0, 0.0, 1.710394550711386E9, 0.0, 2024-03-13 22:35:50.711
91.0, -746.2409376585856, -375.4915654012002, -495.7648780262098, -409.625632296782, 0.8640000410377979, 0.3680000174790621, 0.4800000227987766, 0.0, 0.0, 0.0, 0.0, 0.0, 1.7103945507120898E9, 0.0, 2024-03-13 22:35:50.712
91.0, -746.139960359782, -371.2654784512706, -483.303531373851, -405.23498974880204, 0.8640000410377979, 0.3680000174790621, 0.4800000227987766, 0.0, 0.0, 0.0, 0.0, 0.0, 1.7103945507120898E9, 0.0, 2024-03-13 22:35:50.712
92.0, -768.7439156919718, -370.88400865579024, -488.2289796154946, -406.3233006359078, 0.8640000410377979, 0.3680000174790621, 0.4800000227987766, 0.0, 0.0, 0.0, 0.0, 0.0, 1.7103945507258277E9, 0.0, 2024-03-13 22:35:50.725
92.0, -739.6175748370588, -365.21806022292003, -483.13897577580065, -395.6870251619257, 0.8640000410377979, 0.3680000174790621, 0.4800000227987766, 0.0, 0.0, 0.0, 0.0, 0.0, 1.7103945507258277E9, 0.0, 2024-03-13 22:35:50.725
93.0, -745.0479095727205, -360.46090747928247, -469.7688334342092, -393.2373906909488, 0.8640000410377979, 0.3680000174790621, 0.4800000227987766, 0.0, 0.0, 0.0, 0.0, 0.0, 1.710394550741773E9, 0.0, 2024-03-13 22:35:50.741
93.0, -733.2821843121201, -343.8894107756205, -462.87619781587273, -384.8974137897603, 0.8640000410377979, 0.3680000174790621, 0.4800000227987766, 0.0, 0.0, 0.0, 0.0, 0.0, 1.710394550741773E9, 0.0, 2024-03-13 22:35:50.741
94.0, -732.4781058216467, -357.8280179104768, -481.21666719857603, -394.25464347889647, 0.8640000410377979, 0.3680000174790621, 0.4800000227987766, 0.0, 0.0, 0.0, 0.0, 0.0, 1.710394550742415E9, 0.0, 2024-03-13 22:35:50.742
94.0, -748.1856856355444, -365.3115577218123, -482.13668258767575, -400.96402399940416, 0.8640000410377979, 0.3680000174790621, 0.4800000227987766, 0.0, 0.0, 0.0, 0.0, 0.0, 1.710394550742415E9, 0.0, 2024-03-13 22:35:50.742
95.0, -752.374373585917, -368.6699878820218, -480.5584448063746, -403.08080737432465, 0.8640000410377979, 0.3680000174790621, 0.4800000227987766, 0.0, 0.0, 0.0, 0.0, 0.0, 1.7103945507559867E9, 0.0, 2024-03-13 22:35:50.755
95.0, -753.1747121764347, -367.79859119234607, -486.0934967407957, -404.7301032547839, 0.8640000410377979, 0.3680000174790621, 0.4800000227987766, 0.0, 0.0, 0.0, 0.0, 0.0, 1.7103945507559867E9, 0.0, 2024-03-13 22:35:50.755
96.0, -736.4872785741463, -367.42834109673277, -481.17926819901913, -404.4645703579299, 0.8640000410377979, 0.3680000174790621, 0.4800000227987766, 0.0, 0.0, 0.0, 0.0, 0.0, 1.7103945507713888E9, 0.0, 2024-03-13 22:35:50.771
96.0, -749.8349815160036, -369.80317756859586, -471.1451166179031, -397.6542125386186, 0.8640000410377979, 0.3680000174790621, 0.4800000227987766, 0.0, 0.0, 0.0, 0.0, 0.0, 1.7103945507713888E9, 0.0, 2024-03-13 22:35:50.771
97.0, -741.6520804129541, -367.47321989620104, -480.8613767027855, -401.67460499098524, 0.8640000410377979, 0.3680000174790621, 0.4800000227987766, 0.0, 0.0, 0.0, 0.0, 0.0, 1.7103945507722752E9, 0.0, 2024-03-13 22:35:50.772
97.0, -741.2967899171636, -356.69108832394704, -488.2028003158048, -401.1397992973216, 0.8640000410377979, 0.3680000174790621, 0.4800000227987766, 0.0, 0.0, 0.0, 0.0, 0.0, 1.7103945507722752E9, 0.0, 2024-03-13 22:35:50.772
98.0, -740.3094563288614, -359.8288643867709, -477.46928744297475, -401.8316807891242, 0.8640000410377979, 0.3680000174790621, 0.4800000227987766, 0.0, 0.0, 0.0, 0.0, 0.0, 1.7103945507858112E9, 0.0, 2024-03-13 22:35:50.785
98.0, -742.7890099994838, -367.4433006965555, -480.65194230526686, -405.657598443795, 0.8640000410377979, 0.3680000174790621, 0.4800000227987766, 0.0, 0.0, 0.0, 0.0, 0.0, 1.7103945507858112E9, 0.0, 2024-03-13 22:35:50.785
99.0, -739.0154509441927, -357.68964161211625, -486.0486179413274, -398.11048033321276, 0.8640000410377979, 0.3680000174790621, 0.4800000227987766, 0.0, 0.0, 0.0, 0.0, 0.0, 1.7103945508013906E9, 0.0, 2024-03-13 22:35:50.801
99.0, -729.9574132515118, -349.1140510137193, -472.7794528985396, -393.88813328323886, 0.8640000410377979, 0.3680000174790621, 0.4800000227987766, 0.0, 0.0, 0.0, 0.0, 0.0, 1.7103945508013906E9, 0.0, 2024-03-13 22:35:50.801
100.0, -734.9875786919147, -354.376090251375, -475.27396616898477, -397.34006094234064, 0.8640000410377979, 0.3680000174790621, 0.4800000227987766, 0.0, 0.0, 0.0, 0.0, 0.0, 1.7103945508020992E9, 0.0, 2024-03-13 22:35:50.802
100.0, -733.2410454126075, -355.232527341228, -486.5684640351683, -396.913712347392, 0.8640000410377979, 0.3680000174790621, 0.4800000227987766, 0.0, 0.0, 0.0, 0.0, 0.0, 1.7103945508020992E9, 0.0, 2024-03-13 22:35:50.802
0.0, -725.901491749566, -351.42156928637996, -483.1296260259114, -398.45455112913623, 0.8640000410377979, 0.3680000174790621, 0.4800000227987766, 0.0, 0.0, 0.0, 0.0, 0.0, 1.7103945508163636E9, 0.0, 2024-03-13 22:35:50.816
1.0, -732.5211146711372, -356.8631237219088, -466.6890258206986, -387.0852552638389, 0.8640000410377979, 0.3680000174790621, 0.4800000227987766, 0.0, 0.0, 0.0, 0.0, 0.0, 1.7103945508171077E9, 0.0, 2024-03-13 22:35:50.817
1.0, -725.8192139505409, -351.20839498890564, -473.48068414023146, -383.345355308149, 0.8640000410377979, 0.3680000174790621, 0.4800000227987766, 0.0, 0.0, 0.0, 0.0, 0.0, 1.7103945508171077E9, 0.0, 2024-03-13 22:35:50.817
2.0, -727.0459011360072, -353.411196062807, -480.4032389582135, -386.85338146658614, 0.8640000410377979, 0.3680000174790621, 0.4800000227987766, 0.0, 0.0, 0.0, 0.0, 0.0, 1.7103945508312216E9, 0.0, 2024-03-13 22:35:50.831
2.0, -716.447024661582, -338.27208104217425, -460.1329811983742, -375.92165389610454, 0.8640000410377979, 0.3680000174790621, 0.4800000227987766, 0.0, 0.0, 0.0, 0.0, 0.0, 1.7103945508312216E9, 0.0, 2024-03-13 22:35:50.831
3.0, -721.4958896017633, -342.5542664914392, -469.6585063855164, -387.9080332540907, 0.8640000410377979, 0.3680000174790621, 0.4800000227987766, 0.0, 0.0, 0.0, 0.0, 0.0, 1.7103945508463962E9, 0.0, 2024-03-13 22:35:50.846
3.0, -727.722823027987, -340.42252351669595, -478.9820769750513, -391.89476660685614, 0.8640000410377979, 0.3680000174790621, 0.4800000227987766, 0.0, 0.0, 0.0, 0.0, 0.0, 1.7103945508463962E9, 0.0, 2024-03-13 22:35:50.846
4.0, -720.2991216159426, -344.1474638725631, -470.1746125794016, -386.5691490699537, 0.8640000410377979, 0.3680000174790621, 0.4800000227987766, 0.0, 0.0, 0.0, 0.0, 0.0, 1.7103945508470943E9, 0.0, 2024-03-13 22:35:50.847
4.0, -720.7142505110241, -345.9164365516044, -460.3199761961587, -384.3439085963182, 0.8640000410377979, 0.3680000174790621, 0.4800000227987766, 0.0, 0.0, 0.0, 0.0, 0.0, 1.7103945508470943E9, 0.0, 2024-03-13 22:35:50.847
5.0, -716.7424767580815, -350.53521299688146, -476.3865864058025, -387.0889951637946, 0.8640000410377979, 0.3680000174790621, 0.4800000227987766, 0.0, 0.0, 0.0, 0.0, 0.0, 1.710394550860974E9, 0.0, 2024-03-13 22:35:50.860
5.0, -719.3678865269758, -345.5536662559025, -472.19041865551844, -388.2072252505459, 0.8640000410377979, 0.3680000174790621, 0.4800000227987766, 0.0, 0.0, 0.0, 0.0, 0.0, 1.710394550860974E9, 0.0, 2024-03-13 22:35:50.860
6.0, -719.8428538213484, -347.53955313237384, -457.8628619252704, -381.84191552596167, 0.8640000410377979, 0.3680000174790621, 0.4800000227987766, 0.0, 0.0, 0.0, 0.0, 0.0, 1.7103945508763783E9, 0.0, 2024-03-13 22:35:50.876
6.0, -727.4872093307786, -354.02079975558445, -472.0894413567148, -386.7935430672951, 0.8640000410377979, 0.3680000174790621, 0.4800000227987766, 0.0, 0.0, 0.0, 0.0, 0.0, 1.7103945508763783E9, 0.0, 2024-03-13 22:35:50.876
7.0, -724.7645621630363, -347.83500522887334, -468.74597079632804, -381.7970367264934, 0.8640000410377979, 0.3680000174790621, 0.4800000227987766, 0.0, 0.0, 0.0, 0.0, 0.0, 1.7103945508772368E9, 0.0, 2024-03-13 22:35:50.877
7.0, -722.8347737859003, -346.488641244825, -456.96528593590483, -378.0122579713352, 0.8640000410377979, 0.3680000174790621, 0.4800000227987766, 0.0, 0.0, 0.0, 0.0, 0.0, 1.7103945508772368E9, 0.0, 2024-03-13 22:35:50.877
8.0, -730.5314878947102, -349.72365470649675, -464.7143586440943, -387.4929043590091, 0.8640000410377979, 0.3680000174790621, 0.4800000227987766, 0.0, 0.0, 0.0, 0.0, 0.0, 1.7103945508907316E9, 0.0, 2024-03-13 22:35:50.890
8.0, -723.4481173786335, -356.2161210295744, -479.1354128732346, -393.1326734921895, 0.8640000410377979, 0.3680000174790621, 0.4800000227987766, 0.0, 0.0, 0.0, 0.0, 0.0, 1.7103945508907316E9, 0.0, 2024-03-13 22:35:50.890
9.0, -725.6396987526678, -357.05759851960465, -471.29658256610855, -393.21869119117036, 0.8640000410377979, 0.3680000174790621, 0.4800000227987766, 0.0, 0.0, 0.0, 0.0, 0.0, 1.7103945509063475E9, 0.0, 2024-03-13 22:35:50.906
9.0, -725.8079942506738, -350.65114989550784, -459.1194683103822, -388.15112675121054, 0.8640000410377979, 0.3680000174790621, 0.4800000227987766, 0.0, 0.0, 0.0, 0.0, 0.0, 1.7103945509063475E9, 0.0, 2024-03-13 22:35:50.906
10.0, -718.3581135389395, -352.53979937313125, -474.74851022521034, -389.32919523725286, 0.8640000410377979, 0.3680000174790621, 0.4800000227987766, 0.0, 0.0, 0.0, 0.0, 0.0, 1.7103945509070523E9, 0.0, 2024-03-13 22:35:50.907
10.0, -708.4511185563169, -345.5798455555923, -467.3921270123683, -385.3536815843545, 0.8640000410377979, 0.3680000174790621, 0.4800000227987766, 0.0, 0.0, 0.0, 0.0, 0.0, 1.7103945509070523E9, 0.0, 2024-03-13 22:35:50.907
11.0, -714.7752893813886, -343.27980708284304, -455.648841151502, -377.36151537904516, 0.8640000410377979, 0.3680000174790621, 0.4800000227987766, 0.0, 0.0, 0.0, 0.0, 0.0, 1.710394550920682E9, 0.0, 2024-03-13 22:35:50.920
11.0, -722.198990793433, -337.68491674913093, -472.2128580552526, -386.99175776494667, 0.8640000410377979, 0.3680000174790621, 0.4800000227987766, 0.0, 0.0, 0.0, 0.0, 0.0, 1.710394550920682E9, 0.0, 2024-03-13 22:35:50.920
12.0, -711.6973517178558, -336.63774476153776, -467.1378138153814, -379.2800840563141, 0.8640000410377979, 0.3680000174790621, 0.4800000227987766, 0.0, 0.0, 0.0, 0.0, 0.0, 1.7103945509363685E9, 0.0, 2024-03-13 22:35:50.936
12.0, -696.5806760969572, -329.0345281516202, -449.2274329275824, -370.87278895592317, 0.8640000410377979, 0.3680000174790621, 0.4800000227987766, 0.0, 0.0, 0.0, 0.0, 0.0, 1.7103945509363685E9, 0.0, 2024-03-13 22:35:50.936
13.0, -715.5980673716404, -337.56523995054886, -461.7972366786562, -381.6885796277784, 0.8640000410377979, 0.3680000174790621, 0.4800000227987766, 0.0, 0.0, 0.0, 0.0, 0.0, 1.7103945509370887E9, 0.0, 2024-03-13 22:35:50.937
13.0, -708.0808684607036, -335.923423870001, -470.0661554806866, -382.0251706237905, 0.8640000410377979, 0.3680000174790621, 0.4800000227987766, 0.0, 0.0, 0.0, 0.0, 0.0, 1.7103945509370887E9, 0.0, 2024-03-13 22:35:50.937
14.0, -710.6539196302183, -340.5833392147906, -458.0423771231435, -377.5709497765638, 0.8640000410377979, 0.3680000174790621, 0.4800000227987766, 0.0, 0.0, 0.0, 0.0, 0.0, 1.710394550950661E9, 0.0, 2024-03-13 22:35:50.950
14.0, -711.0653086253442, -336.3535123649053, -454.51565146492794, -377.0959824821912, 0.8640000410377979, 0.3680000174790621, 0.4800000227987766, 0.0, 0.0, 0.0, 0.0, 0.0, 1.710394550950661E9, 0.0, 2024-03-13 22:35:50.950
15.0, -727.4311108314432, -350.3706573988311, -480.8744663526304, -394.0526888812892, 0.8640000410377979, 0.3680000174790621, 0.4800000227987766, 0.0, 0.0, 0.0, 0.0, 0.0, 1.7103945509665315E9, 0.0, 2024-03-13 22:35:50.966
15.0, -717.1837849528529, -346.72425494203344, -472.1642393558286, -386.26247727358714, 0.8640000410377979, 0.3680000174790621, 0.4800000227987766, 0.0, 0.0, 0.0, 0.0, 0.0, 1.7103945509665315E9, 0.0, 2024-03-13 22:35:50.966
16.0, -732.5996525702067, -359.94480128539726, -467.0517961164005, -392.5380293992348, 0.8640000410377979, 0.3680000174790621, 0.4800000227987766, 0.0, 0.0, 0.0, 0.0, 0.0, 1.7103945509672556E9, 0.0, 2024-03-13 22:35:50.967
16.0, -736.5901258229278, -350.3631775989197, -477.30286189494655, -395.03254266967997, 0.8640000410377979, 0.3680000174790621, 0.4800000227987766, 0.0, 0.0, 0.0, 0.0, 0.0, 1.7103945509672556E9, 0.0, 2024-03-13 22:35:50.967
17.0, -732.0872862762772, -344.94406256312504, -476.89895269973204, -391.172965915408, 0.8640000410377979, 0.3680000174790621, 0.4800000227987766, 0.0, 0.0, 0.0, 0.0, 0.0, 1.7103945509810846E9, 0.0, 2024-03-13 22:35:50.981
17.0, -727.8836387260817, -346.3240856467746, -464.235651449766, -388.52137684682384, 0.8640000410377979, 0.3680000174790621, 0.4800000227987766, 0.0, 0.0, 0.0, 0.0, 0.0, 1.7103945509810846E9, 0.0, 2024-03-13 22:35:50.981
18.0, -721.4360512024723, -345.5200071563013, -463.5774290575646, -387.470464959275, 0.8640000410377979, 0.3680000174790621, 0.4800000227987766, 0.0, 0.0, 0.0, 0.0, 0.0, 1.7103945509963872E9, 0.0, 2024-03-13 22:35:50.996
18.0, -717.9878634433262, -337.50166165130213, -478.4622308812104, -388.25958384992555, 0.8640000410377979, 0.3680000174790621, 0.4800000227987766, 0.0, 0.0, 0.0, 0.0, 0.0, 1.7103945509963872E9, 0.0, 2024-03-13 22:35:50.996
19.0, -704.0791755081154, -334.12827189126983, -458.03863722318783, -377.7579447743483, 0.8640000410377979, 0.3680000174790621, 0.4800000227987766, 0.0, 0.0, 0.0, 0.0, 0.0, 1.7103945509971297E9, 0.0, 2024-03-13 22:35:50.997
19.0, -715.4484713734128, -339.1359979319386, -458.40514741884544, -381.96533222449943, 0.8640000410377979, 0.3680000174790621, 0.4800000227987766, 0.0, 0.0, 0.0, 0.0, 0.0, 1.7103945509971297E9, 0.0, 2024-03-13 22:35:50.997
20.0, -712.8455010042526, -336.0019617690705, -471.30032246606424, -384.467325294856, 0.8640000410377979, 0.3680000174790621, 0.4800000227987766, 0.0, 0.0, 0.0, 0.0, 0.0, 1.710394551010965E9, 0.0, 2024-03-13 22:35:51.010
20.0, -709.9882174381055, -326.6596916797571, -462.9005071655847, -377.9860786716454, 0.8640000410377979, 0.3680000174790621, 0.4800000227987766, 0.0, 0.0, 0.0, 0.0, 0.0, 1.710394551010965E9, 0.0, 2024-03-13 22:35:51.010
21.0, -713.6234001950361, -331.4056247235276, -451.1534814047627, -374.0778832179494, 0.8640000410377979, 0.3680000174790621, 0.4800000227987766, 0.0, 0.0, 0.0, 0.0, 0.0, 1.7103945510267334E9, 0.0, 2024-03-13 22:35:51.026
21.0, -709.8311416399665, -324.441931006033, -459.44857950648293, -374.7996839093976, 0.8640000410377979, 0.3680000174790621, 0.4800000227987766, 0.0, 0.0, 0.0, 0.0, 0.0, 1.7103945510267334E9, 0.0, 2024-03-13 22:35:51.026
22.0, -715.0183828785084, -336.1702572670765, -471.1956052673049, -378.6330813639797, 0.8640000410377979, 0.3680000174790621, 0.4800000227987766, 0.0, 0.0, 0.0, 0.0, 0.0, 1.7103945510274847E9, 0.0, 2024-03-13 22:35:51.027
22.0, -708.884946951177, -330.2125966376625, -457.51131132943556, -373.13916832907125, 0.8640000410377979, 0.3680000174790621, 0.4800000227987766, 0.0, 0.0, 0.0, 0.0, 0.0, 1.7103945510274847E9, 0.0, 2024-03-13 22:35:51.027
23.0, -719.4838234256022, -343.20126918377355, -465.4585987352766, -383.0461633116938, 0.8640000410377979, 0.3680000174790621, 0.4800000227987766, 0.0, 0.0, 0.0, 0.0, 0.0, 1.7103945510406957E9, 0.0, 2024-03-13 22:35:51.040
23.0, -713.5486021959223, -337.6998763489537, -478.4023924819194, -384.7552975914441, 0.8640000410377979, 0.3680000174790621, 0.4800000227987766, 0.0, 0.0, 0.0, 0.0, 0.0, 1.7103945510406957E9, 0.0, 2024-03-13 22:35:51.040
24.0, -698.3608684758656, -325.3918655947782, -455.5291643529199, -370.44270046101883, 0.8640000410377979, 0.3680000174790621, 0.4800000227987766, 0.0, 0.0, 0.0, 0.0, 0.0, 1.7103945510565171E9, 0.0, 2024-03-13 22:35:51.056
24.0, -709.5693486430682, -330.9493569289334, -451.4863325008191, -368.42689438490197, 0.8640000410377979, 0.3680000174790621, 0.4800000227987766, 0.0, 0.0, 0.0, 0.0, 0.0, 1.7103945510565171E9, 0.0, 2024-03-13 22:35:51.056
25.0, -702.2541043297388, -331.8431930183433, -464.3815075480379, -368.91308137914166, 0.8640000410377979, 0.3680000174790621, 0.4800000227987766, 0.0, 0.0, 0.0, 0.0, 0.0, 1.710394551057125E9, 0.0, 2024-03-13 22:35:51.057
25.0, -707.4263859684579, -333.836559694726, -463.06506276363507, -373.24388552783057, 0.8640000410377979, 0.3680000174790621, 0.4800000227987766, 0.0, 0.0, 0.0, 0.0, 0.0, 1.710394551057125E9, 0.0, 2024-03-13 22:35:51.057
26.0, -716.555481760297, -337.01173475710675, -453.4946587770246, -378.06461657071486, 0.8640000410377979, 0.3680000174790621, 0.4800000227987766, 0.0, 0.0, 0.0, 0.0, 0.0, 1.7103945510706725E9, 0.0, 2024-03-13 22:35:51.070
26.0, -724.985216260422, -354.3723503514193, -469.9090796825476, -390.0472560287453, 0.8640000410377979, 0.3680000174790621, 0.4800000227987766, 0.0, 0.0, 0.0, 0.0, 0.0, 1.7103945510706725E9, 0.0, 2024-03-13 22:35:51.070
27.0, -722.9731500842609, -347.8125658291392, -475.1374598206021, -393.3121886900626, 0.8640000410377979, 0.3680000174790621, 0.4800000227987766, 0.0, 0.0, 0.0, 0.0, 0.0, 1.710394551086428E9, 0.0, 2024-03-13 22:35:51.086
27.0, -726.9785829368047, -346.49612104473636, -458.0573367229663, -384.02975700004026, 0.8640000410377979, 0.3680000174790621, 0.4800000227987766, 0.0, 0.0, 0.0, 0.0, 0.0, 1.710394551086428E9, 0.0, 2024-03-13 22:35:51.086
28.0, -729.0542274122126, -349.42820260999724, -465.4997376347892, -387.18997246259823, 0.8640000410377979, 0.3680000174790621, 0.4800000227987766, 0.0, 0.0, 0.0, 0.0, 0.0, 1.7103945510871155E9, 0.0, 2024-03-13 22:35:51.087
28.0, -710.4631847324781, -342.08303909702227, -469.86046098312363, -379.44463965436444, 0.8640000410377979, 0.3680000174790621, 0.4800000227987766, 0.0, 0.0, 0.0, 0.0, 0.0, 1.7103945510871155E9, 0.0, 2024-03-13 22:35:51.087
29.0, -718.7919419337995, -339.42771012848243, -460.55184999341145, -379.55683665303513, 0.8640000410377979, 0.3680000174790621, 0.4800000227987766, 0.0, 0.0, 0.0, 0.0, 0.0, 1.7103945511007552E9, 0.0, 2024-03-13 22:35:51.100
29.0, -719.618459824007, -331.7309960196726, -449.0553975296207, -373.72633262211457, 0.8640000410377979, 0.3680000174790621, 0.4800000227987766, 0.0, 0.0, 0.0, 0.0, 0.0, 1.7103945511007552E9, 0.0, 2024-03-13 22:35:51.100
30.0, -716.5891408598982, -339.27811413025483, -470.1633928795345, -381.5614230292849, 0.8640000410377979, 0.3680000174790621, 0.4800000227987766, 0.0, 0.0, 0.0, 0.0, 0.0, 1.7103945511163971E9, 0.0, 2024-03-13 22:35:51.116
30.0, -707.6881789653562, -335.5531737743877, -459.9123271009885, -379.7213922510855, 0.8640000410377979, 0.3680000174790621, 0.4800000227987766, 0.0, 0.0, 0.0, 0.0, 0.0, 1.7103945511163971E9, 0.0, 2024-03-13 22:35:51.116
31.0, -706.8990600747056, -329.1766443499364, -454.51191156497225, -375.0165981068276, 0.8640000410377979, 0.3680000174790621, 0.4800000227987766, 0.0, 0.0, 0.0, 0.0, 0.0, 1.710394551117107E9, 0.0, 2024-03-13 22:35:51.117
31.0, -708.944785350468, -338.7283488367684, -460.7874636906199, -379.80740995006636, 0.8640000410377979, 0.3680000174790621, 0.4800000227987766, 0.0, 0.0, 0.0, 0.0, 0.0, 1.710394551117107E9, 0.0, 2024-03-13 22:35:51.117
32.0, -701.9511724333279, -327.75548236677423, -463.25579766137525, -376.688333387021, 0.8640000410377979, 0.3680000174790621, 0.4800000227987766, 0.0, 0.0, 0.0, 0.0, 0.0, 1.7103945511307943E9, 0.0, 2024-03-13 22:35:51.130
32.0, -717.9729038435034, -335.1006458797492, -453.88734827237204, -374.0853630178608, 0.8640000410377979, 0.3680000174790621, 0.4800000227987766, 0.0, 0.0, 0.0, 0.0, 0.0, 1.7103945511307943E9, 0.0, 2024-03-13 22:35:51.130
33.0, -720.7815687102266, -340.1046320204623, -459.96094580041245, -377.6008689762093, 0.8640000410377979, 0.3680000174790621, 0.4800000227987766, 0.0, 0.0, 0.0, 0.0, 0.0, 1.7103945511465347E9, 0.0, 2024-03-13 22:35:51.146
33.0, -705.0777287962846, -335.1006458797492, -463.51759065827355, -374.4518732135184, 0.8640000410377979, 0.3680000174790621, 0.4800000227987766, 0.0, 0.0, 0.0, 0.0, 0.0, 1.7103945511465347E9, 0.0, 2024-03-13 22:35:51.146
34.0, -712.3892332096584, -334.6593376849778, -452.69806008646265, -370.03505136584863, 0.8640000410377979, 0.3680000174790621, 0.4800000227987766, 0.0, 0.0, 0.0, 0.0, 0.0, 1.7103945511471052E9, 0.0, 2024-03-13 22:35:51.147
34.0, -729.8171670031734, -341.821246100124, -452.58586308779195, -377.74298517452553, 0.8640000410377979, 0.3680000174790621, 0.4800000227987766, 0.0, 0.0, 0.0, 0.0, 0.0, 1.7103945511471052E9, 0.0, 2024-03-13 22:35:51.147
35.0, -724.2484559691511, -348.8859171164222, -462.4704186706804, -380.016844347585, 0.8640000410377979, 0.3680000174790621, 0.4800000227987766, 0.0, 0.0, 0.0, 0.0, 0.0, 1.710394551160689E9, 0.0, 2024-03-13 22:35:51.160
35.0, -720.8339273096062, -346.32034574681893, -456.84186923736706, -379.2651244564913, 0.8640000410377979, 0.3680000174790621, 0.4800000227987766, 0.0, 0.0, 0.0, 0.0, 0.0, 1.710394551160689E9, 0.0, 2024-03-13 22:35:51.160
36.0, -721.4136118027382, -333.5822464977391, -446.1120962644927, -371.489872448612, 0.8640000410377979, 0.3680000174790621, 0.4800000227987766, 0.0, 0.0, 0.0, 0.0, 0.0, 1.71039455117644E9, 0.0, 2024-03-13 22:35:51.176
36.0, -712.3368746102788, -329.89096524147317, -458.0087180235423, -371.9050013436936, 0.8640000410377979, 0.3680000174790621, 0.4800000227987766, 0.0, 0.0, 0.0, 0.0, 0.0, 1.71039455117644E9, 0.0, 2024-03-13 22:35:51.176
37.0, -710.9979904261418, -332.52759471023455, -463.1585602625273, -374.73236571019515, 0.8640000410377979, 0.3680000174790621, 0.4800000227987766, 0.0, 0.0, 0.0, 0.0, 0.0, 1.7103945511773632E9, 0.0, 2024-03-13 22:35:51.177
37.0, -713.8328345925547, -338.23842194257304, -453.4983986769803, -372.0097185424529, 0.8640000410377979, 0.3680000174790621, 0.4800000227987766, 0.0, 0.0, 0.0, 0.0, 0.0, 1.7103945511773632E9, 0.0, 2024-03-13 22:35:51.177
38.0, -718.8816995327361, -335.706509672571, -458.55474341707304, -378.91731376061216, 0.8640000410377979, 0.3680000174790621, 0.4800000227987766, 0.0, 0.0, 0.0, 0.0, 0.0, 1.7103945511908188E9, 0.0, 2024-03-13 22:35:51.190
38.0, -713.2531500994228, -335.5157747748308, -472.4709111521952, -382.33184242015705, 0.8640000410377979, 0.3680000174790621, 0.4800000227987766, 0.0, 0.0, 0.0, 0.0, 0.0, 1.7103945511908188E9, 0.0, 2024-03-13 22:35:51.190
39.0, -711.4991370202042, -338.0963057442568, -460.80990309035406, -378.44608636619523, 0.8640000410377979, 0.3680000174790621, 0.4800000227987766, 0.0, 0.0, 0.0, 0.0, 0.0, 1.7103945512064273E9, 0.0, 2024-03-13 22:35:51.206
39.0, -713.0250162021257, -337.1800302551128, -455.8956745485775, -379.9794453480281, 0.8640000410377979, 0.3680000174790621, 0.4800000227987766, 0.0, 0.0, 0.0, 0.0, 0.0, 1.7103945512064273E9, 0.0, 2024-03-13 22:35:51.206
40.0, -717.5839542481117, -345.46764855692163, -474.643793026451, -390.1631929273717, 0.8640000410377979, 0.3680000174790621, 0.4800000227987766, 0.0, 0.0, 0.0, 0.0, 0.0, 1.7103945512071784E9, 0.0, 2024-03-13 22:35:51.207
40.0, -707.0299565731548, -342.6702033900656, -469.00402389327064, -385.88474737806246, 0.8640000410377979, 0.3680000174790621, 0.4800000227987766, 0.0, 0.0, 0.0, 0.0, 0.0, 1.7103945512071784E9, 0.0, 2024-03-13 22:35:51.207
41.0, -723.4443774786778, -341.05082670925185, -459.02597081148997, -382.3842010195367, 0.8640000410377979, 0.3680000174790621, 0.4800000227987766, 0.0, 0.0, 0.0, 0.0, 0.0, 1.7103945512208564E9, 0.0, 2024-03-13 22:35:51.220
41.0, -722.8572131856345, -344.13250427274033, -467.6053013098426, -389.6059478339739, 0.8640000410377979, 0.3680000174790621, 0.4800000227987766, 0.0, 0.0, 0.0, 0.0, 0.0, 1.7103945512208564E9, 0.0, 2024-03-13 22:35:51.220
42.0, -719.7156972228549, -346.30538614699617, -469.3929734886624, -387.21615176228806, 0.8640000410377979, 0.3680000174790621, 0.4800000227987766, 0.0, 0.0, 0.0, 0.0, 0.0, 1.7103945512366076E9, 0.0, 2024-03-13 22:35:51.236
42.0, -720.2168438169174, -344.3643780699931, -450.99640560662374, -375.14749460527673, 0.8640000410377979, 0.3680000174790621, 0.4800000227987766, 0.0, 0.0, 0.0, 0.0, 0.0, 1.7103945512366076E9, 0.0, 2024-03-13 22:35:51.236
43.0, -718.6947045349516, -337.63629804970697, -452.76911818562075, -373.0381910302676, 0.8640000410377979, 0.3680000174790621, 0.4800000227987766, 0.0, 0.0, 0.0, 0.0, 0.0, 1.7103945512372494E9, 0.0, 2024-03-13 22:35:51.237
43.0, -709.8535810397007, -346.1109113493003, -471.67057256167755, -383.7492645033635, 0.8640000410377979, 0.3680000174790621, 0.4800000227987766, 0.0, 0.0, 0.0, 0.0, 0.0, 1.7103945512372494E9, 0.0, 2024-03-13 22:35:51.237
44.0, -713.5747814956121, -344.5064942683093, -462.679853068199, -385.5294568822719, 0.8640000410377979, 0.3680000174790621, 0.4800000227987766, 0.0, 0.0, 0.0, 0.0, 0.0, 1.7103945512508235E9, 0.0, 2024-03-13 22:35:51.250
44.0, -718.5899873361923, -342.1802764958702, -458.88385461317375, -378.55828336486593, 0.8640000410377979, 0.3680000174790621, 0.4800000227987766, 0.0, 0.0, 0.0, 0.0, 0.0, 1.7103945512508235E9, 0.0, 2024-03-13 22:35:51.250
45.0, -719.6072401241399, -344.4877947685309, -473.14409314421937, -383.2780371089466, 0.8640000410377979, 0.3680000174790621, 0.4800000227987766, 0.0, 0.0, 0.0, 0.0, 0.0, 1.7103945512665246E9, 0.0, 2024-03-13 22:35:51.266
45.0, -704.9505721977912, -334.85755238262936, -462.44423937099054, -374.28731761546806, 0.8640000410377979, 0.3680000174790621, 0.4800000227987766, 0.0, 0.0, 0.0, 0.0, 0.0, 1.7103945512665246E9, 0.0, 2024-03-13 22:35:51.266
46.0, -710.7137580295093, -333.4700494990684, -454.36605546670035, -375.7496184981428, 0.8640000410377979, 0.3680000174790621, 0.4800000227987766, 0.0, 0.0, 0.0, 0.0, 0.0, 1.7103945512671275E9, 0.0, 2024-03-13 22:35:51.267
46.0, -702.0446699322201, -326.70457047922537, -460.81738289026543, -375.566363400314, 0.8640000410377979, 0.3680000174790621, 0.4800000227987766, 0.0, 0.0, 0.0, 0.0, 0.0, 1.7103945512671275E9, 0.0, 2024-03-13 22:35:51.267
47.0, -693.0763898384757, -328.00605566380545, -466.62544752145186, -372.70160003425553, 0.8640000410377979, 0.3680000174790621, 0.4800000227987766, 0.0, 0.0, 0.0, 0.0, 0.0, 1.7103945512809136E9, 0.0, 2024-03-13 22:35:51.280
47.0, -682.2867784663104, -309.1345204873942, -441.68405471695587, -358.01875280821696, 0.8640000410377979, 0.3680000174790621, 0.4800000227987766, 0.0, 0.0, 0.0, 0.0, 0.0, 1.7103945512809136E9, 0.0, 2024-03-13 22:35:51.280
48.0, -689.2205529841594, -312.0927813523449, -452.0099184946157, -367.4059016969986, 0.8640000410377979, 0.3680000174790621, 0.4800000227987766, 0.0, 0.0, 0.0, 0.0, 0.0, 1.7103945512964551E9, 0.0, 2024-03-13 22:35:51.296
48.0, -685.7125268257223, -316.26276980293915, -471.423739164602, -375.33074970310554, 0.8640000410377979, 0.3680000174790621, 0.4800000227987766, 0.0, 0.0, 0.0, 0.0, 0.0, 1.7103945512964551E9, 0.0, 2024-03-13 22:35:51.296
49.0, -682.0287253693677, -317.44083828898147, -447.36870264960453, -361.35474356869236, 0.8640000410377979, 0.3680000174790621, 0.4800000227987766, 0.0, 0.0, 0.0, 0.0, 0.0, 1.71039455129711E9, 0.0, 2024-03-13 22:35:51.297
49.0, -687.7245930018835, -320.690811350476, -441.87104971474037, -367.87712909141555, 0.8640000410377979, 0.3680000174790621, 0.4800000227987766, 0.0, 0.0, 0.0, 0.0, 0.0, 1.71039455129711E9, 0.0, 2024-03-13 22:35:51.297
50.0, -683.7827384485863, -312.380753648933, -460.58924899296835, -366.69906060537323, 0.8640000410377979, 0.3680000174790621, 0.4800000227987766, 0.0, 0.0, 0.0, 0.0, 0.0, 1.7103945513110838E9, 0.0, 2024-03-13 22:35:51.311
50.0, -679.2088408027776, -302.14838737016544, -451.62470879917964, -361.68759466474876, 0.8640000410377979, 0.3680000174790621, 0.4800000227987766, 0.0, 0.0, 0.0, 0.0, 0.0, 1.7103945513110838E9, 0.0, 2024-03-13 22:35:51.311
51.0, -675.3642236483283, -304.62794104078785, -436.32477808045223, -352.08727147849277, 0.8640000410377979, 0.3680000174790621, 0.4800000227987766, 0.0, 0.0, 0.0, 0.0, 0.0, 1.7103945513267794E9, 0.0, 2024-03-13 22:35:51.326
51.0, -672.630356780719, -305.3160826326348, -446.65812165802345, -352.3677639751695, 0.8640000410377979, 0.3680000174790621, 0.4800000227987766, 0.0, 0.0, 0.0, 0.0, 0.0, 1.7103945513267794E9, 0.0, 2024-03-13 22:35:51.326
52.0, -674.7321805558167, -306.22113842191175, -455.8620154489763, -357.60736381309107, 0.8640000410377979, 0.3680000174790621, 0.4800000227987766, 0.0, 0.0, 0.0, 0.0, 0.0, 1.7103945513272197E9, 0.0, 2024-03-13 22:35:51.327
52.0, -676.9424614296295, -294.2048398642801, -439.2680793455802, -353.5533122611232, 0.8640000410377979, 0.3680000174790621, 0.4800000227987766, 0.0, 0.0, 0.0, 0.0, 0.0, 1.7103945513272197E9, 0.0, 2024-03-13 22:35:51.327
53.0, -689.6431616791524, -300.6150283883326, -447.5332582476549, -359.4099955917336, 0.8640000410377979, 0.3680000174790621, 0.4800000227987766, 0.0, 0.0, 0.0, 0.0, 0.0, 1.7103945513410068E9, 0.0, 2024-03-13 22:35:51.341
53.0, -683.3788292533718, -315.71300450945273, -458.44628631835803, -365.17318142345175, 0.8640000410377979, 0.3680000174790621, 0.4800000227987766, 0.0, 0.0, 0.0, 0.0, 0.0, 1.7103945513410068E9, 0.0, 2024-03-13 22:35:51.341
54.0, -685.981799622532, -322.9908498232253, -449.8332967204042, -366.84117680368945, 0.8640000410377979, 0.3680000174790621, 0.4800000227987766, 0.0, 0.0, 0.0, 0.0, 0.0, 1.71039455135642E9, 0.0, 2024-03-13 22:35:51.356
54.0, -697.2052393895574, -322.6991376266815, -446.20933366334066, -365.83888361556455, 0.8640000410377979, 0.3680000174790621, 0.4800000227987766, 0.0, 0.0, 0.0, 0.0, 0.0, 1.71039455135642E9, 0.0, 2024-03-13 22:35:51.356
55.0, -693.0202913391404, -314.7518502208404, -462.3021231726743, -368.1277023884468, 0.8640000410377979, 0.3680000174790621, 0.4800000227987766, 0.0, 0.0, 0.0, 0.0, 0.0, 1.710394551357116E9, 0.0, 2024-03-13 22:35:51.357
55.0, -690.9857857632451, -325.3282872955315, -453.91726747201756, -370.308064062614, 0.8640000410377979, 0.3680000174790621, 0.4800000227987766, 0.0, 0.0, 0.0, 0.0, 0.0, 1.710394551357116E9, 0.0, 2024-03-13 22:35:51.357
56.0, -694.0786830266006, -330.8446397301741, -443.35578999714926, -366.665401505772, 0.8640000410377979, 0.3680000174790621, 0.4800000227987766, 0.0, 0.0, 0.0, 0.0, 0.0, 1.7103945513708403E9, 0.0, 2024-03-13 22:35:51.370
56.0, -697.2014994896017, -319.1237932690419, -454.1304417694919, -369.0925965770148, 0.8640000410377979, 0.3680000174790621, 0.4800000227987766, 0.0, 0.0, 0.0, 0.0, 0.0, 1.7103945513708403E9, 0.0, 2024-03-13 22:35:51.370
57.0, -695.0473171151243, -322.2765289316885, -456.69975303905085, -365.4948128196411, 0.8640000410377979, 0.3680000174790621, 0.4800000227987766, 0.0, 0.0, 0.0, 0.0, 0.0, 1.7103945513864152E9, 0.0, 2024-03-13 22:35:51.386
57.0, -692.8632155410014, -315.70178480958566, -438.6996145523153, -359.24543999368325, 0.8640000410377979, 0.3680000174790621, 0.4800000227987766, 0.0, 0.0, 0.0, 0.0, 0.0, 1.7103945513864152E9, 0.0, 2024-03-13 22:35:51.386
58.0, -696.498398297932, -315.7990222084336, -445.083623776678, -364.0512114367448, 0.8640000410377979, 0.3680000174790621, 0.4800000227987766, 0.0, 0.0, 0.0, 0.0, 0.0, 1.710394551387142E9, 0.0, 2024-03-13 22:35:51.387
58.0, -685.5255318279378, -315.4362519127317, -455.6862401510589, -368.0454245894216, 0.8640000410377979, 0.3680000174790621, 0.4800000227987766, 0.0, 0.0, 0.0, 0.0, 0.0, 1.710394551387142E9, 0.0, 2024-03-13 22:35:51.387
59.0, -683.3825691533275, -320.38039965415373, -444.13742908788845, -363.7931583398022, 0.8640000410377979, 0.3680000174790621, 0.4800000227987766, 0.0, 0.0, 0.0, 0.0, 0.0, 1.7103945514008465E9, 0.0, 2024-03-13 22:35:51.400
59.0, -687.8704491001554, -311.946925254073, -440.958514125552, -367.4806996961124, 0.8640000410377979, 0.3680000174790621, 0.4800000227987766, 0.0, 0.0, 0.0, 0.0, 0.0, 1.7103945514008465E9, 0.0, 2024-03-13 22:35:51.400
60.0, -680.9778134818189, -315.48113071219996, -456.99894503550604, -372.28647113917395, 0.8640000410377979, 0.3680000174790621, 0.4800000227987766, 0.0, 0.0, 0.0, 0.0, 0.0, 1.710394551416383E9, 0.0, 2024-03-13 22:35:51.416
60.0, -679.4107954003848, -314.4002996250056, -449.58646332332864, -366.9608536022715, 0.8640000410377979, 0.3680000174790621, 0.4800000227987766, 0.0, 0.0, 0.0, 0.0, 0.0, 1.710394551416383E9, 0.0, 2024-03-13 22:35:51.416
61.0, -681.0039927815087, -307.36180790839717, -439.91508203791454, -362.8245242512785, 0.8640000410377979, 0.3680000174790621, 0.4800000227987766, 0.0, 0.0, 0.0, 0.0, 0.0, 1.7103945514171236E9, 0.0, 2024-03-13 22:35:51.417
61.0, -683.2254933551885, -309.691765580792, -448.32237713830546, -358.98364699678496, 0.8640000410377979, 0.3680000174790621, 0.4800000227987766, 0.0, 0.0, 0.0, 0.0, 0.0, 1.7103945514171236E9, 0.0, 2024-03-13 22:35:51.417
62.0, -679.0929039041512, -302.3802611674182, -445.58851027069613, -351.3617308870889, 0.8480000402778387, 0.3680000174790621, 0.4800000227987766, 0.0, 0.0, 0.0, 0.0, 0.0, 1.7103945514311457E9, 0.0, 2024-03-13 22:35:51.431
62.0, -680.7122805849649, -303.66304685221985, -431.6985218352638, -346.23432804783806, 0.8480000402778387, 0.3680000174790621, 0.4800000227987766, 0.0, 0.0, 0.0, 0.0, 0.0, 1.7103945514311457E9, 0.0, 2024-03-13 22:35:51.431
63.0, -694.8229231177829, -308.7567905918695, -438.0750512597151, -352.09101137844846, 0.8480000402778387, 0.3680000174790621, 0.4800000227987766, 0.0, 0.0, 0.0, 0.0, 0.0, 1.71039455144645E9, 0.0, 2024-03-13 22:35:51.446
63.0, -682.2979981661774, -309.84884137893096, -446.73291965713724, -357.0800379193388, 0.8480000402778387, 0.3680000174790621, 0.4800000227987766, 0.0, 0.0, 0.0, 0.0, 0.0, 1.71039455144645E9, 0.0, 2024-03-13 22:35:51.446
64.0, -686.1313956207596, -322.6916578267701, -447.1630081520416, -364.73561312863603, 0.8480000402778387, 0.3680000174790621, 0.4800000227987766, 0.0, 0.0, 0.0, 0.0, 0.0, 1.7103945514471428E9, 0.0, 2024-03-13 22:35:51.447
64.0, -701.4762051389553, -327.9836162640713, -451.6060092994012, -367.61907599447295, 0.8480000402778387, 0.3680000174790621, 0.4800000227987766, 0.0, 0.0, 0.0, 0.0, 0.0, 1.7103945514471428E9, 0.0, 2024-03-13 22:35:51.447
65.0, -709.1056010485627, -329.49453584617004, -466.5431697224267, -375.1250552055426, 0.8480000402778387, 0.3680000174790621, 0.4800000227987766, 0.0, 0.0, 0.0, 0.0, 0.0, 1.7103945514610796E9, 0.0, 2024-03-13 22:35:51.461
65.0, -706.2183982827701, -331.93669051723555, -464.2094721500762, -380.3459555436857, 0.8480000402778387, 0.3680000174790621, 0.4800000227987766, 0.0, 0.0, 0.0, 0.0, 0.0, 1.7103945514610796E9, 0.0, 2024-03-13 22:35:51.461
66.0, -706.0314032849856, -324.15769860940054, -448.0119654419832, -376.73695208644494, 0.8480000402778387, 0.3680000174790621, 0.4800000227987766, 0.0, 0.0, 0.0, 0.0, 0.0, 1.7103945514766433E9, 0.0, 2024-03-13 22:35:51.476
66.0, -702.6019150256179, -330.8745589298196, -458.0423771231435, -377.3764749788679, 0.8480000402778387, 0.3680000174790621, 0.4800000227987766, 0.0, 0.0, 0.0, 0.0, 0.0, 1.7103945514766433E9, 0.0, 2024-03-13 22:35:51.476
67.0, -696.8536887937225, -329.56933384528384, -463.1735198623501, -378.1207150700502, 0.8480000402778387, 0.3680000174790621, 0.4800000227987766, 0.0, 0.0, 0.0, 0.0, 0.0, 1.7103945514771695E9, 0.0, 2024-03-13 22:35:51.477
67.0, -705.0029307971708, -332.97638270491734, -454.44085346581414, -377.25305828033015, 0.8480000402778387, 0.3680000174790621, 0.4800000227987766, 0.0, 0.0, 0.0, 0.0, 0.0, 1.7103945514771695E9, 0.0, 2024-03-13 22:35:51.477
68.0, -706.6784059773199, -332.2919810130261, -463.70084575610235, -386.3896338720806, 0.8480000402778387, 0.3680000174790621, 0.4800000227987766, 0.0, 0.0, 0.0, 0.0, 0.0, 1.710394551490848E9, 0.0, 2024-03-13 22:35:51.490
68.0, -701.4537657392211, -328.3501264597289, -471.8014690601267, -384.7552975914441, 0.8480000402778387, 0.3680000174790621, 0.4800000227987766, 0.0, 0.0, 0.0, 0.0, 0.0, 1.710394551490848E9, 0.0, 2024-03-13 22:35:51.490
69.0, -698.2524113771506, -327.2505958727561, -456.99520513555035, -378.3937277668156, 0.8480000402778387, 0.3680000174790621, 0.4800000227987766, 0.0, 0.0, 0.0, 0.0, 0.0, 1.710394551506394E9, 0.0, 2024-03-13 22:35:51.506
69.0, -698.2636310770176, -328.93355085281655, -454.18654026882723, -377.03240418294445, 0.8480000402778387, 0.3680000174790621, 0.4800000227987766, 0.0, 0.0, 0.0, 0.0, 0.0, 1.710394551506394E9, 0.0, 2024-03-13 22:35:51.506
70.0, -707.7966360640712, -334.48730228701606, -469.434112388175, -381.62500132853165, 0.8480000402778387, 0.3680000174790621, 0.4800000227987766, 0.0, 0.0, 0.0, 0.0, 0.0, 1.71039455150712E9, 0.0, 2024-03-13 22:35:51.507
