%OpenBCI Raw EXG Data
%Number of channels = 4
%Sample Rate = 200 Hz
%Board = OpenBCI_GUI$BoardGanglionBLE
Sample Index, EXG Channel 0, EXG Channel 1, EXG Channel 2, EXG Channel 3, Accel Channel 0, Accel Channel 1, Accel Channel 2, Other, Other, Other, Other, Other, Timestamp, Other, Timestamp (Formatted)
2.0, -9.450727188028395, -5.957660629414022, -11.866702559404075, 2.5206925701349974, 0.5280000250786543, 0.0, 0.0, 0.0, 0.0, 0.0, 0.0, 0.0, 1.7103911372164404E9, 0.0, 2024-03-13 21:38:57.216
2.0, -10.509118875488639, -6.645802221260965, -2.5468718698248267, 2.935821465216577, 0.5280000250786543, 0.0, 0.0, 0.0, 0.0, 0.0, 0.0, 0.0, 1.7103911372164404E9, 0.0, 2024-03-13 21:38:57.216
3.0, -13.30656404234469, -1.3201846843585372, -7.9884263053536415, -1.286525584757328, 0.5280000250786543, 0.0, 0.0, 0.0, 0.0, 0.0, 0.0, 0.0, 1.7103911372309678E9, 0.0, 2024-03-13 21:38:57.230
3.0, -4.162508650682867, 0.03739899955689907, -1.3089649844914675, 12.603462850674987, 0.5280000250786543, 0.0, 0.0, 0.0, 0.0, 0.0, 0.0, 0.0, 1.7103911372309678E9, 0.0, 2024-03-13 21:38:57.230
4.0, -4.069011151790619, 2.487033470533788, -2.3636167719960213, 10.097729880362749, 0.5280000250786543, 0.0, 0.0, 0.0, 0.0, 0.0, 0.0, 0.0, 1.7103911372317488E9, 0.0, 2024-03-13 21:38:57.231
4.0, -11.081323568709195, -7.767772207967937, -5.475213535130024, 7.173128115013242, 0.5280000250786543, 0.0, 0.0, 0.0, 0.0, 0.0, 0.0, 0.0, 1.7103911372317488E9, 0.0, 2024-03-13 21:38:57.231
5.0, -8.42973450012505, -3.870796454139054, -5.729526732116938, 17.801923789083958, 0.5280000250786543, 0.0, 0.0, 0.0, 0.0, 0.0, 0.0, 0.0, 1.7103911372451973E9, 0.0, 2024-03-13 21:38:57.245
5.0, -4.719753744080663, -1.20424778573215, -5.972620229236782, 6.45506732352078, 0.5280000250786543, 0.0, 0.0, 0.0, 0.0, 0.0, 0.0, 0.0, 1.7103911372451973E9, 0.0, 2024-03-13 21:38:57.245
6.0, 1.009772988036275, -2.82362446654588, 6.05115812830627, 5.063824540004134, 0.5280000250786543, 0.0, 0.0, 0.0, 0.0, 0.0, 0.0, 0.0, 1.7103911372606397E9, 0.0, 2024-03-13 21:38:57.260
6.0, -5.000246240757406, -1.2154674855992198, -9.23755289055407, 9.046817992813885, 0.5280000250786543, 0.0, 0.0, 0.0, 0.0, 0.0, 0.0, 0.0, 1.7103911372606397E9, 0.0, 2024-03-13 21:38:57.260
7.0, -1.4623008826747537, 8.605509798042476, 3.1938745621591806, 14.45845322869718, 0.5280000250786543, 0.0, 0.0, 0.0, 0.0, 0.0, 0.0, 0.0, 1.7103911372614388E9, 0.0, 2024-03-13 21:38:57.261
7.0, -4.02039245236665, -0.8826163895428181, 6.301731425337493, 11.380515565164387, 0.5280000250786543, 0.0, 0.0, 0.0, 0.0, 0.0, 0.0, 0.0, 1.7103911372614388E9, 0.0, 2024-03-13 21:38:57.261
8.0, -8.972019993700087, -3.466887258924544, -5.0900038396939635, 9.596583286300302, 0.5280000250786543, 0.0, 0.0, 0.0, 0.0, 0.0, 0.0, 0.0, 1.7103911372749813E9, 0.0, 2024-03-13 21:38:57.274
8.0, -3.6912812562659383, 5.202200838364661, 11.058884168975055, 20.273997659794986, 0.5280000250786543, 0.0, 0.0, 0.0, 0.0, 0.0, 0.0, 0.0, 1.7103911372749813E9, 0.0, 2024-03-13 21:38:57.274
9.0, -8.119322803802788, -2.7263870676979423, 1.7839322788640857, 14.798784124664962, 0.5280000250786543, 0.0, 0.0, 0.0, 0.0, 0.0, 0.0, 0.0, 1.710391137290743E9, 0.0, 2024-03-13 21:38:57.290
9.0, -8.564370898529887, -2.9657406648620963, -3.096637163311243, 9.338530189357698, 0.5280000250786543, 0.0, 0.0, 0.0, 0.0, 0.0, 0.0, 0.0, 1.710391137290743E9, 0.0, 2024-03-13 21:38:57.290
10.0, -6.241893026046455, 3.0405386639758945, -2.973220464773476, 9.364709489047527, 0.5280000250786543, 0.0, 0.6080000288784504, 0.0, 0.0, 0.0, 0.0, 0.0, 1.7103911372916467E9, 0.0, 2024-03-13 21:38:57.291
10.0, -5.837983830831945, 0.34033089596778154, 2.9582608649507165, 10.669934573583305, 0.5280000250786543, 0.0, 0.6080000288784504, 0.0, 0.0, 0.0, 0.0, 0.0, 1.7103911372916467E9, 0.0, 2024-03-13 21:38:57.291
11.0, -11.399215064942837, -6.3391304248943925, -5.437814535573125, 3.709980756044388, 0.5280000250786543, 0.6880000326782465, 0.6080000288784504, 0.0, 0.0, 0.0, 0.0, 0.0, 1.710391137304978E9, 0.0, 2024-03-13 21:38:57.304
11.0, -13.168187743984163, -6.511165822856128, -6.110996527597308, 13.149488244205713, 0.5280000250786543, 0.6880000326782465, 0.6080000288784504, 0.0, 0.0, 0.0, 0.0, 0.0, 1.710391137304978E9, 0.0, 2024-03-13 21:38:57.304
12.0, -13.31030394230038, -4.8095113430172205, -2.6254097688943148, 10.576437074691057, 0.5280000250786543, 0.6880000326782465, 0.6080000288784504, 0.0, 0.0, 0.0, 0.0, 0.0, 1.7103911373207135E9, 0.0, 2024-03-13 21:38:57.320
12.0, -11.096283168531954, -10.770911872386932, -2.5580915696918964, 6.43636782374233, 0.5280000250786543, 0.6880000326782465, 0.6080000288784504, 0.0, 0.0, 0.0, 0.0, 0.0, 1.7103911373207135E9, 0.0, 2024-03-13 21:38:57.320
13.0, -23.27339742425829, -14.525771427899599, -6.571004222147167, 0.845217389985919, 0.5280000250786543, 0.6880000326782465, 0.6080000288784504, 0.0, 0.0, 0.0, 0.0, 0.0, 1.7103911373214097E9, 0.0, 2024-03-13 21:38:57.321
13.0, -18.789257377386093, -7.016052316874266, -10.516598675400019, 2.81240476667881, 0.5280000250786543, 0.6880000326782465, 0.6080000288784504, 0.0, 0.0, 0.0, 0.0, 0.0, 1.7103911373214097E9, 0.0, 2024-03-13 21:38:57.321
14.0, -15.68140051420778, -5.426594835706055, -5.2919584373012185, 12.693220449611545, 0.5280000250786543, 0.6880000326782465, 0.6080000288784504, 0.0, 0.0, 0.0, 0.0, 0.0, 1.7103911373354037E9, 0.0, 2024-03-13 21:38:57.335
14.0, -23.636167719960213, -14.45471332874149, -11.313197365961969, -2.0232858760282397, 0.5280000250786543, 0.6880000326782465, 0.6080000288784504, 0.0, 0.0, 0.0, 0.0, 0.0, 1.7103911373354037E9, 0.0, 2024-03-13 21:38:57.335
15.0, -12.382808753289282, -6.309211225248873, -22.652574031613767, 9.611542886123061, 0.5280000250786543, 0.6880000326782465, 0.6080000288784504, 0.0, 0.0, 0.0, 0.0, 0.0, 1.710391137350988E9, 0.0, 2024-03-13 21:38:57.350
15.0, -15.793597512878478, 0.9948133882135153, -10.542777975089848, -1.9896267764270306, 0.5280000250786543, 0.6880000326782465, 0.6080000288784504, 0.0, 0.0, 0.0, 0.0, 0.0, 1.710391137350988E9, 0.0, 2024-03-13 21:38:57.350
16.0, -9.705040385015309, 1.4361215829849243, 5.987579829059541, 16.46677950490266, 0.5280000250786543, 0.6880000326782465, 0.6080000288784504, 0.0, 0.0, 0.0, 0.0, 0.0, 1.7103911373515196E9, 0.0, 2024-03-13 21:38:57.351
16.0, -11.881662159226835, -0.44504809472709894, -11.934020758606493, 11.073843768797815, 0.5280000250786543, 0.6880000326782465, 0.6080000288784504, 0.0, 0.0, 0.0, 0.0, 0.0, 1.7103911373515196E9, 0.0, 2024-03-13 21:38:57.351
17.0, -15.66270101442933, -2.3112581726163626, 2.745086567476392, 25.087248902767897, 0.5280000250786543, 0.6880000326782465, 0.6080000288784504, 0.0, 0.0, 0.0, 0.0, 0.0, 1.710391137365394E9, 0.0, 2024-03-13 21:38:57.365
17.0, -19.72423236630857, -7.1432089153677225, 4.450480947270989, 29.672366248443723, 0.5280000250786543, 0.6880000326782465, 0.6080000288784504, 0.0, 0.0, 0.0, 0.0, 0.0, 1.710391137365394E9, 0.0, 2024-03-13 21:38:57.365
18.0, -19.425040369853377, -8.504532499238849, -22.357121935114264, 23.871781417168677, 0.5280000250786543, 0.6880000326782465, 0.6080000288784504, 0.0, 0.0, 0.0, 0.0, 0.0, 1.7103911373805997E9, 0.0, 2024-03-13 21:38:57.380
18.0, -15.576683315448463, -1.4959599822759628, -9.600323186255991, 13.523478239774704, 0.5280000250786543, 0.6880000326782465, 0.6080000288784504, 0.0, 0.0, 0.0, 0.0, 0.0, 1.7103911373805997E9, 0.0, 2024-03-13 21:38:57.380
19.0, -13.923647535033524, -5.460253935307264, -0.684401691891253, 6.081077327951789, 0.5280000250786543, 0.6880000326782465, 0.6080000288784504, 0.0, 0.0, 0.0, 0.0, 0.0, 1.7103911373813517E9, 0.0, 2024-03-13 21:38:57.381
19.0, -20.049603662453592, -8.160461703315377, -5.834243930876255, 16.302223906852305, 0.5280000250786543, 0.6880000326782465, 0.6080000288784504, 0.0, 0.0, 0.0, 0.0, 0.0, 1.7103911373813517E9, 0.0, 2024-03-13 21:38:57.381
20.0, -14.993258922360837, 1.0396921876817942, -3.3285109605640173, 28.51673716213554, 0.5280000250786543, 0.6880000326782465, 0.6080000288784504, 0.0, 0.0, 0.0, 0.0, 0.0, 1.7103911373949437E9, 0.0, 2024-03-13 21:38:57.394
20.0, -20.199199660681188, -0.4338283948600292, 4.117629851214588, 14.996998822316527, 0.5280000250786543, 0.6880000326782465, 0.6080000288784504, 0.0, 0.0, 0.0, 0.0, 0.0, 1.7103911373949437E9, 0.0, 2024-03-13 21:38:57.394
21.0, -20.681646754965186, -6.574744122102857, -4.140069250948727, 4.686094644479454, 0.5280000250786543, 0.6880000326782465, 0.6080000288784504, 0.0, 0.0, 0.0, 0.0, 0.0, 1.710391137410632E9, 0.0, 2024-03-13 21:38:57.410
21.0, -13.729172737337649, -4.03535205218941, 1.3426240840926766, 21.624101543799043, 0.5280000250786543, 0.6880000326782465, 0.6080000288784504, 0.0, 0.0, 0.0, 0.0, 0.0, 1.710391137410632E9, 0.0, 2024-03-13 21:38:57.410
22.0, -7.113289715722203, 7.0235321167856455, 2.5206925701349974, 18.91267407592386, 0.5280000250786543, 0.6880000326782465, 0.6080000288784504, 0.0, 0.0, 0.0, 0.0, 0.0, 1.7103911374113352E9, 0.0, 2024-03-13 21:38:57.411
22.0, -15.617822214961052, 1.9896267764270306, 19.140807973220944, 21.171573649160564, 0.5280000250786543, 0.6880000326782465, 0.6080000288784504, 0.0, 0.0, 0.0, 0.0, 0.0, 1.7103911374113352E9, 0.0, 2024-03-13 21:38:57.411
23.0, -16.09278950933367, 1.2940053846687078, 6.185794526711106, 17.166140796616673, 0.5280000250786543, 0.6880000326782465, 0.6080000288784504, 0.0, 0.0, 0.0, 0.0, 0.0, 1.7103911374249537E9, 0.0, 2024-03-13 21:38:57.424
23.0, -17.831842988729477, 1.1481492863968015, 3.9530742531642318, 17.35313579440117, 0.5280000250786543, 0.6880000326782465, 0.6080000288784504, 0.0, 0.0, 0.0, 0.0, 0.0, 1.7103911374249537E9, 0.0, 2024-03-13 21:38:57.424
24.0, -16.653774502687156, -5.568711034022272, 5.62480953335762, 24.98253170400858, 0.5280000250786543, 0.6880000326782465, 0.6080000288784504, 0.0, 0.0, 0.0, 0.0, 0.0, 1.7103911374410353E9, 0.0, 2024-03-13 21:38:57.441
24.0, -17.936560187488794, -5.344317036680877, 9.140315491706133, 21.186533248983324, 0.5280000250786543, 0.6880000326782465, 0.6080000288784504, 0.0, 0.0, 0.0, 0.0, 0.0, 1.7103911374410353E9, 0.0, 2024-03-13 21:38:57.441
25.0, -9.331050389446318, 5.1311427392065525, -3.938114653341472, 24.870334705337882, 0.5280000250786543, 0.6880000326782465, 0.6080000288784504, 0.0, 0.0, 0.0, 0.0, 0.0, 1.7103911374414449E9, 0.0, 2024-03-13 21:38:57.441
25.0, -0.6470026923343539, 13.078430145047605, 10.381962276995182, 36.35556746926159, 0.5280000250786543, 0.6880000326782465, 0.6080000288784504, 0.0, 0.0, 0.0, 0.0, 0.0, 1.7103911374414449E9, 0.0, 2024-03-13 21:38:57.441
26.0, -3.62770295701921, 7.472320111468434, 7.951027305796742, 24.48886490985751, 0.5280000250786543, 0.6880000326782465, 0.6080000288784504, 0.0, 0.0, 0.0, 0.0, 0.0, 1.7103911374549575E9, 0.0, 2024-03-13 21:38:57.454
26.0, -9.454467087984085, -8.766325496137142, -6.915075018070638, 12.128495556302369, 0.5280000250786543, 0.6880000326782465, 0.6080000288784504, 0.0, 0.0, 0.0, 0.0, 0.0, 1.7103911374549575E9, 0.0, 2024-03-13 21:38:57.454
27.0, -2.5580915696918964, 2.214020773768425, 0.18699499778449535, 15.651481314562261, 0.5280000250786543, 0.6880000326782465, 0.6080000288784504, 0.0, 0.0, 0.0, 0.0, 0.0, 1.7103911374706347E9, 0.0, 2024-03-13 21:38:57.470
27.0, 0.40764909517019987, 6.081077327951789, 10.101469780318439, 20.636767955496907, 0.5280000250786543, 0.6880000326782465, 0.6080000288784504, 0.0, 0.0, 0.0, 0.0, 0.0, 1.7103911374706347E9, 0.0, 2024-03-13 21:38:57.470
28.0, -5.2246402380988, -1.1780684860423207, 5.6958676325157285, 16.631335102953017, 0.5280000250786543, 0.6880000326782465, 0.6080000288784504, 0.0, 0.0, 0.0, 0.0, 0.0, 1.710391137471302E9, 0.0, 2024-03-13 21:38:57.471
28.0, -0.09723739884793758, 9.095436692237854, 1.7914120787754655, 26.91979988105595, 0.5280000250786543, 0.6880000326782465, 0.6080000288784504, 0.0, 0.0, 0.0, 0.0, 0.0, 1.710391137471302E9, 0.0, 2024-03-13 21:38:57.471
29.0, -3.62770295701921, -4.644955744966865, -0.5946440929546952, 12.46882645227015, 0.5280000250786543, 0.6880000326782465, 0.6080000288784504, 0.0, 0.0, 0.0, 0.0, 0.0, 1.7103911374852543E9, 0.0, 2024-03-13 21:38:57.485
29.0, -7.25540591403842, -4.940407841466367, -6.290511725470424, 16.601415903307498, 0.5280000250786543, 0.6880000326782465, 0.6080000288784504, 0.0, 0.0, 0.0, 0.0, 0.0, 1.7103911374852543E9, 0.0, 2024-03-13 21:38:57.485
30.0, 5.359276636503637, 5.348056936636567, -3.388349359855056, 19.552196968346834, 0.5280000250786543, 0.6880000326782465, 0.6080000288784504, 0.0, 0.0, 0.0, 0.0, 0.0, 1.7103911375011742E9, 0.0, 2024-03-13 21:38:57.501
30.0, 1.8026317786425352, 4.155028850771487, 9.368449389003217, 22.611435132101178, 0.5280000250786543, 0.6880000326782465, 0.6080000288784504, 0.0, 0.0, 0.0, 0.0, 0.0, 1.7103911375011742E9, 0.0, 2024-03-13 21:38:57.501
31.0, 0.4749672943726182, 6.814097719267011, 7.820130807347596, 16.44808000512421, 0.5280000250786543, 0.6880000326782465, 0.6080000288784504, 0.0, 0.0, 0.0, 0.0, 0.0, 1.7103911375015543E9, 0.0, 2024-03-13 21:38:57.501
31.0, 1.0396921876817942, 3.2350134616717696, -7.109549815766513, 12.928834146820009, 0.5280000250786543, 0.6880000326782465, 0.6080000288784504, 0.0, 0.0, 0.0, 0.0, 0.0, 1.7103911375015543E9, 0.0, 2024-03-13 21:38:57.501
32.0, -0.7554597910493612, 0.725540591403842, -9.368449389003217, 10.131388979963958, 0.5280000250786543, 0.6880000326782465, 0.6080000288784504, 0.0, 0.0, 0.0, 0.0, 0.0, 1.7103911375149276E9, 0.0, 2024-03-13 21:38:57.514
32.0, -10.950427070260048, -6.062377828173339, -20.90604075230658, 10.209926879033446, 0.5280000250786543, 0.6880000326782465, 0.6080000288784504, 0.0, 0.0, 0.0, 0.0, 0.0, 1.7103911375149276E9, 0.0, 2024-03-13 21:38:57.514
33.0, -12.738099249079823, -7.461100411601365, -15.400908017531037, 5.837983830831945, 0.5280000250786543, 0.6880000326782465, 0.6080000288784504, 0.0, 0.0, 0.0, 0.0, 0.0, 1.7103911375306451E9, 0.0, 2024-03-13 21:38:57.530
33.0, -10.86066947132349, -7.4237014120444655, -12.135975356213748, 5.770665631629527, 0.5280000250786543, 0.6880000326782465, 0.6080000288784504, 0.0, 0.0, 0.0, 0.0, 0.0, 1.7103911375306451E9, 0.0, 2024-03-13 21:38:57.530
34.0, -10.011712181381881, -4.588857245631516, -17.23719889577478, 0.6208233926445246, 0.5280000250786543, 0.6880000326782465, 0.6080000288784504, 0.0, 0.0, 0.0, 0.0, 0.0, 1.7103911375313735E9, 0.0, 2024-03-13 21:38:57.531
34.0, -12.764278548769653, -11.784424760378897, -18.332989582791924, -1.002293188124895, 0.5280000250786543, 0.6880000326782465, 0.6080000288784504, 0.0, 0.0, 0.0, 0.0, 0.0, 1.7103911375313735E9, 0.0, 2024-03-13 21:38:57.531
35.0, -10.916767970658839, -9.383408988825977, -10.019191981293261, 2.5880107693374157, 0.5280000250786543, 0.6880000326782465, 0.6080000288784504, 0.0, 0.0, 0.0, 0.0, 0.0, 1.7103911375449808E9, 0.0, 2024-03-13 21:38:57.544
35.0, -13.30656404234469, -7.539638310670853, -3.2724124612286687, 5.389195836149156, 0.5280000250786543, 0.6880000326782465, 0.6080000288784504, 0.0, 0.0, 0.0, 0.0, 0.0, 1.7103911375449808E9, 0.0, 2024-03-13 21:38:57.544
36.0, -18.98373217508197, -11.967679858207703, -3.945594453252852, 7.128249315544963, 0.5280000250786543, 0.6880000326782465, 0.6080000288784504, 0.0, 0.0, 0.0, 0.0, 0.0, 1.710391137577188E9, 0.0, 2024-03-13 21:38:57.577
36.0, -13.875028835609555, -16.979145798832178, -35.04286258481443, 1.7801923789083958, 0.5280000250786543, 0.6880000326782465, 0.6080000288784504, 0.0, 0.0, 0.0, 0.0, 0.0, 1.710391137577188E9, 0.0, 2024-03-13 21:38:57.577
37.0, -6.731819920241833, -9.514305487275124, -9.544224686920643, 4.386902648024261, 0.5280000250786543, 0.6880000326782465, 0.6080000288784504, 0.0, 0.0, 0.0, 0.0, 0.0, 1.710391137577772E9, 0.0, 2024-03-13 21:38:57.577
37.0, -1.2827856848016381, -6.324170825071633, -5.142362439073622, 6.125956127420068, 0.5280000250786543, 0.6880000326782465, 0.6080000288784504, 0.0, 0.0, 0.0, 0.0, 0.0, 1.710391137577772E9, 0.0, 2024-03-13 21:38:57.577
38.0, -3.6875413563102484, -7.199307414703071, -19.67187376692891, 0.4899268941953778, 0.5280000250786543, 0.6880000326782465, 0.6080000288784504, 0.0, 0.0, 0.0, 0.0, 0.0, 1.7103911375785155E9, 0.0, 2024-03-13 21:38:57.578
38.0, 1.043432087637484, 2.8685032660141587, -11.70214696135372, 9.779838384129107, 0.5280000250786543, 0.6880000326782465, 0.6080000288784504, 0.0, 0.0, 0.0, 0.0, 0.0, 1.7103911375785155E9, 0.0, 2024-03-13 21:38:57.578
39.0, -2.8161446666345, 3.818437854759395, -2.5880107693374157, 10.183747579343617, 0.5280000250786543, 0.6880000326782465, 0.6080000288784504, 0.0, 0.0, 0.0, 0.0, 0.0, 1.710391137579253E9, 0.0, 2024-03-13 21:38:57.579
39.0, -9.087956892326474, -1.529619081877172, -9.22259329073131, 9.536744887009263, 0.5280000250786543, 0.6880000326782465, 0.6080000288784504, 0.0, 0.0, 0.0, 0.0, 0.0, 1.710391137579253E9, 0.0, 2024-03-13 21:38:57.579
40.0, -9.181454391218722, 2.42345517128706, -29.182439354248345, 10.580176974646747, 0.5280000250786543, 0.6880000326782465, 0.6080000288784504, 0.0, 0.0, 0.0, 0.0, 0.0, 1.7103911375899937E9, 0.0, 2024-03-13 21:38:57.589
40.0, -5.609849933534861, 1.3164447844028473, -16.006771810352802, 12.08735665678978, 0.5280000250786543, 0.6880000326782465, 0.6080000288784504, 0.0, 0.0, 0.0, 0.0, 0.0, 1.7103911375899937E9, 0.0, 2024-03-13 21:38:57.589
41.0, -12.203293555416167, -2.4795536706224084, 1.9410080770030618, 9.151535191573203, 0.5280000250786543, 0.6880000326782465, 0.6080000288784504, 0.0, 0.0, 0.0, 0.0, 0.0, 1.7103911376049457E9, 0.0, 2024-03-13 21:38:57.604
41.0, -12.782978048548102, -10.194967279210687, -10.325863777659833, -0.17577529791742563, 0.5280000250786543, 0.6880000326782465, 0.6080000288784504, 0.0, 0.0, 0.0, 0.0, 0.0, 1.7103911376049457E9, 0.0, 2024-03-13 21:38:57.604
42.0, -14.166741032153368, -6.971173517405987, 0.6582223922014236, 4.652435544878244, 0.5280000250786543, 0.6880000326782465, 0.6080000288784504, 0.0, 0.0, 0.0, 0.0, 0.0, 1.7103911376209888E9, 0.0, 2024-03-13 21:38:57.620
42.0, -17.805663689039648, -9.353489789180458, 5.325617536902428, 3.339730660431087, 0.5280000250786543, 0.6880000326782465, 0.6080000288784504, 0.0, 0.0, 0.0, 0.0, 0.0, 1.7103911376209888E9, 0.0, 2024-03-13 21:38:57.620
43.0, -23.834382417611778, -19.589595967903733, -8.47461329959333, -4.315844548866153, 0.5280000250786543, 0.6880000326782465, 0.6080000288784504, 0.0, 0.0, 0.0, 0.0, 0.0, 1.710391137621421E9, 0.0, 2024-03-13 21:38:57.621
43.0, -19.114628673531115, -11.582470162771642, -8.900961894541979, -0.5310657937079668, 0.5280000250786543, 0.6880000326782465, 0.6080000288784504, 0.0, 0.0, 0.0, 0.0, 0.0, 1.710391137621421E9, 0.0, 2024-03-13 21:38:57.621
44.0, -25.30042320024222, -15.939453611150384, -22.58151593245566, 2.086864175274968, 0.5280000250786543, 0.6880000326782465, 0.6080000288784504, 0.0, 0.0, 0.0, 0.0, 0.0, 1.710391137635224E9, 0.0, 2024-03-13 21:38:57.635
44.0, -29.74342434760183, -18.217052684165537, -18.673320478759706, -0.8003385905176401, 0.5280000250786543, 0.6880000326782465, 0.6080000288784504, 0.0, 0.0, 0.0, 0.0, 0.0, 1.710391137635224E9, 0.0, 2024-03-13 21:38:57.635
45.0, -18.16469408478588, -12.842816447839141, -12.218253155238926, 3.1228164630010724, 0.5280000250786543, 0.6880000326782465, 0.6080000288784504, 0.0, 0.0, 0.0, 0.0, 0.0, 1.7103911376506648E9, 0.0, 2024-03-13 21:38:57.650
45.0, -22.360861835069954, -12.218253155238926, -15.068056921474636, -1.3987225834280252, 0.5280000250786543, 0.6880000326782465, 0.6080000288784504, 0.0, 0.0, 0.0, 0.0, 0.0, 1.7103911376506648E9, 0.0, 2024-03-13 21:38:57.650
46.0, -26.22791838925332, -18.613482079468668, -11.208480167202652, -1.1444093864411116, 0.5280000250786543, 0.6880000326782465, 0.6080000288784504, 0.0, 0.0, 0.0, 0.0, 0.0, 1.7103911376514752E9, 0.0, 2024-03-13 21:38:57.651
46.0, -21.654020743444562, -17.046463998034596, -9.383408988825977, -3.062978063710034, 0.5280000250786543, 0.6880000326782465, 0.6080000288784504, 0.0, 0.0, 0.0, 0.0, 0.0, 1.7103911376514752E9, 0.0, 2024-03-13 21:38:57.651
47.0, -21.186533248983324, -12.326710253953934, -1.1818083859980106, 4.454220847226679, 0.5280000250786543, 0.6880000326782465, 0.6080000288784504, 0.0, 0.0, 0.0, 0.0, 0.0, 1.7103911376649632E9, 0.0, 2024-03-13 21:38:57.664
47.0, -27.31248937640339, -14.428534029051661, 0.12341669853776693, 4.472920347005129, 0.5280000250786543, 0.6880000326782465, 0.6080000288784504, 0.0, 0.0, 0.0, 0.0, 0.0, 1.7103911376649632E9, 0.0, 2024-03-13 21:38:57.664
48.0, -29.141300454735756, -19.799030365422368, -12.259392054751515, -8.283878401853144, 0.5280000250786543, 0.6880000326782465, 0.6080000288784504, 0.0, 0.0, 0.0, 0.0, 0.0, 1.710391137680644E9, 0.0, 2024-03-13 21:38:57.680
48.0, -22.345902235247195, -17.73086568992585, -1.0696113873273134, 2.5543516697362065, 0.5280000250786543, 0.6880000326782465, 0.6080000288784504, 0.0, 0.0, 0.0, 0.0, 0.0, 1.710391137680644E9, 0.0, 2024-03-13 21:38:57.680
49.0, -26.59068868495524, -12.259392054751515, -6.7804386196658015, 6.567264322191477, 0.5280000250786543, 0.6880000326782465, 0.6080000288784504, 0.0, 0.0, 0.0, 0.0, 0.0, 1.7103911376815193E9, 0.0, 2024-03-13 21:38:57.681
49.0, -25.7529510948807, -16.765971501357853, -8.093143504112959, 1.525879181921482, 0.5280000250786543, 0.6880000326782465, 0.6080000288784504, 0.0, 0.0, 0.0, 0.0, 0.0, 1.7103911376815193E9, 0.0, 2024-03-13 21:38:57.681
50.0, -19.74293186608702, -12.663301249966025, -15.958153110928833, -2.2663793731480837, 0.5280000250786543, 0.6880000326782465, 0.6080000288784504, 0.0, 0.0, 0.0, 0.0, 0.0, 1.7103911376949835E9, 0.0, 2024-03-13 21:38:57.694
50.0, -24.387887611053884, -13.721692937426269, -9.68260098528117, -2.730126967653632, 0.5280000250786543, 0.6880000326782465, 0.6080000288784504, 0.0, 0.0, 0.0, 0.0, 0.0, 1.7103911376949835E9, 0.0, 2024-03-13 21:38:57.694
51.0, -25.831488993950188, -17.065163497813046, -25.4200999988243, -10.793351272121072, 0.5280000250786543, 0.6880000326782465, 0.6080000288784504, 0.0, 0.0, 0.0, 0.0, 0.0, 1.7103911377106533E9, 0.0, 2024-03-13 21:38:57.710
51.0, -17.34565599448979, -11.515151963569224, -26.9758983803913, -11.313197365961969, 0.5280000250786543, 0.6880000326782465, 0.6080000288784504, 0.0, 0.0, 0.0, 0.0, 0.0, 1.7103911377106533E9, 0.0, 2024-03-13 21:38:57.710
52.0, -16.317183506675065, -6.694420920684934, -11.025225069373846, -3.298591760918498, 0.5280000250786543, 0.6880000326782465, 0.6080000288784504, 0.0, 0.0, 0.0, 0.0, 0.0, 1.7103911377114031E9, 0.0, 2024-03-13 21:38:57.711
52.0, -24.48512500990182, -13.616975738666952, -14.667887626215816, -5.23585993796587, 0.5280000250786543, 0.6880000326782465, 0.6080000288784504, 0.0, 0.0, 0.0, 0.0, 0.0, 1.7103911377114031E9, 0.0, 2024-03-13 21:38:57.711
53.0, -30.323108840733767, -15.494405516423285, -27.084355479106307, -6.084817227907479, 0.5280000250786543, 0.6880000326782465, 0.6080000288784504, 0.0, 0.0, 0.0, 0.0, 0.0, 1.710391137725005E9, 0.0, 2024-03-13 21:38:57.725
53.0, -22.222485536709428, -13.28786454256624, -23.467872221954167, -12.360369353555143, 0.5280000250786543, 0.6880000326782465, 0.6080000288784504, 0.0, 0.0, 0.0, 0.0, 0.0, 1.710391137725005E9, 0.0, 2024-03-13 21:38:57.725
54.0, -29.066502455621958, -18.14225468505174, -25.083509002812207, -6.481246623210609, 0.5280000250786543, 0.6880000326782465, 0.6080000288784504, 0.0, 0.0, 0.0, 0.0, 0.0, 1.7103911377411115E9, 0.0, 2024-03-13 21:38:57.741
54.0, -33.662839501164854, -26.62060788460076, -36.28824927005917, -10.112689480185509, 0.5280000250786543, 0.6880000326782465, 0.6080000288784504, 0.0, 0.0, 0.0, 0.0, 0.0, 1.7103911377411115E9, 0.0, 2024-03-13 21:38:57.741
55.0, -29.982777944765985, -21.927033440209925, -50.36897260323167, -10.561477474868298, 0.5280000250786543, 0.6880000326782465, 0.6080000288784504, 0.0, 0.0, 0.0, 0.0, 0.0, 1.7103911377414377E9, 0.0, 2024-03-13 21:38:57.741
55.0, -30.22961134184152, -18.303070383146405, -17.024024598300457, -1.009772988036275, 0.5280000250786543, 0.6880000326782465, 0.6080000288784504, 0.0, 0.0, 0.0, 0.0, 0.0, 1.7103911377414377E9, 0.0, 2024-03-13 21:38:57.741
56.0, -34.50057709123939, -20.08700266201049, -32.72786451224238, -5.441554435528815, 0.5280000250786543, 0.6880000326782465, 0.6080000288784504, 0.0, 0.0, 0.0, 0.0, 0.0, 1.7103911377549684E9, 0.0, 2024-03-13 21:38:57.754
56.0, -22.042970338836312, -15.408387817442417, -35.31961518153548, -8.762585596181452, 0.5280000250786543, 0.6880000326782465, 0.6080000288784504, 0.0, 0.0, 0.0, 0.0, 0.0, 1.7103911377549684E9, 0.0, 2024-03-13 21:38:57.754
57.0, -15.30741051863879, -6.537345122545958, -27.136714078485966, -1.7427933793514967, 0.5280000250786543, 0.6880000326782465, 0.6080000288784504, 0.0, 0.0, 0.0, 0.0, 0.0, 1.710391137770656E9, 0.0, 2024-03-13 21:38:57.770
57.0, -26.022223891690373, -11.997599057853222, -19.095929173752666, -3.4706271588802338, 0.5280000250786543, 0.6880000326782465, 0.6080000288784504, 0.0, 0.0, 0.0, 0.0, 0.0, 1.710391137770656E9, 0.0, 2024-03-13 21:38:57.770
58.0, -28.041769867762923, -20.427333557978272, -18.310550183057785, -16.257345107384026, 0.5280000250786543, 0.6880000326782465, 0.6080000288784504, 0.0, 0.0, 0.0, 0.0, 0.0, 1.710391137771379E9, 0.0, 2024-03-13 21:38:57.771
58.0, -21.833535941317677, -15.550504015758634, -25.666933395899832, -6.634582521393895, 0.5280000250786543, 0.6880000326782465, 0.6080000288784504, 0.0, 0.0, 0.0, 0.0, 0.0, 1.710391137771379E9, 0.0, 2024-03-13 21:38:57.771
59.0, -32.746564012020826, -16.07782990951091, -13.579576739110053, -2.659068868495524, 0.5280000250786543, 0.6880000326782465, 0.6080000288784504, 0.0, 0.0, 0.0, 0.0, 0.0, 1.7103911377854624E9, 0.0, 2024-03-13 21:38:57.785
59.0, -34.30236239358783, -23.482831821776927, -15.180253920145333, -8.758845696225762, 0.5280000250786543, 0.6880000326782465, 0.6080000288784504, 0.0, 0.0, 0.0, 0.0, 0.0, 1.7103911377854624E9, 0.0, 2024-03-13 21:38:57.785
60.0, -20.831242753192782, -12.225732955150306, -27.918353169225156, -5.037645240314305, 0.5280000250786543, 0.6880000326782465, 0.6080000288784504, 0.0, 0.0, 0.0, 0.0, 0.0, 1.7103911378009198E9, 0.0, 2024-03-13 21:38:57.800
60.0, -23.647387419827282, -6.503686022944748, -18.15347438491881, -4.921708341687918, 0.5280000250786543, 0.6880000326782465, 0.6080000288784504, 0.0, 0.0, 0.0, 0.0, 0.0, 1.7103911378009198E9, 0.0, 2024-03-13 21:38:57.800
61.0, -28.91690645739436, -16.96418619900942, -37.53363595530391, 2.449634470976889, 0.5280000250786543, 0.6880000326782465, 0.6080000288784504, 0.0, 0.0, 0.0, 0.0, 0.0, 1.7103911378014193E9, 0.0, 2024-03-13 21:38:57.801
61.0, -21.078076150268316, -13.198106943629682, -37.8328279517591, -16.014251610264182, 0.5280000250786543, 0.6880000326782465, 0.6080000288784504, 0.0, 0.0, 0.0, 0.0, 0.0, 1.7103911378014193E9, 0.0, 2024-03-13 21:38:57.801
62.0, -12.408988052979112, -7.678014609031379, -15.935713711194694, 3.0068795643746853, 0.5280000250786543, 0.6880000326782465, 0.6080000288784504, 0.0, 0.0, 0.0, 0.0, 0.0, 1.710391137814995E9, 0.0, 2024-03-13 21:38:57.814
62.0, -17.77200458943844, -0.4300884949043393, 2.3149980725720525, 15.752458613365889, 0.5280000250786543, 0.6880000326782465, 0.6080000288784504, 0.0, 0.0, 0.0, 0.0, 0.0, 1.710391137814995E9, 0.0, 2024-03-13 21:38:57.814
63.0, -24.94139280449599, -15.120415520854294, -10.355782977305353, -3.8333974545821548, 0.5280000250786543, 0.6880000326782465, 0.6080000288784504, 0.0, 0.0, 0.0, 0.0, 0.0, 1.7103911378313787E9, 0.0, 2024-03-13 21:38:57.831
63.0, -23.954059216193855, -9.503085787408054, -20.677906855009496, -6.593443621881306, 0.5280000250786543, 0.6880000326782465, 0.6080000288784504, 0.0, 0.0, 0.0, 0.0, 0.0, 1.7103911378313787E9, 0.0, 2024-03-13 21:38:57.831
64.0, -29.159999954514205, -9.465686787851155, -16.291004206985235, -7.962247005663812, 0.5280000250786543, 0.6880000326782465, 0.6080000288784504, 0.0, 0.0, 0.0, 0.0, 0.0, 1.7103911378456523E9, 0.0, 2024-03-13 21:38:57.845
64.0, -28.479338162578642, -16.006771810352802, -18.680800278671086, -12.779238148592412, 0.5280000250786543, 0.6880000326782465, 0.6080000288784504, 0.0, 0.0, 0.0, 0.0, 0.0, 1.7103911378456523E9, 0.0, 2024-03-13 21:38:57.845
65.0, -13.66933433804661, -7.853789906948805, -15.984332410618663, -2.6291496688500047, 0.5280000250786543, 0.6880000326782465, 0.6080000288784504, 0.0, 0.0, 0.0, 0.0, 0.0, 1.710391137846428E9, 0.0, 2024-03-13 21:38:57.846
65.0, -14.929680623114109, -4.0839707516133785, -8.47461329959333, -7.087110416032374, 0.5280000250786543, 0.6880000326782465, 0.6080000288784504, 0.0, 0.0, 0.0, 0.0, 0.0, 1.710391137846428E9, 0.0, 2024-03-13 21:38:57.846
66.0, -15.382208517752588, 0.13463639840483665, -13.127048844471574, 9.27869179006666, 0.5280000250786543, 0.6880000326782465, 0.6080000288784504, 0.0, 0.0, 0.0, 0.0, 0.0, 1.7103911378607595E9, 0.0, 2024-03-13 21:38:57.860
66.0, -3.055498263798654, 2.5057329703122377, -14.4883724283427, 8.747625996358693, 0.5280000250786543, 0.6880000326782465, 0.6080000288784504, 0.0, 0.0, 0.0, 0.0, 0.0, 1.7103911378607595E9, 0.0, 2024-03-13 21:38:57.860
67.0, -7.902408606372774, -0.8414774900302291, -5.980100029148161, -0.45626779459416866, 0.5280000250786543, 0.6880000326782465, 0.6080000288784504, 0.0, 0.0, 0.0, 0.0, 0.0, 1.7103911378614187E9, 0.0, 2024-03-13 21:38:57.861
67.0, -18.96503267530352, -5.579930733889341, -8.407295100390911, 3.0068795643746853, 0.5280000250786543, 0.6880000326782465, 0.6080000288784504, 0.0, 0.0, 0.0, 0.0, 0.0, 1.7103911378614187E9, 0.0, 2024-03-13 21:38:57.861
68.0, -10.606356274336576, -1.365063483826816, -13.934867234900594, 5.718307032249868, 0.5280000250786543, 0.6880000326782465, 0.6080000288784504, 0.0, 0.0, 0.0, 0.0, 0.0, 1.7103911378749526E9, 0.0, 2024-03-13 21:38:57.874
68.0, -8.160461703315377, -1.9784070765599608, -15.415867617353797, 5.905302030034363, 0.5280000250786543, 0.6880000326782465, 0.6080000288784504, 0.0, 0.0, 0.0, 0.0, 0.0, 1.7103911378749526E9, 0.0, 2024-03-13 21:38:57.874
69.0, -8.986979593522847, -4.173728350549936, -6.211973826400936, 4.222347049973905, 0.5280000250786543, 0.6880000326782465, 0.6080000288784504, 0.0, 0.0, 0.0, 0.0, 0.0, 1.710391137890623E9, 0.0, 2024-03-13 21:38:57.890
69.0, -19.3801615703851, -11.077583668753505, -10.991565969772637, 3.61648325715214, 0.5280000250786543, 0.6880000326782465, 0.6080000288784504, 0.0, 0.0, 0.0, 0.0, 0.0, 1.710391137890623E9, 0.0, 2024-03-13 21:38:57.890
70.0, -13.448680240660906, -2.4795536706224084, -24.294390112161636, -3.463147358968854, 0.5280000250786543, 0.6880000326782465, 0.6080000288784504, 0.0, 0.0, 0.0, 0.0, 0.0, 1.7103911378913743E9, 0.0, 2024-03-13 21:38:57.891
70.0, -17.876721788197756, -13.153228144161403, -12.121015756390989, -5.063824540004134, 0.5280000250786543, 0.6880000326782465, 0.6080000288784504, 0.0, 0.0, 0.0, 0.0, 0.0, 1.7103911378913743E9, 0.0, 2024-03-13 21:38:57.891
71.0, -22.48053863365203, -15.183993820101023, -11.126202368177474, -4.233566749840975, 0.5280000250786543, 0.6880000326782465, 0.6080000288784504, 0.0, 0.0, 0.0, 0.0, 0.0, 1.7103911379049623E9, 0.0, 2024-03-13 21:38:57.904
71.0, -16.762231601402164, -12.566063851118088, -20.247818360105157, -13.242985743097961, 0.5280000250786543, 0.6880000326782465, 0.6080000288784504, 0.0, 0.0, 0.0, 0.0, 0.0, 1.7103911379049623E9, 0.0, 2024-03-13 21:38:57.904
72.0, -13.70299343764782, -7.558337810449302, -10.666194673627615, -0.28423239663243294, 0.5280000250786543, 0.6880000326782465, 0.6080000288784504, 0.0, 0.0, 0.0, 0.0, 0.0, 1.710391137920623E9, 0.0, 2024-03-13 21:38:57.920
72.0, -17.629888391122222, -9.402108488604426, -13.26168524287641, 3.777298955246806, 0.5280000250786543, 0.6880000326782465, 0.6080000288784504, 0.0, 0.0, 0.0, 0.0, 0.0, 1.710391137920623E9, 0.0, 2024-03-13 21:38:57.920
73.0, -23.479091921821237, -16.410681005567312, -17.895421287976205, -1.0583916874602437, 0.5280000250786543, 0.6880000326782465, 0.6080000288784504, 0.0, 0.0, 0.0, 0.0, 0.0, 1.7103911379213765E9, 0.0, 2024-03-13 21:38:57.921
73.0, -13.65437473822385, -5.995059628970921, -17.158660996705294, 2.9993997644633055, 0.5280000250786543, 0.6880000326782465, 0.6080000288784504, 0.0, 0.0, 0.0, 0.0, 0.0, 1.7103911379213765E9, 0.0, 2024-03-13 21:38:57.921
74.0, -19.36146207060665, -6.795398219488561, -3.384609459899366, 5.314397837035358, 0.5280000250786543, 0.6880000326782465, 0.6080000288784504, 0.0, 0.0, 0.0, 0.0, 0.0, 1.710391137935268E9, 0.0, 2024-03-13 21:38:57.935
74.0, -27.03573677968234, -9.783578284084797, -17.23719889577478, -0.7105809915810823, 0.5280000250786543, 0.6880000326782465, 0.6080000288784504, 0.0, 0.0, 0.0, 0.0, 0.0, 1.710391137935268E9, 0.0, 2024-03-13 21:38:57.935
75.0, -14.379915329627693, -8.0781839042902, -18.89023467618972, -1.1930280858650804, 0.5280000250786543, 0.6880000326782465, 0.6080000288784504, 0.0, 0.0, 0.0, 0.0, 0.0, 1.710391137950634E9, 0.0, 2024-03-13 21:38:57.950
75.0, -22.315983035601676, -3.059238163754344, -5.314397837035358, -5.2096806382760406, 0.5280000250786543, 0.6880000326782465, 0.6080000288784504, 0.0, 0.0, 0.0, 0.0, 0.0, 1.710391137950634E9, 0.0, 2024-03-13 21:38:57.950
76.0, -24.256991112604737, -7.883709106594324, -8.45965369977057, -2.0345055758953094, 0.5280000250786543, 0.6880000326782465, 0.6080000288784504, 0.0, 0.0, 0.0, 0.0, 0.0, 1.7103911379514012E9, 0.0, 2024-03-13 21:38:57.951
76.0, -23.894220816902816, -9.757398984394968, -14.798784124664962, -3.3584301602095366, 0.5280000250786543, 0.6880000326782465, 0.6080000288784504, 0.0, 0.0, 0.0, 0.0, 0.0, 1.7103911379514012E9, 0.0, 2024-03-13 21:38:57.951
77.0, -13.542177739553154, -5.8940823301672935, -4.102670251391828, 0.684401691891253, 0.5280000250786543, 0.6880000326782465, 0.6080000288784504, 0.0, 0.0, 0.0, 0.0, 0.0, 1.71039113796525E9, 0.0, 2024-03-13 21:38:57.965
77.0, -24.88155440520495, -14.735205825418234, -10.393181976862252, 3.3696498600766063, 0.5280000250786543, 0.6880000326782465, 0.6080000288784504, 0.0, 0.0, 0.0, 0.0, 0.0, 1.71039113796525E9, 0.0, 2024-03-13 21:38:57.965
78.0, -20.034644062630832, -11.881662159226835, -20.18050016090274, 5.187241238541901, 0.5280000250786543, 0.6880000326782465, 0.6080000288784504, 0.0, 0.0, 0.0, 0.0, 0.0, 1.710391137980651E9, 0.0, 2024-03-13 21:38:57.980
78.0, -8.216560202650726, -3.3247710606083274, -2.539392069913447, 8.115582903847098, 0.5280000250786543, 0.6880000326782465, 0.6080000288784504, 0.0, 0.0, 0.0, 0.0, 0.0, 1.710391137980651E9, 0.0, 2024-03-13 21:38:57.980
79.0, -20.662947255186737, -2.2813389729708433, 0.22065409738570452, 9.23755289055407, 0.5280000250786543, 0.6880000326782465, 0.6080000288784504, 0.0, 0.0, 0.0, 0.0, 0.0, 1.7103911379813943E9, 0.0, 2024-03-13 21:38:57.981
79.0, -18.407787581905723, -4.629996145144105, -13.833889936096966, 3.137776062823832, 0.5280000250786543, 0.6880000326782465, 0.6080000288784504, 0.0, 0.0, 0.0, 0.0, 0.0, 1.7103911379813943E9, 0.0, 2024-03-13 21:38:57.981
80.0, -12.49126585200429, 0.4712273944169283, -6.283031925559044, 7.117029615677893, 0.5280000250786543, 0.6880000326782465, 0.6080000288784504, 0.0, 0.0, 0.0, 0.0, 0.0, 1.7103911379949954E9, 0.0, 2024-03-13 21:38:57.994
80.0, -14.641708326525986, -0.2730126967653632, -1.0546517875045538, 9.144055391661823, 0.5280000250786543, 0.6880000326782465, 0.6080000288784504, 0.0, 0.0, 0.0, 0.0, 0.0, 1.7103911379949954E9, 0.0, 2024-03-13 21:38:57.994
81.0, -14.783824524842203, 0.2692727968096733, -1.7128741797059774, 13.29908424243331, 0.5280000250786543, 0.6880000326782465, 0.6080000288784504, 0.0, 0.0, 0.0, 0.0, 0.0, 1.7103911380106373E9, 0.0, 2024-03-13 21:38:58.010
81.0, -0.14211619831621647, 7.150688715279102, -13.998445534147322, 13.863809135742486, 0.5280000250786543, 0.6880000326782465, 0.6080000288784504, 0.0, 0.0, 0.0, 0.0, 0.0, 1.7103911380106373E9, 0.0, 2024-03-13 21:38:58.010
82.0, -0.8152981903403997, 9.25625239033252, -0.3253712961450219, 11.515151963569224, 0.5280000250786543, 0.6880000326782465, 0.6080000288784504, 0.0, 0.0, 0.0, 0.0, 0.0, 1.710391138011413E9, 0.0, 2024-03-13 21:38:58.011
82.0, -4.641215845011175, 6.690681020729244, 3.508026158437133, 18.06745668593794, 0.5280000250786543, 0.6880000326782465, 0.6080000288784504, 0.0, 0.0, 0.0, 0.0, 0.0, 1.710391138011413E9, 0.0, 2024-03-13 21:38:58.011
83.0, -1.6792150801047683, 9.132835691794753, -13.837629836052656, 17.386794894002378, 0.5280000250786543, 0.6880000326782465, 0.6080000288784504, 0.0, 0.0, 0.0, 0.0, 0.0, 1.710391138024968E9, 0.0, 2024-03-13 21:38:58.024
83.0, 10.172527879476547, 14.163001132197678, -6.159615227021277, 20.89108115248382, 0.5280000250786543, 0.6880000326782465, 0.6080000288784504, 0.0, 0.0, 0.0, 0.0, 0.0, 1.710391138024968E9, 0.0, 2024-03-13 21:38:58.024
84.0, 7.2666256139054894, 17.32695649471134, 8.657868397422135, 17.895421287976205, 0.5280000250786543, 0.6880000326782465, 0.6080000288784504, 0.0, 0.0, 0.0, 0.0, 0.0, 1.7103911380406313E9, 0.0, 2024-03-13 21:38:58.040
84.0, 2.771265867166221, 11.354336265474558, -6.683201220817864, 16.317183506675065, 0.5280000250786543, 0.6880000326782465, 0.6080000288784504, 0.0, 0.0, 0.0, 0.0, 0.0, 1.7103911380406313E9, 0.0, 2024-03-13 21:38:58.040
85.0, 10.08277028053999, 12.87273564748466, -6.5784840220585465, 19.65317426715046, 0.5280000250786543, 0.6880000326782465, 0.6080000288784504, 0.0, 0.0, 0.0, 0.0, 0.0, 1.7103911380413647E9, 0.0, 2024-03-13 21:38:58.041
85.0, 5.550011534243822, 20.277737559750676, 5.288218537345529, 13.564617139287293, 0.5280000250786543, 0.6880000326782465, 0.6080000288784504, 0.0, 0.0, 0.0, 0.0, 0.0, 1.7103911380413647E9, 0.0, 2024-03-13 21:38:58.041
86.0, -1.9933666763827205, 13.568357039242983, -6.877676018513739, 11.574990362860262, 0.5280000250786543, 0.6880000326782465, 0.6080000288784504, 0.0, 0.0, 0.0, 0.0, 0.0, 1.7103911380549796E9, 0.0, 2024-03-13 21:38:58.054
86.0, 7.565817610360682, 8.646648697555065, -8.953320493921638, 17.487772192806005, 0.5280000250786543, 0.6880000326782465, 0.6080000288784504, 0.0, 0.0, 0.0, 0.0, 0.0, 1.7103911380549796E9, 0.0, 2024-03-13 21:38:58.054
87.0, 8.280138501897454, 11.122462468221784, 3.2836321610957384, 17.629888391122222, 0.5280000250786543, 0.6880000326782465, 0.6080000288784504, 0.0, 0.0, 0.0, 0.0, 0.0, 1.7103911380706263E9, 0.0, 2024-03-13 21:38:58.070
87.0, 7.24792611412704, 13.048510945402086, 7.599476709961891, 22.338422435335815, 0.5280000250786543, 0.6880000326782465, 0.6080000288784504, 0.0, 0.0, 0.0, 0.0, 0.0, 1.7103911380706263E9, 0.0, 2024-03-13 21:38:58.070
88.0, 1.6605155803263187, 8.897221994586289, -11.156121567822993, 17.457852993160486, 0.5280000250786543, 0.6880000326782465, 0.6080000288784504, 0.0, 0.0, 0.0, 0.0, 0.0, 1.7103911380714076E9, 0.0, 2024-03-13 21:38:58.071
88.0, 10.740992672741413, 17.981438986957073, 7.939807605929673, 23.6773066194728, 0.5280000250786543, 0.6880000326782465, 0.6080000288784504, 0.0, 0.0, 0.0, 0.0, 0.0, 1.7103911380714076E9, 0.0, 2024-03-13 21:38:58.071
89.0, -2.1205232748761773, 8.242739502340555, 13.486079240217805, 11.451573664322495, 0.5280000250786543, 0.6880000326782465, 0.6080000288784504, 0.0, 0.0, 0.0, 0.0, 0.0, 1.7103911380849988E9, 0.0, 2024-03-13 21:38:58.084
89.0, -5.751966131851077, -2.7563062673434615, -7.741592908278108, 11.313197365961969, 0.5280000250786543, 0.6880000326782465, 0.6080000288784504, 0.0, 0.0, 0.0, 0.0, 0.0, 1.7103911380849988E9, 0.0, 2024-03-13 21:38:58.084
90.0, 9.936914182268083, 15.565463615581393, -8.699007296934724, 21.885894540697336, 0.5280000250786543, 0.6880000326782465, 0.6080000288784504, 0.0, 0.0, 0.0, 0.0, 0.0, 1.7103911381008177E9, 0.0, 2024-03-13 21:38:58.100
90.0, 4.644955744966865, 14.776344724930823, 15.632781814783812, 29.171219654381275, 0.5280000250786543, 0.6880000326782465, 0.6080000288784504, 0.0, 0.0, 0.0, 0.0, 0.0, 1.7103911381008177E9, 0.0, 2024-03-13 21:38:58.100
91.0, -3.6800615563988686, 6.630842621438205, 11.167341267690063, 27.615421272814274, 0.5280000250786543, 0.6880000326782465, 0.6080000288784504, 0.0, 0.0, 0.0, 0.0, 0.0, 1.7103911381016636E9, 0.0, 2024-03-13 21:38:58.101
91.0, 4.069011151790619, 16.86320890020579, -11.417914564721286, 20.760184654034674, 0.5280000250786543, 0.6880000326782465, 0.6080000288784504, 0.0, 0.0, 0.0, 0.0, 0.0, 1.7103911381016636E9, 0.0, 2024-03-13 21:38:58.101
92.0, 4.760892643593252, 10.778391672298312, 5.669688332825899, 18.781777577474713, 0.5280000250786543, 0.6880000326782465, 0.6080000288784504, 0.0, 0.0, 0.0, 0.0, 0.0, 1.7103911381152318E9, 0.0, 2024-03-13 21:38:58.115
92.0, -2.6366294687613845, 5.770665631629527, 3.4818468587473035, 20.99205845128745, 0.5280000250786543, 0.6880000326782465, 0.6080000288784504, 0.0, 0.0, 0.0, 0.0, 0.0, 1.7103911381152318E9, 0.0, 2024-03-13 21:38:58.115
93.0, -5.138622539117932, 2.1541823744773865, -7.517198910936713, 21.69515964295715, 0.5280000250786543, 0.6880000326782465, 0.6080000288784504, 0.0, 0.0, 0.0, 0.0, 0.0, 1.7103911381310349E9, 0.0, 2024-03-13 21:38:58.131
93.0, 2.9246017653495073, 7.341423613019288, 0.9499345887452364, 24.399107310920954, 0.5280000250786543, 0.6880000326782465, 0.6080000288784504, 0.0, 0.0, 0.0, 0.0, 0.0, 1.7103911381310349E9, 0.0, 2024-03-13 21:38:58.131
94.0, 0.1533358981832862, 9.043078092858195, 4.723493644036353, 17.065163497813046, 0.5280000250786543, 0.6880000326782465, 0.6080000288784504, 0.0, 0.0, 0.0, 0.0, 0.0, 1.710391138131894E9, 0.0, 2024-03-13 21:38:58.131
94.0, -6.690681020729244, 3.8446171544492245, -7.206787214614451, 11.028964969329536, 0.5280000250786543, 0.6880000326782465, 0.6080000288784504, 0.0, 0.0, 0.0, 0.0, 0.0, 1.710391138131894E9, 0.0, 2024-03-13 21:38:58.131
95.0, 8.02582530491054, 8.171681403182447, -4.072751051746309, 23.572589420713484, 0.5280000250786543, 0.6880000326782465, 0.6080000288784504, 0.0, 0.0, 0.0, 0.0, 0.0, 1.710391138144974E9, 0.0, 2024-03-13 21:38:58.144
95.0, 5.804324731230736, 5.407895335927606, 4.184948050417006, 14.10690263286233, 0.5280000250786543, 0.6880000326782465, 0.6080000288784504, 0.0, 0.0, 0.0, 0.0, 0.0, 1.710391138144974E9, 0.0, 2024-03-13 21:38:58.144
96.0, 3.1265563629567623, 6.230673326179385, 5.026425540447235, 9.188934191130102, 0.5280000250786543, 0.6880000326782465, 0.6080000288784504, 0.0, 0.0, 0.0, 0.0, 0.0, 1.710391138192721E9, 0.0, 2024-03-13 21:38:58.192
96.0, 8.957060393877327, 15.890834911726415, -11.634828762151301, 15.587903015315533, 0.5280000250786543, 0.6880000326782465, 0.6080000288784504, 0.0, 0.0, 0.0, 0.0, 0.0, 1.710391138192721E9, 0.0, 2024-03-13 21:38:58.192
97.0, 6.911335118114948, 12.341669853776693, 2.3860561717301607, 9.66016158554703, 0.5280000250786543, 0.6880000326782465, 0.6080000288784504, 0.0, 0.0, 0.0, 0.0, 0.0, 1.7103911381934981E9, 0.0, 2024-03-13 21:38:58.193
97.0, 2.943301265127957, 14.753905325196683, 7.079630616120994, 14.45845322869718, 0.5280000250786543, 0.6880000326782465, 0.6080000288784504, 0.0, 0.0, 0.0, 0.0, 0.0, 1.7103911381934981E9, 0.0, 2024-03-13 21:38:58.193
98.0, 8.811204295605421, 14.604309326969087, -2.01954597607255, 13.800230836495757, 0.5280000250786543, 0.6880000326782465, 0.6080000288784504, 0.0, 0.0, 0.0, 0.0, 0.0, 1.710391138194173E9, 0.0, 2024-03-13 21:38:58.194
98.0, 12.558584051206708, 13.990965734235942, -15.875875311903656, 12.319230454042554, 0.5280000250786543, 0.6880000326782465, 0.6080000288784504, 0.0, 0.0, 0.0, 0.0, 0.0, 1.710391138194173E9, 0.0, 2024-03-13 21:38:58.194
99.0, -2.8423239663243294, 6.006279328837991, -0.927495189011097, 14.226579431444407, 0.5280000250786543, 0.6880000326782465, 0.6080000288784504, 0.0, 0.0, 0.0, 0.0, 0.0, 1.710391138194915E9, 0.0, 2024-03-13 21:38:58.194
99.0, -10.49415927566588, -0.8938360894098878, -17.031504398211837, 8.190380902960896, 0.5280000250786543, 0.6880000326782465, 0.6080000288784504, 0.0, 0.0, 0.0, 0.0, 0.0, 1.710391138194915E9, 0.0, 2024-03-13 21:38:58.194
100.0, 3.22005386184901, 2.4458945710211992, -27.518183873966336, 8.227779902517796, 0.5280000250786543, 0.6880000326782465, 0.6080000288784504, 0.0, 0.0, 0.0, 0.0, 0.0, 1.7103911382227E9, 0.0, 2024-03-13 21:38:58.222
100.0, -3.62396305706352, 2.6029703691601753, -16.650034602731466, 5.015205840580165, 0.5280000250786543, 0.6880000326782465, 0.6080000288784504, 0.0, 0.0, 0.0, 0.0, 0.0, 1.7103911382227E9, 0.0, 2024-03-13 21:38:58.222
0.0, 217.729495620355, 111.23210448212922, -36.53134276717901, 100.43875321000814, 0.5280000250786543, 0.6880000326782465, 0.6080000288784504, 0.0, 0.0, 0.0, 0.0, 0.0, 1.7103911382234511E9, 0.0, 2024-03-13 21:38:58.223
1.0, 227.01192731037736, 121.30365506280214, -43.10982678923756, 100.46493250969797, 0.5280000250786543, 0.6880000326782465, 0.6080000288784504, 0.0, 0.0, 0.0, 0.0, 0.0, 1.7103911382241633E9, 0.0, 2024-03-13 21:38:58.224
1.0, 234.24489382468164, 124.84908022079617, -30.97011153306812, 111.56121567822993, 0.5280000250786543, 0.6880000326782465, 0.6080000288784504, 0.0, 0.0, 0.0, 0.0, 0.0, 1.7103911382241633E9, 0.0, 2024-03-13 21:38:58.224
2.0, 222.19119626749307, 119.6842783819884, -22.611435132101178, 108.02701022010297, 0.5280000250786543, 0.6880000326782465, 0.6080000288784504, 0.0, 0.0, 0.0, 0.0, 0.0, 1.7103911382249138E9, 0.0, 2024-03-13 21:38:58.224
2.0, 228.10023819748312, 122.14887245278805, -30.842954934574664, 104.85931495763361, 0.5280000250786543, 0.6880000326782465, 0.6080000288784504, 0.0, 0.0, 0.0, 0.0, 0.0, 1.7103911382249138E9, 0.0, 2024-03-13 21:38:58.224
3.0, 236.06622510310262, 121.95813755504787, -32.06964212004095, 103.70742577128112, 0.5280000250786543, 0.6880000326782465, 0.6080000288784504, 0.0, 0.0, 0.0, 0.0, 0.0, 1.710391138235659E9, 0.0, 2024-03-13 21:38:58.235
3.0, 229.80189267732203, 123.70841073431075, -31.976144621148705, 109.90070009790361, 0.5280000250786543, 0.6880000326782465, 0.6080000288784504, 0.0, 0.0, 0.0, 0.0, 0.0, 1.710391138235659E9, 0.0, 2024-03-13 21:38:58.235
4.0, 229.63359717931598, 119.51224298402667, -32.14818001911044, 105.94762584473938, 0.5280000250786543, 0.6880000326782465, 0.6080000288784504, 0.0, 0.0, 0.0, 0.0, 0.0, 1.7103911382364085E9, 0.0, 2024-03-13 21:38:58.236
4.0, 237.4873870862648, 122.32464775070548, -40.32734122220427, 109.01060390844941, 0.5280000250786543, 0.6880000326782465, 0.6080000288784504, 0.0, 0.0, 0.0, 0.0, 0.0, 1.7103911382364085E9, 0.0, 2024-03-13 21:38:58.236
5.0, 229.79067297745496, 121.62528645899147, -28.61397456098348, 113.08709486015141, 0.5280000250786543, 0.6880000326782465, 0.6080000288784504, 0.0, 0.0, 0.0, 0.0, 0.0, 1.7103911382503557E9, 0.0, 2024-03-13 21:38:58.250
5.0, 227.8908037999645, 121.21015756390989, -25.221885301172733, 113.72661775257438, 0.5280000250786543, 0.6880000326782465, 0.6080000288784504, 0.0, 0.0, 0.0, 0.0, 0.0, 1.7103911382503557E9, 0.0, 2024-03-13 21:38:58.250
6.0, 239.84726395830512, 130.69828375149518, -19.103408973664045, 120.18168507609516, 0.5280000250786543, 0.6880000326782465, 0.6080000288784504, 0.0, 0.0, 0.0, 0.0, 0.0, 1.7103911382659981E9, 0.0, 2024-03-13 21:38:58.265
6.0, 242.55121162626892, 137.51986127067357, -7.943547505885363, 120.36868007387966, 0.5280000250786543, 0.6880000326782465, 0.6080000288784504, 0.0, 0.0, 0.0, 0.0, 0.0, 1.7103911382659981E9, 0.0, 2024-03-13 21:38:58.265
7.0, 235.5987376086414, 130.86657924950123, -15.367248917929828, 121.60284705925733, 0.5280000250786543, 0.6880000326782465, 0.6080000288784504, 0.0, 0.0, 0.0, 0.0, 0.0, 1.7103911382664676E9, 0.0, 2024-03-13 21:38:58.266
7.0, 236.66086919605732, 126.60683319997042, -17.454113093204796, 117.62733340635896, 0.5280000250786543, 0.6880000326782465, 0.6080000288784504, 0.0, 0.0, 0.0, 0.0, 0.0, 1.7103911382664676E9, 0.0, 2024-03-13 21:38:58.266
8.0, 240.50922625046223, 133.41719101928174, -22.304763335734606, 119.23549038730562, 0.5280000250786543, 0.6880000326782465, 0.6080000288784504, 0.0, 0.0, 0.0, 0.0, 0.0, 1.710391138279906E9, 0.0, 2024-03-13 21:38:58.279
8.0, 230.09360487386584, 128.8358135735616, -15.786117712967098, 122.37326645012945, 0.5280000250786543, 0.6880000326782465, 0.6080000288784504, 0.0, 0.0, 0.0, 0.0, 0.0, 1.710391138279906E9, 0.0, 2024-03-13 21:38:58.279
9.0, 227.0755056096241, 124.66956502292305, -18.46388608124107, 119.93111177906394, 0.5280000250786543, 0.6880000326782465, 0.6080000288784504, 0.0, 0.0, 0.0, 0.0, 0.0, 1.7103911382956572E9, 0.0, 2024-03-13 21:38:58.295
9.0, 230.67702926695347, 124.3180144270882, -31.74053092394024, 115.4619313320145, 0.5280000250786543, 0.6880000326782465, 0.6080000288784504, 0.0, 0.0, 0.0, 0.0, 0.0, 1.7103911382956572E9, 0.0, 2024-03-13 21:38:58.295
10.0, 220.59799888636917, 116.49040381982923, -20.763924553990364, 107.86993442196399, 0.5280000250786543, 0.6880000326782465, 0.6240000296384096, 0.0, 0.0, 0.0, 0.0, 0.0, 1.710391138296394E9, 0.0, 2024-03-13 21:38:58.296
10.0, 223.57121935114264, 123.81312793307006, -22.832089229486883, 108.29628301691264, 0.5280000250786543, 0.6880000326782465, 0.6240000296384096, 0.0, 0.0, 0.0, 0.0, 0.0, 1.710391138296394E9, 0.0, 2024-03-13 21:38:58.296
11.0, 228.08527859766036, 122.18627145234495, -29.249757553450763, 108.4570987150073, 0.5280000250786543, 0.6880000326782465, 0.6240000296384096, 0.0, 0.0, 0.0, 0.0, 0.0, 1.710391138309986E9, 0.0, 2024-03-13 21:38:58.309
11.0, 234.5216464214027, 122.5415619481355, -30.783116535283625, 109.34345500450581, 0.5280000250786543, 0.6880000326782465, 0.6240000296384096, 0.0, 0.0, 0.0, 0.0, 0.0, 1.710391138309986E9, 0.0, 2024-03-13 21:38:58.309
12.0, 229.49896078091115, 124.88647922035307, -20.801323553547263, 111.7182914763689, 0.5280000250786543, 0.6880000326782465, 0.6240000296384096, 0.0, 0.0, 0.0, 0.0, 0.0, 1.7103911383256865E9, 0.0, 2024-03-13 21:38:58.325
12.0, 229.27082688361406, 124.08614062983543, -43.77178908139467, 110.85437458660454, 0.5280000250786543, 0.6880000326782465, 0.6240000296384096, 0.0, 0.0, 0.0, 0.0, 0.0, 1.7103911383256865E9, 0.0, 2024-03-13 21:38:58.325
13.0, 236.19338170159608, 127.44083089008927, -23.28461712412536, 100.20687941275537, 0.5280000250786543, 0.6880000326782465, 0.6240000296384096, 0.0, 0.0, 0.0, 0.0, 0.0, 1.7103911383263803E9, 0.0, 2024-03-13 21:38:58.326
13.0, 228.49666759278625, 122.47424374893308, -21.74377834238112, 112.27927646972239, 0.5280000250786543, 0.6880000326782465, 0.6240000296384096, 0.0, 0.0, 0.0, 0.0, 0.0, 1.7103911383263803E9, 0.0, 2024-03-13 21:38:58.326
14.0, 218.802846907638, 118.77174279280007, -27.548103073611856, 114.05946884863079, 0.5280000250786543, 0.6880000326782465, 0.6240000296384096, 0.0, 0.0, 0.0, 0.0, 0.0, 1.7103911383399448E9, 0.0, 2024-03-13 21:38:58.339
14.0, 238.111950378865, 129.434197566472, -20.98083875142038, 122.32464775070548, 0.5280000250786543, 0.6880000326782465, 0.6240000296384096, 0.0, 0.0, 0.0, 0.0, 0.0, 1.7103911383399448E9, 0.0, 2024-03-13 21:38:58.339
15.0, 225.10083843301982, 118.71938419342041, -19.817729865200818, 118.52116949576885, 0.5280000250786543, 0.6880000326782465, 0.6240000296384096, 0.0, 0.0, 0.0, 0.0, 0.0, 1.7103911383556578E9, 0.0, 2024-03-13 21:38:58.355
15.0, 214.59171955753118, 115.9069794267416, -34.466917991638184, 108.92832610942423, 0.5280000250786543, 0.6880000326782465, 0.6240000296384096, 0.0, 0.0, 0.0, 0.0, 0.0, 1.7103911383556578E9, 0.0, 2024-03-13 21:38:58.355
16.0, 223.94146944675595, 119.00361659005284, -37.230704058893025, 110.0914349956438, 0.5280000250786543, 0.6880000326782465, 0.6240000296384096, 0.0, 0.0, 0.0, 0.0, 0.0, 1.710391138356347E9, 0.0, 2024-03-13 21:38:58.356
16.0, 233.8858634289354, 130.66088475193828, -26.59816848486662, 123.26710253953934, 0.5280000250786543, 0.6880000326782465, 0.6240000296384096, 0.0, 0.0, 0.0, 0.0, 0.0, 1.710391138356347E9, 0.0, 2024-03-13 21:38:58.356
17.0, 221.68256987351924, 122.39944574981928, -20.704086154699326, 117.56749500706792, 0.5280000250786543, 0.6880000326782465, 0.6240000296384096, 0.0, 0.0, 0.0, 0.0, 0.0, 1.7103911383701985E9, 0.0, 2024-03-13 21:38:58.370
17.0, 224.4800150403753, 114.50451694335788, -45.36498646251857, 111.48641767911613, 0.5280000250786543, 0.6880000326782465, 0.6240000296384096, 0.0, 0.0, 0.0, 0.0, 0.0, 1.7103911383701985E9, 0.0, 2024-03-13 21:38:58.370
18.0, 235.46036131028086, 127.07058079447597, -26.818822582252324, 118.88393979147077, 0.5280000250786543, 0.6880000326782465, 0.6240000296384096, 0.0, 0.0, 0.0, 0.0, 0.0, 1.710391138385786E9, 0.0, 2024-03-13 21:38:58.385
18.0, 226.57809891551733, 127.021962095052, -22.09158903826028, 113.13197365961969, 0.5280000250786543, 0.6880000326782465, 0.6240000296384096, 0.0, 0.0, 0.0, 0.0, 0.0, 1.710391138385786E9, 0.0, 2024-03-13 21:38:58.385
19.0, 222.59884536266327, 119.0933741889894, -23.875521317124367, 104.19361276552081, 0.5280000250786543, 0.6880000326782465, 0.6240000296384096, 0.0, 0.0, 0.0, 0.0, 0.0, 1.7103911383863642E9, 0.0, 2024-03-13 21:38:58.386
19.0, 231.39509005844593, 120.30136187467724, -31.553535926155746, 110.71599828824401, 0.5280000250786543, 0.6880000326782465, 0.6240000296384096, 0.0, 0.0, 0.0, 0.0, 0.0, 1.7103911383863642E9, 0.0, 2024-03-13 21:38:58.386
20.0, 217.89779111836106, 119.52346268389374, -40.069288125261664, 108.68523261230439, 0.5280000250786543, 0.6880000326782465, 0.6240000296384096, 0.0, 0.0, 0.0, 0.0, 0.0, 1.7103911384003484E9, 0.0, 2024-03-13 21:38:58.400
20.0, 212.66567108035088, 110.73843768797815, -30.712058436125517, 105.61103484872729, 0.5280000250786543, 0.6880000326782465, 0.6240000296384096, 0.0, 0.0, 0.0, 0.0, 0.0, 1.7103911384003484E9, 0.0, 2024-03-13 21:38:58.400
21.0, 215.79222744330764, 105.21834535337985, -42.70965749397874, 97.55155044421554, 0.5280000250786543, 0.6880000326782465, 0.6240000296384096, 0.0, 0.0, 0.0, 0.0, 0.0, 1.7103911384159667E9, 0.0, 2024-03-13 21:38:58.415
21.0, 219.01228130515665, 105.36046155169606, -31.706871824339032, 101.08201600238681, 0.5280000250786543, 0.6880000326782465, 0.6240000296384096, 0.0, 0.0, 0.0, 0.0, 0.0, 1.7103911384159667E9, 0.0, 2024-03-13 21:38:58.415
22.0, 213.1406383747235, 103.10904177837074, -40.28994222264737, 102.61163508426398, 0.5280000250786543, 0.6880000326782465, 0.6240000296384096, 0.0, 0.0, 0.0, 0.0, 0.0, 1.7103911384164124E9, 0.0, 2024-03-13 21:38:58.416
22.0, 219.0309808049351, 104.7882568584755, -37.76176985260099, 92.26333190687001, 0.5280000250786543, 0.6880000326782465, 0.6240000296384096, 0.0, 0.0, 0.0, 0.0, 0.0, 1.7103911384164124E9, 0.0, 2024-03-13 21:38:58.416
23.0, 226.847371712327, 113.10953425988555, -26.57946898508817, 103.01554427947849, 0.5280000250786543, 0.6880000326782465, 0.6240000296384096, 0.0, 0.0, 0.0, 0.0, 0.0, 1.7103911384301565E9, 0.0, 2024-03-13 21:38:58.430
23.0, 218.5148746110499, 110.38314719218761, -24.9750519040972, 101.4560059979558, 0.5280000250786543, 0.6880000326782465, 0.6240000296384096, 0.0, 0.0, 0.0, 0.0, 0.0, 1.7103911384301565E9, 0.0, 2024-03-13 21:38:58.430
24.0, 213.56324706971645, 106.71430533565581, -34.833428187295794, 99.81792981736362, 0.5280000250786543, 0.6880000326782465, 0.6240000296384096, 0.0, 0.0, 0.0, 0.0, 0.0, 1.710391138445661E9, 0.0, 2024-03-13 21:38:58.445
24.0, 223.02145405765623, 111.77438997570425, -42.56006149575114, 102.937006380409, 0.5280000250786543, 0.6880000326782465, 0.6240000296384096, 0.0, 0.0, 0.0, 0.0, 0.0, 1.710391138445661E9, 0.0, 2024-03-13 21:38:58.445
25.0, 214.46456295903772, 101.59438229631633, -26.59068868495524, 99.50377822108567, 0.5280000250786543, 0.6880000326782465, 0.6240000296384096, 0.0, 0.0, 0.0, 0.0, 0.0, 1.710391138446381E9, 0.0, 2024-03-13 21:38:58.446
25.0, 211.29312779661268, 97.13268164917827, -32.21549821831286, 90.7449325248599, 0.5280000250786543, 0.6880000326782465, 0.6240000296384096, 0.0, 0.0, 0.0, 0.0, 0.0, 1.710391138446381E9, 0.0, 2024-03-13 21:38:58.446
26.0, 214.53936095815152, 97.21495944820344, -58.974482401274145, 93.14968819636852, 0.5280000250786543, 0.6880000326782465, 0.6240000296384096, 0.0, 0.0, 0.0, 0.0, 0.0, 1.7103911384599707E9, 0.0, 2024-03-13 21:38:58.459
26.0, 222.29965336620808, 104.59378206077963, -27.630380872637033, 100.01614451501518, 0.5280000250786543, 0.6880000326782465, 0.6240000296384096, 0.0, 0.0, 0.0, 0.0, 0.0, 1.7103911384599707E9, 0.0, 2024-03-13 21:38:58.459
27.0, 209.0230085235089, 106.7928432347253, -25.061069603078067, 101.17551350127906, 0.5280000250786543, 0.6880000326782465, 0.6240000296384096, 0.0, 0.0, 0.0, 0.0, 0.0, 1.7103911384756896E9, 0.0, 2024-03-13 21:38:58.475
27.0, 221.05426668096334, 115.58160813059658, -34.69131198897958, 104.13751426618546, 0.5280000250786543, 0.6880000326782465, 0.6240000296384096, 0.0, 0.0, 0.0, 0.0, 0.0, 1.7103911384756896E9, 0.0, 2024-03-13 21:38:58.475
28.0, 232.3001458477229, 117.48521720804274, -26.63182758446783, 108.32994211651385, 0.5280000250786543, 0.6880000326782465, 0.6240000296384096, 0.0, 0.0, 0.0, 0.0, 0.0, 1.7103911384763784E9, 0.0, 2024-03-13 21:38:58.476
28.0, 227.48689460474998, 122.35830685030669, -16.765971501357853, 114.37362044490874, 0.5280000250786543, 0.6880000326782465, 0.6240000296384096, 0.0, 0.0, 0.0, 0.0, 0.0, 1.7103911384763784E9, 0.0, 2024-03-13 21:38:58.476
29.0, 221.12158488016576, 111.1273872833699, -32.21923811826855, 102.6789532834664, 0.5280000250786543, 0.6880000326782465, 0.6240000296384096, 0.0, 0.0, 0.0, 0.0, 0.0, 1.710391138490284E9, 0.0, 2024-03-13 21:38:58.490
29.0, 228.9978141868487, 117.44407830853015, -33.05697570834309, 99.84036921709776, 0.5280000250786543, 0.6880000326782465, 0.6240000296384096, 0.0, 0.0, 0.0, 0.0, 0.0, 1.710391138490284E9, 0.0, 2024-03-13 21:38:58.490
30.0, 225.56458602752537, 119.29158888664097, -20.202939560636878, 107.83253542240709, 0.5280000250786543, 0.6880000326782465, 0.6240000296384096, 0.0, 0.0, 0.0, 0.0, 0.0, 1.7103911385056703E9, 0.0, 2024-03-13 21:38:58.505
30.0, 212.78908777888864, 105.99250464420766, -31.78166982345283, 97.86570204049349, 0.5280000250786543, 0.6880000326782465, 0.6240000296384096, 0.0, 0.0, 0.0, 0.0, 0.0, 1.7103911385056703E9, 0.0, 2024-03-13 21:38:58.505
31.0, 218.68691000901163, 110.10265469551086, -46.37475945055485, 110.28216989338398, 0.5280000250786543, 0.6880000326782465, 0.6240000296384096, 0.0, 0.0, 0.0, 0.0, 0.0, 1.7103911385064E9, 0.0, 2024-03-13 21:38:58.506
31.0, 226.93338941130787, 117.60115410666913, -31.190765630453825, 109.41451310366392, 0.5280000250786543, 0.6880000326782465, 0.6240000296384096, 0.0, 0.0, 0.0, 0.0, 0.0, 1.7103911385064E9, 0.0, 2024-03-13 21:38:58.506
32.0, 220.56059988681227, 113.719137952663, -33.647879901342094, 111.28072318155318, 0.5280000250786543, 0.6880000326782465, 0.6240000296384096, 0.0, 0.0, 0.0, 0.0, 0.0, 1.710391138519988E9, 0.0, 2024-03-13 21:38:58.519
32.0, 220.98320858180523, 111.7930894754827, -26.355074987746775, 102.9033472808078, 0.5280000250786543, 0.6880000326782465, 0.6240000296384096, 0.0, 0.0, 0.0, 0.0, 0.0, 1.710391138519988E9, 0.0, 2024-03-13 21:38:58.519
33.0, 228.90057678800076, 116.82699481584132, -35.10644088406116, 108.88718720991164, 0.5280000250786543, 0.6880000326782465, 0.6240000296384096, 0.0, 0.0, 0.0, 0.0, 0.0, 1.7103911385358598E9, 0.0, 2024-03-13 21:38:58.535
33.0, 217.15355102717876, 103.84954196959734, -38.28161594644189, 104.35068856365979, 0.5280000250786543, 0.6880000326782465, 0.6240000296384096, 0.0, 0.0, 0.0, 0.0, 0.0, 1.7103911385358598E9, 0.0, 2024-03-13 21:38:58.535
34.0, 211.16597119811922, 98.89417452830821, -50.152058405801654, 92.88041539955884, 0.5280000250786543, 0.6880000326782465, 0.6240000296384096, 0.0, 0.0, 0.0, 0.0, 0.0, 1.7103911385364087E9, 0.0, 2024-03-13 21:38:58.536
34.0, 224.48375494033098, 107.54456312581897, -44.25049627572298, 93.4900190923363, 0.5280000250786543, 0.6880000326782465, 0.6240000296384096, 0.0, 0.0, 0.0, 0.0, 0.0, 1.7103911385364087E9, 0.0, 2024-03-13 21:38:58.536
35.0, 227.5205537043512, 111.86040767468512, -34.08544819615781, 99.78053081780672, 0.5280000250786543, 0.6880000326782465, 0.6240000296384096, 0.0, 0.0, 0.0, 0.0, 0.0, 1.7103911385499609E9, 0.0, 2024-03-13 21:38:58.549
35.0, 224.35659834183753, 109.56036920193583, -47.335913739167154, 96.17152736056596, 0.5280000250786543, 0.6880000326782465, 0.6240000296384096, 0.0, 0.0, 0.0, 0.0, 0.0, 1.7103911385499609E9, 0.0, 2024-03-13 21:38:58.549
36.0, 231.01736016292125, 119.97225067857653, -49.88278560899198, 97.14390134904534, 0.5280000250786543, 0.6880000326782465, 0.6240000296384096, 0.0, 0.0, 0.0, 0.0, 0.0, 1.7103911385824132E9, 0.0, 2024-03-13 21:38:58.582
36.0, 236.95258139260113, 123.80564813315868, -35.50287027936429, 98.269611235708, 0.5280000250786543, 0.6880000326782465, 0.6240000296384096, 0.0, 0.0, 0.0, 0.0, 0.0, 1.7103911385824132E9, 0.0, 2024-03-13 21:38:58.582
37.0, 223.41788345295936, 118.06116180121899, -35.89181987475604, 93.55733729153872, 0.5280000250786543, 0.6880000326782465, 0.6240000296384096, 0.0, 0.0, 0.0, 0.0, 0.0, 1.7103911385831437E9, 0.0, 2024-03-13 21:38:58.583
37.0, 230.20206197258085, 117.70213140547276, -56.45378983113915, 97.30845694709569, 0.5280000250786543, 0.6880000326782465, 0.6240000296384096, 0.0, 0.0, 0.0, 0.0, 0.0, 1.7103911385831437E9, 0.0, 2024-03-13 21:38:58.583
38.0, 235.9615079043433, 125.53348191268742, -31.145886830985546, 103.55034997314215, 0.5280000250786543, 0.6880000326782465, 0.6240000296384096, 0.0, 0.0, 0.0, 0.0, 0.0, 1.7103911385836513E9, 0.0, 2024-03-13 21:38:58.583
38.0, 225.15319703239948, 117.82180820405483, -33.3860869044438, 101.35502869915217, 0.5280000250786543, 0.6880000326782465, 0.6240000296384096, 0.0, 0.0, 0.0, 0.0, 0.0, 1.7103911385836513E9, 0.0, 2024-03-13 21:38:58.583
39.0, 218.70934940874577, 113.49100405536592, -36.33312806952745, 99.77305101789534, 0.5280000250786543, 0.6880000326782465, 0.6240000296384096, 0.0, 0.0, 0.0, 0.0, 0.0, 1.7103911385844057E9, 0.0, 2024-03-13 21:38:58.584
39.0, 231.31655215937644, 119.42996518500149, -23.479091921821237, 101.31388979963958, 0.5280000250786543, 0.6880000326782465, 0.6240000296384096, 0.0, 0.0, 0.0, 0.0, 0.0, 1.7103911385844057E9, 0.0, 2024-03-13 21:38:58.584
40.0, 222.46046906430274, 116.88309331517667, -19.32406307104975, 100.70428610686213, 0.5280000250786543, 0.6880000326782465, 0.6080000288784504, 0.0, 0.0, 0.0, 0.0, 0.0, 1.7103911385951035E9, 0.0, 2024-03-13 21:38:58.595
40.0, 219.97343559376895, 114.72517104074359, -41.78590220492333, 101.2353519005701, 0.5280000250786543, 0.6880000326782465, 0.6080000288784504, 0.0, 0.0, 0.0, 0.0, 0.0, 1.7103911385951035E9, 0.0, 2024-03-13 21:38:58.595
41.0, 221.59281227458268, 114.99070393759757, -39.17545203585178, 97.1177220493555, 0.5280000250786543, 0.6880000326782465, 0.6080000288784504, 0.0, 0.0, 0.0, 0.0, 0.0, 1.710391138610006E9, 0.0, 2024-03-13 21:38:58.610
41.0, 219.9883951935917, 117.54879550728947, -38.54714884329587, 97.98163893911988, 0.5280000250786543, 0.6880000326782465, 0.6080000288784504, 0.0, 0.0, 0.0, 0.0, 0.0, 1.710391138610006E9, 0.0, 2024-03-13 21:38:58.610
42.0, 211.9850092884153, 113.51718335505575, -32.70916501246393, 99.14848772529513, 0.5280000250786543, 0.6880000326782465, 0.6080000288784504, 0.0, 0.0, 0.0, 0.0, 0.0, 1.7103911386420095E9, 0.0, 2024-03-13 21:38:58.642
42.0, 224.91010353527963, 111.44527877960354, -35.52156977914274, 96.16030766069889, 0.5280000250786543, 0.6880000326782465, 0.6080000288784504, 0.0, 0.0, 0.0, 0.0, 0.0, 1.7103911386420095E9, 0.0, 2024-03-13 21:38:58.642
43.0, 235.08263141475618, 114.47085784375668, -33.37486720457673, 98.43416683375835, 0.5280000250786543, 0.6880000326782465, 0.6080000288784504, 0.0, 0.0, 0.0, 0.0, 0.0, 1.7103911386427028E9, 0.0, 2024-03-13 21:38:58.642
43.0, 220.25018819049, 113.98841074947268, -32.52964981459081, 96.33608295861632, 0.5280000250786543, 0.6880000326782465, 0.6080000288784504, 0.0, 0.0, 0.0, 0.0, 0.0, 1.7103911386427028E9, 0.0, 2024-03-13 21:38:58.642
44.0, 226.12183112092316, 111.6060944776982, -45.41734506189823, 90.45322032831609, 0.5280000250786543, 0.6880000326782465, 0.6080000288784504, 0.0, 0.0, 0.0, 0.0, 0.0, 1.7103911386434848E9, 0.0, 2024-03-13 21:38:58.643
44.0, 239.79864525888115, 123.47653693705797, -26.52337048575282, 102.83976898156106, 0.5280000250786543, 0.6880000326782465, 0.6080000288784504, 0.0, 0.0, 0.0, 0.0, 0.0, 1.7103911386434848E9, 0.0, 2024-03-13 21:38:58.643
45.0, 227.04932630993426, 121.66642535850406, -25.468718698248267, 100.4948517093435, 0.5280000250786543, 0.6880000326782465, 0.6080000288784504, 0.0, 0.0, 0.0, 0.0, 0.0, 1.7103911386442406E9, 0.0, 2024-03-13 21:38:58.644
45.0, 224.1060250448063, 117.7619698047638, -29.137560554780066, 104.3469486637041, 0.5280000250786543, 0.6880000326782465, 0.6080000288784504, 0.0, 0.0, 0.0, 0.0, 0.0, 1.7103911386442406E9, 0.0, 2024-03-13 21:38:58.644
46.0, 237.77161948289722, 117.61985360644758, -52.470796378329396, 97.12894174922258, 0.5280000250786543, 0.6880000326782465, 0.6080000288784504, 0.0, 0.0, 0.0, 0.0, 0.0, 1.710391138655022E9, 0.0, 2024-03-13 21:38:58.655
46.0, 239.45831436291337, 124.2058174284175, -40.37595992162824, 98.28457083553076, 0.5280000250786543, 0.6880000326782465, 0.6080000288784504, 0.0, 0.0, 0.0, 0.0, 0.0, 1.710391138655022E9, 0.0, 2024-03-13 21:38:58.655
47.0, 230.39279687032104, 124.0973603297025, -34.444478591904044, 100.10964201390743, 0.5280000250786543, 0.6880000326782465, 0.6080000288784504, 0.0, 0.0, 0.0, 0.0, 0.0, 1.7103911386700668E9, 0.0, 2024-03-13 21:38:58.670
47.0, 230.80418586544693, 115.7199844289571, -53.17763746995479, 89.12181594409049, 0.5280000250786543, 0.6880000326782465, 0.6080000288784504, 0.0, 0.0, 0.0, 0.0, 0.0, 1.7103911386700668E9, 0.0, 2024-03-13 21:38:58.670
48.0, 243.62830281350762, 125.43998441379517, -34.392119992524385, 103.16514027770609, 0.5280000250786543, 0.6880000326782465, 0.6080000288784504, 0.0, 0.0, 0.0, 0.0, 0.0, 1.7103911386856372E9, 0.0, 2024-03-13 21:38:58.685
48.0, 227.61405120324343, 120.70153116993606, -20.281477459706366, 108.14294711872935, 0.5280000250786543, 0.6880000326782465, 0.6080000288784504, 0.0, 0.0, 0.0, 0.0, 0.0, 1.7103911386856372E9, 0.0, 2024-03-13 21:38:58.685
49.0, 229.5214001806453, 116.49414371978492, -29.904240045696497, 104.36190826352686, 0.5280000250786543, 0.6880000326782465, 0.6080000288784504, 0.0, 0.0, 0.0, 0.0, 0.0, 1.7103911386865482E9, 0.0, 2024-03-13 21:38:58.686
49.0, 233.1528430376202, 121.23633686359972, -22.57403613254428, 108.77499021124095, 0.5280000250786543, 0.6880000326782465, 0.6080000288784504, 0.0, 0.0, 0.0, 0.0, 0.0, 1.7103911386865482E9, 0.0, 2024-03-13 21:38:58.686
50.0, 220.64661758579314, 116.29218912217766, -12.554844151251018, 112.40269316826016, 0.5280000250786543, 0.6880000326782465, 0.6080000288784504, 0.0, 0.0, 0.0, 0.0, 0.0, 1.710391138700443E9, 0.0, 2024-03-13 21:38:58.700
50.0, 212.59087308123708, 106.59836843702942, -22.18882643710822, 105.9738051444292, 0.5280000250786543, 0.6880000326782465, 0.6080000288784504, 0.0, 0.0, 0.0, 0.0, 0.0, 1.710391138700443E9, 0.0, 2024-03-13 21:38:58.700
51.0, 220.0669330926612, 106.35527493990958, -38.008603249676526, 98.33318953495473, 0.5280000250786543, 0.6880000326782465, 0.6080000288784504, 0.0, 0.0, 0.0, 0.0, 0.0, 1.710391138716058E9, 0.0, 2024-03-13 21:38:58.716
51.0, 227.91698309965432, 113.85751425102353, -32.22297801822424, 103.69246617145836, 0.5280000250786543, 0.6880000326782465, 0.6080000288784504, 0.0, 0.0, 0.0, 0.0, 0.0, 1.710391138716058E9, 0.0, 2024-03-13 21:38:58.716
52.0, 224.1845629438758, 122.64253924693912, -25.932466292753816, 107.12943423073739, 0.5280000250786543, 0.6880000326782465, 0.6080000288784504, 0.0, 0.0, 0.0, 0.0, 0.0, 1.7103911387165887E9, 0.0, 2024-03-13 21:38:58.716
52.0, 225.24295463133603, 115.49559043161571, -34.21634469460696, 103.22871857695282, 0.5280000250786543, 0.6880000326782465, 0.6080000288784504, 0.0, 0.0, 0.0, 0.0, 0.0, 1.7103911387165887E9, 0.0, 2024-03-13 21:38:58.716
53.0, 233.90082302875817, 122.76969584543258, -28.348441664129496, 104.95655235648155, 0.5280000250786543, 0.6880000326782465, 0.6080000288784504, 0.0, 0.0, 0.0, 0.0, 0.0, 1.710391138730224E9, 0.0, 2024-03-13 21:38:58.730
53.0, 229.94400887563825, 118.40149269718677, -17.73460558988154, 109.24247770570219, 0.5280000250786543, 0.6880000326782465, 0.6080000288784504, 0.0, 0.0, 0.0, 0.0, 0.0, 1.710391138730224E9, 0.0, 2024-03-13 21:38:58.730
54.0, 222.26599426660687, 115.69754502922297, -41.45679100882262, 96.87462855223566, 0.5280000250786543, 0.6880000326782465, 0.6080000288784504, 0.0, 0.0, 0.0, 0.0, 0.0, 1.710391138745967E9, 0.0, 2024-03-13 21:38:58.745
54.0, 235.15742941386998, 120.67535187024623, -31.306702529080212, 104.27963046450168, 0.5280000250786543, 0.6880000326782465, 0.6080000288784504, 0.0, 0.0, 0.0, 0.0, 0.0, 1.710391138745967E9, 0.0, 2024-03-13 21:38:58.745
55.0, 227.98056139890105, 116.63999981805682, -41.97663710266352, 101.27649080008268, 0.5280000250786543, 0.6880000326782465, 0.6080000288784504, 0.0, 0.0, 0.0, 0.0, 0.0, 1.710391138746398E9, 0.0, 2024-03-13 21:38:58.746
55.0, 221.16272377967834, 113.82385515142232, -39.80001532845199, 96.74373205378652, 0.5280000250786543, 0.6880000326782465, 0.6080000288784504, 0.0, 0.0, 0.0, 0.0, 0.0, 1.710391138746398E9, 0.0, 2024-03-13 21:38:58.746
56.0, 229.16610968485475, 115.1290802359581, -50.66068479977548, 95.60680246725678, 0.5280000250786543, 0.6880000326782465, 0.6080000288784504, 0.0, 0.0, 0.0, 0.0, 0.0, 1.710391138759971E9, 0.0, 2024-03-13 21:38:58.759
56.0, 224.6969292378053, 113.24417065829039, -40.33856092207134, 98.48652543313801, 0.5280000250786543, 0.6880000326782465, 0.6080000288784504, 0.0, 0.0, 0.0, 0.0, 0.0, 1.710391138759971E9, 0.0, 2024-03-13 21:38:58.759
57.0, 209.83456681389362, 98.71091943047941, -38.27413614653051, 101.40364739857614, 0.5280000250786543, 0.6880000326782465, 0.6080000288784504, 0.0, 0.0, 0.0, 0.0, 0.0, 1.7103911387758358E9, 0.0, 2024-03-13 21:38:58.775
57.0, 217.04135402850807, 105.59233534894884, -36.4976836675778, 102.94448618032038, 0.5280000250786543, 0.6880000326782465, 0.6080000288784504, 0.0, 0.0, 0.0, 0.0, 0.0, 1.7103911387758358E9, 0.0, 2024-03-13 21:38:58.775
58.0, 223.97138864640146, 109.22003830596805, -31.41889952775091, 101.79259699396789, 0.5280000250786543, 0.6880000326782465, 0.6080000288784504, 0.0, 0.0, 0.0, 0.0, 0.0, 1.71039113877652E9, 0.0, 2024-03-13 21:38:58.776
58.0, 211.86533248983324, 105.15102715417743, -23.568849520757794, 107.66797982435673, 0.5280000250786543, 0.6880000326782465, 0.6080000288784504, 0.0, 0.0, 0.0, 0.0, 0.0, 1.71039113877652E9, 0.0, 2024-03-13 21:38:58.776
59.0, 208.28998813219368, 98.5650633322075, -34.025609796866775, 99.51125802099705, 0.5280000250786543, 0.6880000326782465, 0.6080000288784504, 0.0, 0.0, 0.0, 0.0, 0.0, 1.7103911387900984E9, 0.0, 2024-03-13 21:38:58.790
59.0, 221.7685875725001, 106.95739883277565, -32.353874516673386, 98.8231164291501, 0.5280000250786543, 0.6880000326782465, 0.6080000288784504, 0.0, 0.0, 0.0, 0.0, 0.0, 1.7103911387900984E9, 0.0, 2024-03-13 21:38:58.790
60.0, 218.3951978124678, 116.26600982248783, -21.066856450401247, 107.46228532679379, 0.5280000250786543, 0.6880000326782465, 0.6080000288784504, 0.0, 0.0, 0.0, 0.0, 0.0, 1.7103911388056583E9, 0.0, 2024-03-13 21:38:58.805
60.0, 219.83131939545274, 113.92483245022595, -26.011004191823304, 105.70079244766384, 0.5280000250786543, 0.6880000326782465, 0.6080000288784504, 0.0, 0.0, 0.0, 0.0, 0.0, 1.7103911388056583E9, 0.0, 2024-03-13 21:38:58.805
61.0, 225.57206582743675, 115.8695804271847, -31.130927231162786, 108.22896481771022, 0.5280000250786543, 0.6880000326782465, 0.6080000288784504, 0.0, 0.0, 0.0, 0.0, 0.0, 1.7103911388063588E9, 0.0, 2024-03-13 21:38:58.806
61.0, 233.13414353784174, 125.21185051649809, -27.540623273700476, 111.86414757464081, 0.5280000250786543, 0.6880000326782465, 0.6080000288784504, 0.0, 0.0, 0.0, 0.0, 0.0, 1.7103911388063588E9, 0.0, 2024-03-13 21:38:58.806
62.0, 221.42077687662095, 120.08070777729154, -22.215005736798048, 109.53792980220169, 0.5280000250786543, 0.6880000326782465, 0.6080000288784504, 0.0, 0.0, 0.0, 0.0, 0.0, 1.710391138820244E9, 0.0, 2024-03-13 21:38:58.820
62.0, 225.20555563177913, 109.70996520016342, -42.073874501511455, 102.1965061891824, 0.5280000250786543, 0.6880000326782465, 0.6080000288784504, 0.0, 0.0, 0.0, 0.0, 0.0, 1.710391138820244E9, 0.0, 2024-03-13 21:38:58.820
63.0, 234.49546712171286, 115.70502482913435, -23.247218124568462, 108.1242476189509, 0.5280000250786543, 0.6880000326782465, 0.6080000288784504, 0.0, 0.0, 0.0, 0.0, 0.0, 1.7103911388360977E9, 0.0, 2024-03-13 21:38:58.836
63.0, 220.2539280904457, 110.22233149409294, -25.550996497273445, 105.63721414841712, 0.5280000250786543, 0.6880000326782465, 0.6080000288784504, 0.0, 0.0, 0.0, 0.0, 0.0, 1.7103911388360977E9, 0.0, 2024-03-13 21:38:58.836
64.0, 208.06933403480798, 103.86076166946441, -43.38283948600292, 75.27296640817076, 0.5280000250786543, 0.6880000326782465, 0.6080000288784504, 0.0, 0.0, 0.0, 0.0, 0.0, 1.7103911388364851E9, 0.0, 2024-03-13 21:38:58.836
64.0, 220.87475148309022, 106.60958813689649, -46.135405853390694, 90.91322802286595, 0.5280000250786543, 0.6880000326782465, 0.6080000288784504, 0.0, 0.0, 0.0, 0.0, 0.0, 1.7103911388364851E9, 0.0, 2024-03-13 21:38:58.836
65.0, 211.63719859253615, 103.42693327460438, -48.34568672720343, 88.56831075064838, 0.5280000250786543, 0.6880000326782465, 0.6080000288784504, 0.0, 0.0, 0.0, 0.0, 0.0, 1.7103911388503685E9, 0.0, 2024-03-13 21:38:58.850
65.0, 205.53368186485022, 99.57483632024378, -64.07944584079087, 83.26513261348009, 0.5280000250786543, 0.6880000326782465, 0.6080000288784504, 0.0, 0.0, 0.0, 0.0, 0.0, 1.7103911388503685E9, 0.0, 2024-03-13 21:38:58.850
66.0, 205.49254296533763, 99.51499792095274, -58.82114650309086, 87.75301256030798, 0.5280000250786543, 0.6880000326782465, 0.6080000288784504, 0.0, 0.0, 0.0, 0.0, 0.0, 1.7103911388661506E9, 0.0, 2024-03-13 21:38:58.866
66.0, 209.0304883234203, 97.84700254071504, -39.04829543735832, 107.17805293016136, 0.5280000250786543, 0.6880000326782465, 0.6080000288784504, 0.0, 0.0, 0.0, 0.0, 0.0, 1.7103911388661506E9, 0.0, 2024-03-13 21:38:58.866
67.0, 200.3202613266185, 96.14908796083182, -37.28680255822837, 105.79802984651178, 0.5280000250786543, 0.6880000326782465, 0.6080000288784504, 0.0, 0.0, 0.0, 0.0, 0.0, 1.710391138866545E9, 0.0, 2024-03-13 21:38:58.866
67.0, 209.40447831898928, 96.4520198572427, -55.11490564700216, 99.5636166203767, 0.5280000250786543, 0.6880000326782465, 0.6080000288784504, 0.0, 0.0, 0.0, 0.0, 0.0, 1.710391138866545E9, 0.0, 2024-03-13 21:38:58.866
68.0, 221.9593224702403, 107.36504792794585, -45.667918358929455, 100.23679861240089, 0.5280000250786543, 0.6880000326782465, 0.6080000288784504, 0.0, 0.0, 0.0, 0.0, 0.0, 1.710391138880272E9, 0.0, 2024-03-13 21:38:58.880
68.0, 219.11325860396028, 115.11038073617965, -15.341069618239999, 111.40787978004664, 0.5280000250786543, 0.6880000326782465, 0.6080000288784504, 0.0, 0.0, 0.0, 0.0, 0.0, 1.710391138880272E9, 0.0, 2024-03-13 21:38:58.880
69.0, 216.34947253670543, 98.4192072339356, -32.29029621742666, 102.40220068674535, 0.5280000250786543, 0.6880000326782465, 0.6080000288784504, 0.0, 0.0, 0.0, 0.0, 0.0, 1.7103911388957205E9, 0.0, 2024-03-13 21:38:58.895
69.0, 221.83964567165822, 100.59956890810281, -42.21225079987198, 97.13268164917827, 0.5280000250786543, 0.6880000326782465, 0.6080000288784504, 0.0, 0.0, 0.0, 0.0, 0.0, 1.7103911388957205E9, 0.0, 2024-03-13 21:38:58.895
70.0, 212.9499034769833, 105.9027470452711, -29.02910345606506, 96.69885325431824, 0.5280000250786543, 0.6880000326782465, 0.6240000296384096, 0.0, 0.0, 0.0, 0.0, 0.0, 1.710391138896361E9, 0.0, 2024-03-13 21:38:58.896
70.0, 211.03881459962577, 105.09492865484208, -40.21514422353357, 97.2336589479819, 0.5280000250786543, 0.6880000326782465, 0.6240000296384096, 0.0, 0.0, 0.0, 0.0, 0.0, 1.710391138896361E9, 0.0, 2024-03-13 21:38:58.896
71.0, 229.6597764790058, 110.14753349497914, -30.15481334272772, 101.88983439281583, 0.5280000250786543, 0.6720000319182873, 0.6240000296384096, 0.0, 0.0, 0.0, 0.0, 0.0, 1.710391138910009E9, 0.0, 2024-03-13 21:38:58.910
71.0, 232.86487074103206, 122.39570584986359, -15.636521714739501, 111.9426854737103, 0.5280000250786543, 0.6720000319182873, 0.6240000296384096, 0.0, 0.0, 0.0, 0.0, 0.0, 1.710391138910009E9, 0.0, 2024-03-13 21:38:58.910
72.0, 222.77836056053638, 122.63131954707205, -31.284263129346073, 111.3517812807113, 0.5280000250786543, 0.6720000319182873, 0.6240000296384096, 0.0, 0.0, 0.0, 0.0, 0.0, 1.7103911389256616E9, 0.0, 2024-03-13 21:38:58.925
72.0, 220.44466298818588, 123.25962273962796, -40.50685642007738, 108.61417451314628, 0.5280000250786543, 0.6720000319182873, 0.6240000296384096, 0.0, 0.0, 0.0, 0.0, 0.0, 1.7103911389256616E9, 0.0, 2024-03-13 21:38:58.925
73.0, 229.68221587873995, 124.5050094248727, -45.47344356123358, 113.24417065829039, 0.5280000250786543, 0.6720000319182873, 0.6240000296384096, 0.0, 0.0, 0.0, 0.0, 0.0, 1.710391138926416E9, 0.0, 2024-03-13 21:38:58.926
73.0, 220.1828699912876, 114.4633780438453, -41.57272790744901, 102.34610218741, 0.5280000250786543, 0.6720000319182873, 0.6240000296384096, 0.0, 0.0, 0.0, 0.0, 0.0, 1.710391138926416E9, 0.0, 2024-03-13 21:38:58.926
74.0, 223.7320350492373, 122.35082705039531, -38.18063864763826, 98.77075782977045, 0.5280000250786543, 0.6720000319182873, 0.6240000296384096, 0.0, 0.0, 0.0, 0.0, 0.0, 1.710391138940014E9, 0.0, 2024-03-13 21:38:58.940
74.0, 241.39558253996074, 121.85342035628855, -43.48381678480655, 104.02531726751477, 0.5280000250786543, 0.6720000319182873, 0.6240000296384096, 0.0, 0.0, 0.0, 0.0, 0.0, 1.710391138940014E9, 0.0, 2024-03-13 21:38:58.940
75.0, 231.9635548517108, 121.14657926466316, -43.01258939038962, 104.00287786778063, 0.5280000250786543, 0.6720000319182873, 0.6240000296384096, 0.0, 0.0, 0.0, 0.0, 0.0, 1.7103911389557488E9, 0.0, 2024-03-13 21:38:58.955
75.0, 236.64216969627887, 125.41380511410534, -33.662839501164854, 111.3517812807113, 0.5280000250786543, 0.6720000319182873, 0.6240000296384096, 0.0, 0.0, 0.0, 0.0, 0.0, 1.7103911389557488E9, 0.0, 2024-03-13 21:38:58.955
76.0, 238.1530892783776, 123.06514794193208, -37.11476716026664, 99.05125032644719, 0.5280000250786543, 0.6720000319182873, 0.6240000296384096, 0.0, 0.0, 0.0, 0.0, 0.0, 1.710391138956581E9, 0.0, 2024-03-13 21:38:58.956
76.0, 238.6654555723071, 125.8027547094971, -18.57608307991177, 101.76641769427806, 0.5280000250786543, 0.6720000319182873, 0.6240000296384096, 0.0, 0.0, 0.0, 0.0, 0.0, 1.710391138956581E9, 0.0, 2024-03-13 21:38:58.956
77.0, 226.09939172118902, 114.29882244579494, -27.585502073168755, 103.5690494729206, 0.5280000250786543, 0.6720000319182873, 0.6240000296384096, 0.0, 0.0, 0.0, 0.0, 0.0, 1.7103911389700265E9, 0.0, 2024-03-13 21:38:58.970
77.0, 227.112904609181, 117.56375510711223, -30.846694834530354, 106.74048463534564, 0.5280000250786543, 0.6720000319182873, 0.6240000296384096, 0.0, 0.0, 0.0, 0.0, 0.0, 1.7103911389700265E9, 0.0, 2024-03-13 21:38:58.970
78.0, 234.6637626197189, 124.16467852890491, -31.871427422389388, 111.46771817933768, 0.5280000250786543, 0.6720000319182873, 0.6240000296384096, 0.0, 0.0, 0.0, 0.0, 0.0, 1.7103911389856534E9, 0.0, 2024-03-13 21:38:58.985
78.0, 228.11519779730588, 122.5004230486229, -28.58779526129365, 114.4970371434465, 0.5280000250786543, 0.6720000319182873, 0.6240000296384096, 0.0, 0.0, 0.0, 0.0, 0.0, 1.7103911389856534E9, 0.0, 2024-03-13 21:38:58.985
79.0, 230.46385496947914, 127.40343189053237, -28.490557862445712, 113.65929955337197, 0.5280000250786543, 0.6720000319182873, 0.6240000296384096, 0.0, 0.0, 0.0, 0.0, 0.0, 1.7103911389863932E9, 0.0, 2024-03-13 21:38:58.986
79.0, 242.1921812305227, 132.13066543452442, -33.00461710896343, 114.88598673883826, 0.5280000250786543, 0.6720000319182873, 0.6240000296384096, 0.0, 0.0, 0.0, 0.0, 0.0, 1.7103911389863932E9, 0.0, 2024-03-13 21:38:58.986
80.0, 235.09385111462325, 137.53108097054064, -8.358676400966942, 122.1339128529653, 0.5280000250786543, 0.6720000319182873, 0.6080000288784504, 0.0, 0.0, 0.0, 0.0, 0.0, 1.7103911390001063E9, 0.0, 2024-03-13 21:38:59.000
80.0, 230.5162135688588, 128.04295478295535, -17.36809539422393, 118.64084629435092, 0.5280000250786543, 0.6720000319182873, 0.6080000288784504, 0.0, 0.0, 0.0, 0.0, 0.0, 1.7103911390001063E9, 0.0, 2024-03-13 21:38:59.000
81.0, 233.4408153342083, 129.69973046332598, -11.017745269462466, 132.05212753545493, 0.5280000250786543, 0.6720000319182873, 0.6080000288784504, 0.0, 0.0, 0.0, 0.0, 0.0, 1.7103911390159984E9, 0.0, 2024-03-13 21:38:59.015
81.0, 234.50294692162424, 128.5067023774609, -6.185794526711106, 120.23030377551913, 0.5280000250786543, 0.6720000319182873, 0.6080000288784504, 0.0, 0.0, 0.0, 0.0, 0.0, 1.7103911390159984E9, 0.0, 2024-03-13 21:38:59.015
82.0, 219.68920319713652, 123.1324661411345, -38.14697954803705, 107.4211464272812, 0.5280000250786543, 0.6720000319182873, 0.6080000288784504, 0.0, 0.0, 0.0, 0.0, 0.0, 1.710391139016566E9, 0.0, 2024-03-13 21:38:59.016
82.0, 221.69004967343062, 113.84255465120077, -51.43858399055898, 97.65626764297485, 0.5280000250786543, 0.6720000319182873, 0.6080000288784504, 0.0, 0.0, 0.0, 0.0, 0.0, 1.710391139016566E9, 0.0, 2024-03-13 21:38:59.016
83.0, 230.2918195715174, 118.3902729973197, -48.510242325253785, 92.5625239033252, 0.5280000250786543, 0.6720000319182873, 0.6080000288784504, 0.0, 0.0, 0.0, 0.0, 0.0, 1.7103911390299823E9, 0.0, 2024-03-13 21:38:59.029
83.0, 224.97368183452636, 115.97803752589971, -28.404540163464844, 114.32126184552908, 0.5280000250786543, 0.6720000319182873, 0.6080000288784504, 0.0, 0.0, 0.0, 0.0, 0.0, 1.7103911390299823E9, 0.0, 2024-03-13 21:38:59.029
84.0, 221.34971877746284, 112.90009986236691, -34.06674869637936, 109.42573280353099, 0.5280000250786543, 0.6720000319182873, 0.6080000288784504, 0.0, 0.0, 0.0, 0.0, 0.0, 1.7103911390457916E9, 0.0, 2024-03-13 21:38:59.045
84.0, 233.28747943602502, 124.83412062097341, -42.21225079987198, 114.30256234575063, 0.5280000250786543, 0.6720000319182873, 0.6080000288784504, 0.0, 0.0, 0.0, 0.0, 0.0, 1.7103911390457916E9, 0.0, 2024-03-13 21:38:59.045
85.0, 225.8862174237147, 116.31088862195611, -31.074828731827438, 102.15536728966981, 0.5280000250786543, 0.6720000319182873, 0.6080000288784504, 0.0, 0.0, 0.0, 0.0, 0.0, 1.7103911390466094E9, 0.0, 2024-03-13 21:38:59.046
85.0, 217.82673301920295, 110.85063468664885, -36.434105368331075, 102.29000368807465, 0.5280000250786543, 0.6720000319182873, 0.6080000288784504, 0.0, 0.0, 0.0, 0.0, 0.0, 1.7103911390466094E9, 0.0, 2024-03-13 21:38:59.046
86.0, 223.99008814617991, 112.87392056267709, -47.7996613336727, 113.56580205447972, 0.5280000250786543, 0.6720000319182873, 0.6080000288784504, 0.0, 0.0, 0.0, 0.0, 0.0, 1.7103911390600867E9, 0.0, 2024-03-13 21:38:59.060
86.0, 226.61923781502992, 125.86259310878813, -16.96792609896511, 117.48895710799843, 0.5280000250786543, 0.6720000319182873, 0.6080000288784504, 0.0, 0.0, 0.0, 0.0, 0.0, 1.7103911390600867E9, 0.0, 2024-03-13 21:38:59.060
87.0, 221.2487414786592, 125.79527490958571, -20.06830316223204, 105.0126508558169, 0.5280000250786543, 0.6720000319182873, 0.6080000288784504, 0.0, 0.0, 0.0, 0.0, 0.0, 1.7103911390756512E9, 0.0, 2024-03-13 21:38:59.075
87.0, 227.9282027995214, 119.60200058296323, -30.498884138651192, 97.81334344111383, 0.5280000250786543, 0.6720000319182873, 0.6080000288784504, 0.0, 0.0, 0.0, 0.0, 0.0, 1.7103911390756512E9, 0.0, 2024-03-13 21:38:59.075
88.0, 229.51018048077822, 123.4316581375897, -21.36604844685644, 106.93495943304151, 0.5280000250786543, 0.6720000319182873, 0.6080000288784504, 0.0, 0.0, 0.0, 0.0, 0.0, 1.710391139076341E9, 0.0, 2024-03-13 21:38:59.076
88.0, 224.34537864197046, 121.86464005615562, -23.32575602363795, 108.95824530906975, 0.5280000250786543, 0.6720000319182873, 0.6080000288784504, 0.0, 0.0, 0.0, 0.0, 0.0, 1.710391139076341E9, 0.0, 2024-03-13 21:38:59.076
89.0, 218.8813848067075, 116.25479012262076, -23.221038824878633, 111.18348578270525, 0.5280000250786543, 0.6720000319182873, 0.6080000288784504, 0.0, 0.0, 0.0, 0.0, 0.0, 1.7103911390902088E9, 0.0, 2024-03-13 21:38:59.090
89.0, 222.59884536266327, 123.55133493617177, -30.16977294255048, 112.69066546484828, 0.5280000250786543, 0.6720000319182873, 0.6080000288784504, 0.0, 0.0, 0.0, 0.0, 0.0, 1.7103911390902088E9, 0.0, 2024-03-13 21:38:59.090
90.0, 218.5111347110942, 112.32041536923498, -19.391381270252168, 112.78416296374053, 0.5280000250786543, 0.6720000319182873, 0.6240000296384096, 0.0, 0.0, 0.0, 0.0, 0.0, 1.7103911391056368E9, 0.0, 2024-03-13 21:38:59.105
90.0, 212.9573832768947, 111.47893787920475, -29.260977253317833, 103.22871857695282, 0.5280000250786543, 0.6720000319182873, 0.6240000296384096, 0.0, 0.0, 0.0, 0.0, 0.0, 1.7103911391056368E9, 0.0, 2024-03-13 21:38:59.105
91.0, 232.53575954493135, 115.58534803055227, -42.29452859889716, 103.68872627150267, 0.5280000250786543, 0.6720000319182873, 0.6240000296384096, 0.0, 0.0, 0.0, 0.0, 0.0, 1.7103911391063657E9, 0.0, 2024-03-13 21:38:59.106
91.0, 230.4825544692576, 115.00940343737602, -38.93235853873193, 104.38808756321669, 0.5280000250786543, 0.6720000319182873, 0.6240000296384096, 0.0, 0.0, 0.0, 0.0, 0.0, 1.7103911391063657E9, 0.0, 2024-03-13 21:38:59.106
92.0, 221.68256987351924, 114.39605984464288, -38.33771444577724, 95.81997676473111, 0.5280000250786543, 0.6720000319182873, 0.6240000296384096, 0.0, 0.0, 0.0, 0.0, 0.0, 1.7103911391199777E9, 0.0, 2024-03-13 21:38:59.119
92.0, 224.2892801426351, 113.50222375523299, -42.2047709999606, 100.33403601124883, 0.5280000250786543, 0.6720000319182873, 0.6240000296384096, 0.0, 0.0, 0.0, 0.0, 0.0, 1.7103911391199777E9, 0.0, 2024-03-13 21:38:59.119
93.0, 236.1859019016847, 124.392812426202, -34.87830698676407, 118.26685629878193, 0.5280000250786543, 0.6720000319182873, 0.6240000296384096, 0.0, 0.0, 0.0, 0.0, 0.0, 1.7103911391357088E9, 0.0, 2024-03-13 21:38:59.135
93.0, 232.08323165029287, 131.07601364701986, -22.07288953848183, 121.96935725491494, 0.5280000250786543, 0.6720000319182873, 0.6240000296384096, 0.0, 0.0, 0.0, 0.0, 0.0, 1.7103911391357088E9, 0.0, 2024-03-13 21:38:59.135
94.0, 227.13908390887082, 118.71564429346472, -29.889280445873737, 106.14210064243525, 0.5280000250786543, 0.6720000319182873, 0.6240000296384096, 0.0, 0.0, 0.0, 0.0, 0.0, 1.710391139136377E9, 0.0, 2024-03-13 21:38:59.136
94.0, 234.5216464214027, 122.76969584543258, -31.710611724294722, 92.98887249827385, 0.5280000250786543, 0.6720000319182873, 0.6240000296384096, 0.0, 0.0, 0.0, 0.0, 0.0, 1.710391139136377E9, 0.0, 2024-03-13 21:38:59.136
95.0, 226.05451292172074, 119.08589438907802, -22.97794532775879, 99.42150042206049, 0.5280000250786543, 0.6720000319182873, 0.6240000296384096, 0.0, 0.0, 0.0, 0.0, 0.0, 1.7103911391503737E9, 0.0, 2024-03-13 21:38:59.150
95.0, 215.27238134946674, 116.17999212350696, -33.195352006703615, 99.75435151811689, 0.5280000250786543, 0.6720000319182873, 0.6240000296384096, 0.0, 0.0, 0.0, 0.0, 0.0, 1.7103911391503737E9, 0.0, 2024-03-13 21:38:59.150
96.0, 224.35659834183753, 116.62878011818975, -49.80424770992249, 101.98707179166377, 0.5280000250786543, 0.6720000319182873, 0.6240000296384096, 0.0, 0.0, 0.0, 0.0, 0.0, 1.7103911391658883E9, 0.0, 2024-03-13 21:38:59.165
96.0, 233.45203503407538, 123.44287783745676, -36.18727197125554, 101.62804139591753, 0.5280000250786543, 0.6720000319182873, 0.6240000296384096, 0.0, 0.0, 0.0, 0.0, 0.0, 1.7103911391658883E9, 0.0, 2024-03-13 21:38:59.165
97.0, 217.247048526071, 118.3154749982059, -31.979884521104395, 98.76701792981476, 0.5280000250786543, 0.6720000319182873, 0.6240000296384096, 0.0, 0.0, 0.0, 0.0, 0.0, 1.7103911391664996E9, 0.0, 2024-03-13 21:38:59.166
97.0, 220.50450138747692, 114.22402444668114, -43.75682948157191, 104.25345116481185, 0.5280000250786543, 0.6720000319182873, 0.6240000296384096, 0.0, 0.0, 0.0, 0.0, 0.0, 1.7103911391664996E9, 0.0, 2024-03-13 21:38:59.166
98.0, 224.49871454015374, 115.53298943117261, -28.62519426085055, 99.23824532423168, 0.5280000250786543, 0.6720000319182873, 0.6240000296384096, 0.0, 0.0, 0.0, 0.0, 0.0, 1.7103911391800704E9, 0.0, 2024-03-13 21:38:59.180
98.0, 208.12169263418764, 108.99564430862665, -15.554243915714324, 108.09432841930538, 0.5280000250786543, 0.6720000319182873, 0.6240000296384096, 0.0, 0.0, 0.0, 0.0, 0.0, 1.7103911391800704E9, 0.0, 2024-03-13 21:38:59.180
99.0, 203.71983038634062, 107.83627532236278, -29.092681755311787, 109.86330109834671, 0.5280000250786543, 0.6720000319182873, 0.6240000296384096, 0.0, 0.0, 0.0, 0.0, 0.0, 1.7103911391957324E9, 0.0, 2024-03-13 21:38:59.195
99.0, 217.6584375211969, 112.36529416870326, -38.32649474591017, 111.46771817933768, 0.5280000250786543, 0.6720000319182873, 0.6240000296384096, 0.0, 0.0, 0.0, 0.0, 0.0, 1.7103911391957324E9, 0.0, 2024-03-13 21:38:59.195
100.0, 210.79198120255023, 107.1967524299398, -25.618314696475863, 105.78681014664471, 0.5280000250786543, 0.6720000319182873, 0.6240000296384096, 0.0, 0.0, 0.0, 0.0, 0.0, 1.7103911391966412E9, 0.0, 2024-03-13 21:38:59.196
100.0, 214.28130786120892, 116.17625222355127, -35.71604457683861, 105.66713334806263, 0.5280000250786543, 0.6720000319182873, 0.6240000296384096, 0.0, 0.0, 0.0, 0.0, 0.0, 1.7103911391966412E9, 0.0, 2024-03-13 21:38:59.196
0.0, 229.52701003057882, 123.61678318539634, -49.125455867964774, 117.35806060954928, 0.5280000250786543, 0.6720000319182873, 0.6240000296384096, 0.0, 0.0, 0.0, 0.0, 0.0, 1.7103911392106836E9, 0.0, 2024-03-13 21:38:59.210
1.0, 232.21599809871987, 122.65936879673973, -29.54707959992811, 114.34744114521891, 0.5280000250786543, 0.6720000319182873, 0.6240000296384096, 0.0, 0.0, 0.0, 0.0, 0.0, 1.7103911392114213E9, 0.0, 2024-03-13 21:38:59.211
1.0, 217.33867607498541, 111.7388609261252, -24.71886875713244, 100.04232381470501, 0.5280000250786543, 0.6720000319182873, 0.6240000296384096, 0.0, 0.0, 0.0, 0.0, 0.0, 1.7103911392114213E9, 0.0, 2024-03-13 21:38:59.211
2.0, 216.36630208650604, 99.584186070133, -39.061385087203234, 97.31593674700707, 0.5280000250786543, 0.6720000319182873, 0.6240000296384096, 0.0, 0.0, 0.0, 0.0, 0.0, 1.710391139225012E9, 0.0, 2024-03-13 21:38:59.225
2.0, 230.10295462375507, 111.36487093055621, -39.68968827975914, 99.89646771643311, 0.5280000250786543, 0.6720000319182873, 0.6240000296384096, 0.0, 0.0, 0.0, 0.0, 0.0, 1.710391139225012E9, 0.0, 2024-03-13 21:38:59.225
3.0, 221.3141897278838, 105.13419760437682, -23.862431667279452, 105.07996905501932, 0.5280000250786543, 0.6720000319182873, 0.6240000296384096, 0.0, 0.0, 0.0, 0.0, 0.0, 1.71039113924067E9, 0.0, 2024-03-13 21:38:59.240
3.0, 226.44533246709034, 114.50638689333573, -35.74409382650629, 107.7539975233376, 0.5280000250786543, 0.6720000319182873, 0.6240000296384096, 0.0, 0.0, 0.0, 0.0, 0.0, 1.71039113924067E9, 0.0, 2024-03-13 21:38:59.240
4.0, 238.99643671838567, 122.50229299860075, -29.50968060037121, 97.33089634682983, 0.5280000250786543, 0.6720000319182873, 0.6240000296384096, 0.0, 0.0, 0.0, 0.0, 0.0, 1.710391139241405E9, 0.0, 2024-03-13 21:38:59.241
4.0, 233.66333938157186, 119.17004213808104, -29.090811805333942, 117.0925277126953, 0.5280000250786543, 0.6720000319182873, 0.6240000296384096, 0.0, 0.0, 0.0, 0.0, 0.0, 1.710391139241405E9, 0.0, 2024-03-13 21:38:59.241
5.0, 223.28511700453237, 114.89159658877179, -22.34029238531366, 115.48063083179295, 0.5280000250786543, 0.6720000319182873, 0.6240000296384096, 0.0, 0.0, 0.0, 0.0, 0.0, 1.7103911392550051E9, 0.0, 2024-03-13 21:38:59.255
5.0, 222.09582881862298, 112.4419621177949, -27.830465520266443, 111.1647862829268, 0.5280000250786543, 0.6720000319182873, 0.6240000296384096, 0.0, 0.0, 0.0, 0.0, 0.0, 1.7103911392550051E9, 0.0, 2024-03-13 21:38:59.255
6.0, 220.4240935384296, 118.23506714915857, -28.455028812866658, 99.46637922152877, 0.5280000250786543, 0.6720000319182873, 0.6240000296384096, 0.0, 0.0, 0.0, 0.0, 0.0, 1.710391139271377E9, 0.0, 2024-03-13 21:38:59.271
6.0, 210.4497803566046, 107.3295188783668, -43.433328135404736, 98.58750273194164, 0.5280000250786543, 0.6720000319182873, 0.6240000296384096, 0.0, 0.0, 0.0, 0.0, 0.0, 1.710391139271377E9, 0.0, 2024-03-13 21:38:59.271
7.0, 213.12754872487858, 108.18969586817548, -43.19771443819627, 98.91661392804235, 0.5280000250786543, 0.6720000319182873, 0.6240000296384096, 0.0, 0.0, 0.0, 0.0, 0.0, 1.7103911392721825E9, 0.0, 2024-03-13 21:38:59.272
7.0, 224.29115009261295, 113.60881090397015, -37.96559440018609, 100.47615220956504, 0.5280000250786543, 0.6720000319182873, 0.6240000296384096, 0.0, 0.0, 0.0, 0.0, 0.0, 1.7103911392721825E9, 0.0, 2024-03-13 21:38:59.272
8.0, 219.88554794481024, 115.95372817618772, -25.97547514224425, 97.38699484616518, 0.5280000250786543, 0.6720000319182873, 0.6240000296384096, 0.0, 0.0, 0.0, 0.0, 0.0, 1.710391139284953E9, 0.0, 2024-03-13 21:38:59.284
8.0, 222.85502850962803, 110.3326585427858, -46.56362439831719, 93.79295098874718, 0.5280000250786543, 0.6720000319182873, 0.6240000296384096, 0.0, 0.0, 0.0, 0.0, 0.0, 1.710391139284953E9, 0.0, 2024-03-13 21:38:59.284
9.0, 236.78241594461724, 116.54463236918673, -56.564116879832, 94.43247388117015, 0.5280000250786543, 0.6720000319182873, 0.6240000296384096, 0.0, 0.0, 0.0, 0.0, 0.0, 1.710391139300989E9, 0.0, 2024-03-13 21:38:59.300
9.0, 233.8690338791348, 120.37802982376888, -39.087564386893064, 96.0481106620282, 0.5280000250786543, 0.6720000319182873, 0.6240000296384096, 0.0, 0.0, 0.0, 0.0, 0.0, 1.710391139300989E9, 0.0, 2024-03-13 21:38:59.300
10.0, 227.91885304963216, 123.1492956909351, -35.377583630848676, 99.62719491962343, 0.5280000250786543, 0.6720000319182873, 0.6240000296384096, 0.0, 0.0, 0.0, 0.0, 0.0, 1.7103911393013847E9, 0.0, 2024-03-13 21:38:59.301
10.0, 237.41819893708453, 127.71197363687679, -37.6664024037309, 106.05982284341007, 0.5280000250786543, 0.6720000319182873, 0.6240000296384096, 0.0, 0.0, 0.0, 0.0, 0.0, 1.7103911393013847E9, 0.0, 2024-03-13 21:38:59.301
11.0, 237.51169643597677, 124.46574047533795, -23.353805273305625, 105.65217374823987, 0.5280000250786543, 0.6720000319182873, 0.6240000296384096, 0.0, 0.0, 0.0, 0.0, 0.0, 1.7103911393154347E9, 0.0, 2024-03-13 21:38:59.315
11.0, 229.34375493275002, 123.49710638681427, -18.850965726654977, 107.33886862825602, 0.5280000250786543, 0.6720000319182873, 0.6240000296384096, 0.0, 0.0, 0.0, 0.0, 0.0, 1.7103911393154347E9, 0.0, 2024-03-13 21:38:59.315
12.0, 230.6863790168427, 116.48479396989569, -49.43960746424273, 103.44563277438283, 0.5280000250786543, 0.6720000319182873, 0.6240000296384096, 0.0, 0.0, 0.0, 0.0, 0.0, 1.7103911393310905E9, 0.0, 2024-03-13 21:38:59.331
12.0, 233.82789497962222, 119.06532493932173, -40.01879947585985, 97.46179284527898, 0.5280000250786543, 0.6720000319182873, 0.6240000296384096, 0.0, 0.0, 0.0, 0.0, 0.0, 1.7103911393310905E9, 0.0, 2024-03-13 21:38:59.331
13.0, 228.7565906397067, 114.45028839400038, -28.38397071370855, 100.88380130473524, 0.5280000250786543, 0.6720000319182873, 0.6240000296384096, 0.0, 0.0, 0.0, 0.0, 0.0, 1.7103911393316145E9, 0.0, 2024-03-13 21:38:59.331
13.0, 225.34206198016182, 114.50638689333573, -37.61778370430693, 100.27419761195779, 0.5280000250786543, 0.6720000319182873, 0.6240000296384096, 0.0, 0.0, 0.0, 0.0, 0.0, 1.7103911393316145E9, 0.0, 2024-03-13 21:38:59.331
14.0, 231.3184221093543, 119.20370123768225, -34.034959546756, 113.09831456001848, 0.5280000250786543, 0.6720000319182873, 0.6240000296384096, 0.0, 0.0, 0.0, 0.0, 0.0, 1.7103911393450167E9, 0.0, 2024-03-13 21:38:59.345
14.0, 223.4982913020067, 123.84865698264912, -24.236421662848443, 117.90034610312432, 0.5280000250786543, 0.6720000319182873, 0.6240000296384096, 0.0, 0.0, 0.0, 0.0, 0.0, 1.7103911393450167E9, 0.0, 2024-03-13 21:38:59.345
15.0, 222.03599041933194, 125.1875411667861, -24.41967676067725, 118.67450539395213, 0.5280000250786543, 0.6720000319182873, 0.6240000296384096, 0.0, 0.0, 0.0, 0.0, 0.0, 1.7103911393608751E9, 0.0, 2024-03-13 21:38:59.360
15.0, 224.96807198459283, 118.97556734038517, -33.23462095623836, 109.20507870614529, 0.5280000250786543, 0.6720000319182873, 0.6240000296384096, 0.0, 0.0, 0.0, 0.0, 0.0, 1.7103911393608751E9, 0.0, 2024-03-13 21:38:59.360
16.0, 227.41022665565833, 115.53111948119476, -30.938322383444756, 106.17201984208077, 0.5280000250786543, 0.6720000319182873, 0.6240000296384096, 0.0, 0.0, 0.0, 0.0, 0.0, 1.7103911393615377E9, 0.0, 2024-03-13 21:38:59.361
16.0, 216.96468607941642, 113.34327800711617, -30.250180791597813, 106.56470933742821, 0.5280000250786543, 0.6720000319182873, 0.6240000296384096, 0.0, 0.0, 0.0, 0.0, 0.0, 1.7103911393615377E9, 0.0, 2024-03-13 21:38:59.361
17.0, 225.84694847417995, 113.98654079949483, -38.51161979371682, 108.15790671855211, 0.5280000250786543, 0.6720000319182873, 0.6240000296384096, 0.0, 0.0, 0.0, 0.0, 0.0, 1.71039113937503E9, 0.0, 2024-03-13 21:38:59.375
17.0, 233.95879147807136, 117.86481705354527, -44.40196222392842, 100.07972281426191, 0.5280000250786543, 0.6720000319182873, 0.6240000296384096, 0.0, 0.0, 0.0, 0.0, 0.0, 1.71039113937503E9, 0.0, 2024-03-13 21:38:59.375
18.0, 226.3069561687298, 117.49456695793197, -36.30881871981546, 105.68583284784108, 0.5280000250786543, 0.6720000319182873, 0.6240000296384096, 0.0, 0.0, 0.0, 0.0, 0.0, 1.7103911393906589E9, 0.0, 2024-03-13 21:38:59.390
18.0, 223.17292000586167, 116.95228146435693, -38.13762979814783, 101.81503639370203, 0.5280000250786543, 0.6720000319182873, 0.6240000296384096, 0.0, 0.0, 0.0, 0.0, 0.0, 1.7103911393906589E9, 0.0, 2024-03-13 21:38:59.390
19.0, 237.0591685413383, 120.84925721818581, -49.36106956517324, 98.62116183154285, 0.5280000250786543, 0.6720000319182873, 0.6240000296384096, 0.0, 0.0, 0.0, 0.0, 0.0, 1.710391139391508E9, 0.0, 2024-03-13 21:38:59.391
19.0, 232.8368214913644, 125.9317812579684, -35.93108882429078, 106.32161584030837, 0.5280000250786543, 0.6720000319182873, 0.6240000296384096, 0.0, 0.0, 0.0, 0.0, 0.0, 1.710391139391508E9, 0.0, 2024-03-13 21:38:59.391
20.0, 227.35786805627868, 120.93527491716668, -31.095398181583732, 106.69186593592167, 0.5280000250786543, 0.6720000319182873, 0.6240000296384096, 0.0, 0.0, 0.0, 0.0, 0.0, 1.710391139421348E9, 0.0, 2024-03-13 21:38:59.421
20.0, 237.0965675408952, 118.15652925008908, -39.383016483392566, 103.1950594773516, 0.5280000250786543, 0.6720000319182873, 0.6240000296384096, 0.0, 0.0, 0.0, 0.0, 0.0, 1.710391139421348E9, 0.0, 2024-03-13 21:38:59.421
21.0, 233.00137708941475, 117.53944575740024, -27.407856825273484, 109.23125800583512, 0.5280000250786543, 0.6720000319182873, 0.6240000296384096, 0.0, 0.0, 0.0, 0.0, 0.0, 1.7103911394221156E9, 0.0, 2024-03-13 21:38:59.422
21.0, 224.3846475915052, 111.52568662865087, -19.97293571336195, 107.3463484281674, 0.5280000250786543, 0.6720000319182873, 0.6240000296384096, 0.0, 0.0, 0.0, 0.0, 0.0, 1.7103911394221156E9, 0.0, 2024-03-13 21:38:59.422
22.0, 218.88699465664104, 102.91269703069702, -42.58437084546313, 98.48652543313801, 0.5280000250786543, 0.6720000319182873, 0.6240000296384096, 0.0, 0.0, 0.0, 0.0, 0.0, 1.7103911394228377E9, 0.0, 2024-03-13 21:38:59.422
22.0, 225.36450137989596, 112.81969201331958, -24.72260865708813, 101.47096559777856, 0.5280000250786543, 0.6720000319182873, 0.6240000296384096, 0.0, 0.0, 0.0, 0.0, 0.0, 1.7103911394228377E9, 0.0, 2024-03-13 21:38:59.422
23.0, 216.16434748889878, 112.64765661535785, -15.12228547083214, 108.88344730995595, 0.5280000250786543, 0.6720000319182873, 0.6240000296384096, 0.0, 0.0, 0.0, 0.0, 0.0, 1.7103911394354455E9, 0.0, 2024-03-13 21:38:59.435
23.0, 209.36146946949884, 104.65549041004851, -36.53321271715686, 107.43984592705965, 0.5280000250786543, 0.6720000319182873, 0.6240000296384096, 0.0, 0.0, 0.0, 0.0, 0.0, 1.7103911394354455E9, 0.0, 2024-03-13 21:38:59.435
24.0, 216.95346637954935, 107.90920337149873, -27.849165020044893, 109.74736419972032, 0.5280000250786543, 0.6720000319182873, 0.6240000296384096, 0.0, 0.0, 0.0, 0.0, 0.0, 1.7103911394508972E9, 0.0, 2024-03-13 21:38:59.450
24.0, 206.1563752074726, 110.12696404522285, -9.942524032201618, 110.34574819263071, 0.5280000250786543, 0.6720000319182873, 0.6240000296384096, 0.0, 0.0, 0.0, 0.0, 0.0, 1.7103911394508972E9, 0.0, 2024-03-13 21:38:59.450
25.0, 195.9614079282619, 103.45124262431636, -29.692935698200017, 109.36215450428426, 0.5280000250786543, 0.6720000319182873, 0.6240000296384096, 0.0, 0.0, 0.0, 0.0, 0.0, 1.71039113945156E9, 0.0, 2024-03-13 21:38:59.451
25.0, 209.4175679688342, 111.23023453215137, -37.72998070297763, 104.96777205634862, 0.5280000250786543, 0.6720000319182873, 0.6240000296384096, 0.0, 0.0, 0.0, 0.0, 0.0, 1.71039113945156E9, 0.0, 2024-03-13 21:38:59.451
26.0, 215.5622235960327, 108.39165046578273, -19.696183116640896, 112.64578666538, 0.5280000250786543, 0.6720000319182873, 0.6240000296384096, 0.0, 0.0, 0.0, 0.0, 0.0, 1.7103911394649796E9, 0.0, 2024-03-13 21:38:59.464
26.0, 214.09992271335796, 107.9204230713658, -20.66107730520889, 111.1273872833699, 0.5280000250786543, 0.6720000319182873, 0.6240000296384096, 0.0, 0.0, 0.0, 0.0, 0.0, 1.7103911394649796E9, 0.0, 2024-03-13 21:38:59.464
27.0, 226.29199656890705, 117.12805676227435, -35.59449782827869, 103.59148887265474, 0.5280000250786543, 0.6720000319182873, 0.6240000296384096, 0.0, 0.0, 0.0, 0.0, 0.0, 1.710391139480863E9, 0.0, 2024-03-13 21:38:59.480
27.0, 246.11720623401925, 130.266325306613, -28.81779910856858, 117.16358581185341, 0.5280000250786543, 0.6720000319182873, 0.6240000296384096, 0.0, 0.0, 0.0, 0.0, 0.0, 1.710391139480863E9, 0.0, 2024-03-13 21:38:59.480
28.0, 232.51892999513075, 123.3362906887196, -32.236067668069154, 113.7228778526187, 0.5280000250786543, 0.6720000319182873, 0.6240000296384096, 0.0, 0.0, 0.0, 0.0, 0.0, 1.710391139481469E9, 0.0, 2024-03-13 21:38:59.481
28.0, 231.14264681143686, 118.2238474492915, -48.340076877269894, 101.81877629365772, 0.5280000250786543, 0.6720000319182873, 0.6240000296384096, 0.0, 0.0, 0.0, 0.0, 0.0, 1.710391139481469E9, 0.0, 2024-03-13 21:38:59.481
29.0, 238.27463602693751, 114.73452079063281, -35.762793326284736, 96.99804525077343, 0.5280000250786543, 0.6720000319182873, 0.6240000296384096, 0.0, 0.0, 0.0, 0.0, 0.0, 1.7103911394949636E9, 0.0, 2024-03-13 21:38:59.494
29.0, 229.02586343651637, 117.38610985921696, -22.74420158052817, 102.64529418386519, 0.5280000250786543, 0.6720000319182873, 0.6240000296384096, 0.0, 0.0, 0.0, 0.0, 0.0, 1.7103911394949636E9, 0.0, 2024-03-13 21:38:59.494
30.0, 221.02995733125135, 107.3669178779237, -37.056798710953444, 93.76303178910166, 0.5280000250786543, 0.6720000319182873, 0.6240000296384096, 0.0, 0.0, 0.0, 0.0, 0.0, 1.7103911395106516E9, 0.0, 2024-03-13 21:38:59.510
30.0, 220.6447476358153, 99.76370126800612, -56.2312657837756, 88.90116184670478, 0.5280000250786543, 0.6720000319182873, 0.6240000296384096, 0.0, 0.0, 0.0, 0.0, 0.0, 1.7103911395106516E9, 0.0, 2024-03-13 21:38:59.510
31.0, 221.26557102845982, 100.45184285985306, -30.43343588942662, 91.39567511714995, 0.5280000250786543, 0.6720000319182873, 0.6240000296384096, 0.0, 0.0, 0.0, 0.0, 0.0, 1.71039113951137E9, 0.0, 2024-03-13 21:38:59.511
31.0, 209.47366646816954, 98.8810848784633, -17.0632935478352, 100.30037691164762, 0.5280000250786543, 0.6720000319182873, 0.6240000296384096, 0.0, 0.0, 0.0, 0.0, 0.0, 1.71039113951137E9, 0.0, 2024-03-13 21:38:59.511
32.0, 215.76791809359565, 104.86118490761146, -29.468541700858623, 99.61597521975636, 0.5280000250786543, 0.6720000319182873, 0.6240000296384096, 0.0, 0.0, 0.0, 0.0, 0.0, 1.710391139524979E9, 0.0, 2024-03-13 21:38:59.524
32.0, 232.8742204909213, 123.47840688703582, -12.193943805526942, 113.63312025368214, 0.5280000250786543, 0.6720000319182873, 0.6240000296384096, 0.0, 0.0, 0.0, 0.0, 0.0, 1.710391139524979E9, 0.0, 2024-03-13 21:38:59.524
33.0, 220.3418157394044, 119.06158503936604, -17.362485544290394, 111.75195057597011, 0.5280000250786543, 0.6720000319182873, 0.6240000296384096, 0.0, 0.0, 0.0, 0.0, 0.0, 1.7103911395406218E9, 0.0, 2024-03-13 21:38:59.540
33.0, 219.683593347203, 122.43497479939833, -28.484948012512177, 115.74616372864693, 0.5280000250786543, 0.6720000319182873, 0.6240000296384096, 0.0, 0.0, 0.0, 0.0, 0.0, 1.7103911395406218E9, 0.0, 2024-03-13 21:38:59.540
34.0, 226.29947636881843, 124.63777587329969, -30.156683292705566, 109.73614449985325, 0.5280000250786543, 0.6720000319182873, 0.6240000296384096, 0.0, 0.0, 0.0, 0.0, 0.0, 1.7103911395413437E9, 0.0, 2024-03-13 21:38:59.541
34.0, 218.21007276466116, 116.81016526604071, -37.71128120319918, 97.27853774745017, 0.5280000250786543, 0.6720000319182873, 0.6240000296384096, 0.0, 0.0, 0.0, 0.0, 0.0, 1.7103911395413437E9, 0.0, 2024-03-13 21:38:59.541
35.0, 212.07289693737403, 109.82777204876766, -41.12206996278837, 99.14100792538375, 0.5280000250786543, 0.6720000319182873, 0.6240000296384096, 0.0, 0.0, 0.0, 0.0, 0.0, 1.7103911395549624E9, 0.0, 2024-03-13 21:38:59.554
35.0, 221.24687152868137, 114.83923798939213, -42.36745664803311, 94.72044617775828, 0.5280000250786543, 0.6720000319182873, 0.6240000296384096, 0.0, 0.0, 0.0, 0.0, 0.0, 1.7103911395549624E9, 0.0, 2024-03-13 21:38:59.554
36.0, 219.22732555260882, 110.90486323600635, -38.79959209030494, 103.14644077792764, 0.5280000250786543, 0.6720000319182873, 0.6240000296384096, 0.0, 0.0, 0.0, 0.0, 0.0, 1.710391139570685E9, 0.0, 2024-03-13 21:38:59.570
36.0, 206.47426670370623, 104.62931111035869, -34.75302033824846, 98.50522493291646, 0.5280000250786543, 0.6720000319182873, 0.6240000296384096, 0.0, 0.0, 0.0, 0.0, 0.0, 1.710391139570685E9, 0.0, 2024-03-13 21:38:59.570
37.0, 208.94260067446157, 100.77721415599808, -47.853889883030206, 87.98488635756075, 0.5280000250786543, 0.6720000319182873, 0.6240000296384096, 0.0, 0.0, 0.0, 0.0, 0.0, 1.710391139571394E9, 0.0, 2024-03-13 21:38:59.571
37.0, 229.28391653345898, 114.26703329617158, -40.89767596544698, 100.59956890810281, 0.5280000250786543, 0.6720000319182873, 0.6240000296384096, 0.0, 0.0, 0.0, 0.0, 0.0, 1.710391139571394E9, 0.0, 2024-03-13 21:38:59.571
38.0, 220.05758334277198, 108.04383976990357, -32.80453246133402, 82.62560972105712, 0.5280000250786543, 0.6720000319182873, 0.6240000296384096, 0.0, 0.0, 0.0, 0.0, 0.0, 1.71039113958525E9, 0.0, 2024-03-13 21:38:59.585
38.0, 219.77709084609523, 108.06253926968202, -44.8918891181238, 87.1172295678407, 0.5280000250786543, 0.6720000319182873, 0.6240000296384096, 0.0, 0.0, 0.0, 0.0, 0.0, 1.71039113958525E9, 0.0, 2024-03-13 21:38:59.585
39.0, 237.3508807378821, 115.11973048606887, -41.443701358977705, 95.96209296304733, 0.5280000250786543, 0.6720000319182873, 0.6240000296384096, 0.0, 0.0, 0.0, 0.0, 0.0, 1.710391139601004E9, 0.0, 2024-03-13 21:38:59.601
39.0, 220.63352793594822, 101.70096944505349, -40.34791067196056, 88.09708335623145, 0.5280000250786543, 0.6720000319182873, 0.6240000296384096, 0.0, 0.0, 0.0, 0.0, 0.0, 1.710391139601004E9, 0.0, 2024-03-13 21:38:59.601
40.0, 214.80676380498335, 100.78843385586515, -45.078884115908295, 88.35887635312974, 0.5280000250786543, 0.6720000319182873, 0.6240000296384096, 0.0, 0.0, 0.0, 0.0, 0.0, 1.7103911396014068E9, 0.0, 2024-03-13 21:38:59.601
40.0, 215.89133479213342, 99.44954967172816, -48.257799078244716, 88.62814914993942, 0.5280000250786543, 0.6720000319182873, 0.6240000296384096, 0.0, 0.0, 0.0, 0.0, 0.0, 1.7103911396014068E9, 0.0, 2024-03-13 21:38:59.601
41.0, 214.4514733091928, 97.93489018967375, -39.824324678163975, 91.82950351200998, 0.5280000250786543, 0.6720000319182873, 0.6240000296384096, 0.0, 0.0, 0.0, 0.0, 0.0, 1.7103911396152513E9, 0.0, 2024-03-13 21:38:59.615
41.0, 200.61010357318446, 92.24276245711371, -36.48459401773289, 98.00033843889832, 0.5280000250786543, 0.6720000319182873, 0.6240000296384096, 0.0, 0.0, 0.0, 0.0, 0.0, 1.7103911396152513E9, 0.0, 2024-03-13 21:38:59.615
42.0, 203.72170033631846, 95.990142212715, -39.405455883126706, 89.72767973691225, 0.5280000250786543, 0.6720000319182873, 0.6240000296384096, 0.0, 0.0, 0.0, 0.0, 0.0, 1.7103911396307576E9, 0.0, 2024-03-13 21:38:59.630
42.0, 209.46618666825816, 102.37415143707767, -41.862570154014975, 96.1939667603001, 0.5280000250786543, 0.6720000319182873, 0.6240000296384096, 0.0, 0.0, 0.0, 0.0, 0.0, 1.7103911396307576E9, 0.0, 2024-03-13 21:38:59.630
43.0, 201.04767186800018, 99.4345900719054, -28.862677908036858, 105.35672165174037, 0.5280000250786543, 0.6720000319182873, 0.6240000296384096, 0.0, 0.0, 0.0, 0.0, 0.0, 1.7103911396314387E9, 0.0, 2024-03-13 21:38:59.631
43.0, 193.51177345728502, 93.89579823752865, -43.459507435094565, 96.40340115781873, 0.5280000250786543, 0.6720000319182873, 0.6240000296384096, 0.0, 0.0, 0.0, 0.0, 0.0, 1.7103911396314387E9, 0.0, 2024-03-13 21:38:59.631
44.0, 205.8945822105743, 99.16905717505142, -38.249826796818525, 93.28432459477335, 0.5280000250786543, 0.6720000319182873, 0.6240000296384096, 0.0, 0.0, 0.0, 0.0, 0.0, 1.710391139644996E9, 0.0, 2024-03-13 21:38:59.644
44.0, 203.91991503397003, 99.93573666596785, -27.09744512895122, 96.07802986167371, 0.5280000250786543, 0.6720000319182873, 0.6240000296384096, 0.0, 0.0, 0.0, 0.0, 0.0, 1.710391139644996E9, 0.0, 2024-03-13 21:38:59.644
45.0, 195.46774113411084, 93.39091174351051, -44.88066941825673, 95.34874937031418, 0.5280000250786543, 0.6720000319182873, 0.6240000296384096, 0.0, 0.0, 0.0, 0.0, 0.0, 1.710391139660802E9, 0.0, 2024-03-13 21:38:59.660
45.0, 205.56921091442928, 98.43229688378051, -56.702493178192526, 86.48144657537341, 0.5280000250786543, 0.6720000319182873, 0.6240000296384096, 0.0, 0.0, 0.0, 0.0, 0.0, 1.710391139660802E9, 0.0, 2024-03-13 21:38:59.660
46.0, 222.87372800940648, 106.11779129272327, -31.383370478171855, 92.50268550403416, 0.5280000250786543, 0.6720000319182873, 0.6240000296384096, 0.0, 0.0, 0.0, 0.0, 0.0, 1.710391139661669E9, 0.0, 2024-03-13 21:38:59.661
46.0, 210.06831056112424, 102.67334343353286, -41.75037315534428, 96.81105025298893, 0.5280000250786543, 0.6720000319182873, 0.6240000296384096, 0.0, 0.0, 0.0, 0.0, 0.0, 1.710391139661669E9, 0.0, 2024-03-13 21:38:59.661
47.0, 213.303324022796, 99.8048401675187, -44.94050781754777, 92.51764510385692, 0.5280000250786543, 0.6720000319182873, 0.6240000296384096, 0.0, 0.0, 0.0, 0.0, 0.0, 1.7103911396749752E9, 0.0, 2024-03-13 21:38:59.674
47.0, 225.3121427805163, 107.34821837814525, -40.49002687027678, 89.84735653549433, 0.5280000250786543, 0.6720000319182873, 0.6240000296384096, 0.0, 0.0, 0.0, 0.0, 0.0, 1.7103911396749752E9, 0.0, 2024-03-13 21:38:59.674
48.0, 218.3073101635091, 104.85370510770008, -29.333905302453786, 93.47879939246923, 0.5280000250786543, 0.6720000319182873, 0.6240000296384096, 0.0, 0.0, 0.0, 0.0, 0.0, 1.7103911396907032E9, 0.0, 2024-03-13 21:38:59.690
48.0, 213.29210432292894, 102.7331818328239, -41.21556746168062, 89.49206603970379, 0.5280000250786543, 0.6720000319182873, 0.6240000296384096, 0.0, 0.0, 0.0, 0.0, 0.0, 1.7103911396907032E9, 0.0, 2024-03-13 21:38:59.690
49.0, 220.92150023253635, 102.2544746384956, -49.095536668319255, 87.03121186885983, 0.5280000250786543, 0.6720000319182873, 0.6240000296384096, 0.0, 0.0, 0.0, 0.0, 0.0, 1.7103911396914294E9, 0.0, 2024-03-13 21:38:59.691
49.0, 209.1894340715371, 92.85984594980255, -42.625509744975716, 84.95930729340762, 0.5280000250786543, 0.6720000319182873, 0.6240000296384096, 0.0, 0.0, 0.0, 0.0, 0.0, 1.7103911396914294E9, 0.0, 2024-03-13 21:38:59.691
50.0, 205.99555950937793, 93.73872243938968, -43.15283563872799, 84.57035769801587, 0.5280000250786543, 0.6720000319182873, 0.6240000296384096, 0.0, 0.0, 0.0, 0.0, 0.0, 1.7103911397049842E9, 0.0, 2024-03-13 21:38:59.704
50.0, 209.9000150631182, 93.92197753721848, -54.705386601854116, 82.16186212655157, 0.5280000250786543, 0.6720000319182873, 0.6240000296384096, 0.0, 0.0, 0.0, 0.0, 0.0, 1.7103911397049842E9, 0.0, 2024-03-13 21:38:59.704
51.0, 207.4503805921413, 95.18232382228598, -38.76967289065942, 83.1155366152525, 0.5280000250786543, 0.6720000319182873, 0.6240000296384096, 0.0, 0.0, 0.0, 0.0, 0.0, 1.7103911397206862E9, 0.0, 2024-03-13 21:38:59.720
51.0, 188.0290801222436, 88.77213529823348, -46.51126579893753, 89.54068473912776, 0.5280000250786543, 0.6720000319182873, 0.6240000296384096, 0.0, 0.0, 0.0, 0.0, 0.0, 1.7103911397206862E9, 0.0, 2024-03-13 21:38:59.720
52.0, 192.31874537141994, 83.99628305481747, -51.80322423623875, 84.55165819823742, 0.5280000250786543, 0.6720000319182873, 0.6240000296384096, 0.0, 0.0, 0.0, 0.0, 0.0, 1.7103911397214365E9, 0.0, 2024-03-13 21:38:59.721
52.0, 203.10461684362963, 90.63460547616705, -46.238253102172166, 92.49146580416709, 0.5280000250786543, 0.6720000319182873, 0.6240000296384096, 0.0, 0.0, 0.0, 0.0, 0.0, 1.7103911397214365E9, 0.0, 2024-03-13 21:38:59.721
53.0, 192.19158877292648, 97.45618299534544, -32.90924966009334, 95.63298176694661, 0.5280000250786543, 0.6720000319182873, 0.6240000296384096, 0.0, 0.0, 0.0, 0.0, 0.0, 1.710391139735479E9, 0.0, 2024-03-13 21:38:59.735
53.0, 197.1843552137725, 100.25736806215718, -44.37952282419428, 97.0466639501974, 0.5280000250786543, 0.6720000319182873, 0.6240000296384096, 0.0, 0.0, 0.0, 0.0, 0.0, 1.710391139735479E9, 0.0, 2024-03-13 21:38:59.735
54.0, 215.92873379169032, 107.53147347597405, -32.65867636306211, 102.12544809002429, 0.5280000250786543, 0.6720000319182873, 0.6240000296384096, 0.0, 0.0, 0.0, 0.0, 0.0, 1.7103911397507129E9, 0.0, 2024-03-13 21:38:59.750
54.0, 205.8197842114605, 103.8850710191764, -22.430049984250218, 99.38784132245928, 0.5280000250786543, 0.6720000319182873, 0.6240000296384096, 0.0, 0.0, 0.0, 0.0, 0.0, 1.7103911397507129E9, 0.0, 2024-03-13 21:38:59.750
55.0, 206.45556720392779, 108.1822160682641, -33.23462095623836, 106.04112334363163, 0.5280000250786543, 0.6720000319182873, 0.6240000296384096, 0.0, 0.0, 0.0, 0.0, 0.0, 1.7103911397514105E9, 0.0, 2024-03-13 21:38:59.751
55.0, 215.91377419186756, 101.50649464735761, -41.12580986274406, 93.92384748719633, 0.5280000250786543, 0.6720000319182873, 0.6240000296384096, 0.0, 0.0, 0.0, 0.0, 0.0, 1.7103911397514105E9, 0.0, 2024-03-13 21:38:59.751
56.0, 213.6735741184093, 97.83765279082581, -32.46794146532193, 90.87208912335336, 0.5280000250786543, 0.6720000319182873, 0.6240000296384096, 0.0, 0.0, 0.0, 0.0, 0.0, 1.710391139765401E9, 0.0, 2024-03-13 21:38:59.765
56.0, 208.20210048323497, 99.96565586561337, -40.33669097209349, 99.61223531980067, 0.5280000250786543, 0.6720000319182873, 0.6240000296384096, 0.0, 0.0, 0.0, 0.0, 0.0, 1.710391139765401E9, 0.0, 2024-03-13 21:38:59.765
57.0, 214.65716780675575, 100.59395905816928, -36.72768751485273, 94.40255468152463, 0.5280000250786543, 0.6720000319182873, 0.6240000296384096, 0.0, 0.0, 0.0, 0.0, 0.0, 1.7103911397807107E9, 0.0, 2024-03-13 21:38:59.780
57.0, 228.25918394559994, 108.70580206206068, -33.06258555827662, 94.99345887452364, 0.5280000250786543, 0.6720000319182873, 0.6240000296384096, 0.0, 0.0, 0.0, 0.0, 0.0, 1.7103911397807107E9, 0.0, 2024-03-13 21:38:59.780
58.0, 222.3464021156542, 110.5907116397284, -33.59365135198459, 98.47530573327094, 0.5280000250786543, 0.6720000319182873, 0.6240000296384096, 0.0, 0.0, 0.0, 0.0, 0.0, 1.7103911397814493E9, 0.0, 2024-03-13 21:38:59.781
58.0, 218.6065021599643, 107.35195827810094, -59.585956044029444, 83.12675631511956, 0.5280000250786543, 0.6720000319182873, 0.6240000296384096, 0.0, 0.0, 0.0, 0.0, 0.0, 1.7103911397814493E9, 0.0, 2024-03-13 21:38:59.781
59.0, 232.7994224918075, 112.1091110217385, -44.686194620560855, 90.31110412999988, 0.5280000250786543, 0.6720000319182873, 0.6240000296384096, 0.0, 0.0, 0.0, 0.0, 0.0, 1.7103911397949789E9, 0.0, 2024-03-13 21:38:59.794
59.0, 224.02935709571466, 106.94056928297505, -36.47337431786582, 96.42958045750856, 0.5280000250786543, 0.6720000319182873, 0.6240000296384096, 0.0, 0.0, 0.0, 0.0, 0.0, 1.7103911397949789E9, 0.0, 2024-03-13 21:38:59.794
60.0, 212.84331632824615, 99.22515567438677, -41.22678716154769, 91.84072321187705, 0.5280000250786543, 0.6720000319182873, 0.6240000296384096, 0.0, 0.0, 0.0, 0.0, 0.0, 1.7103911398106868E9, 0.0, 2024-03-13 21:38:59.810
60.0, 221.46752562606707, 105.78868009662256, -46.44394759973511, 91.99779901001602, 0.5280000250786543, 0.6720000319182873, 0.6240000296384096, 0.0, 0.0, 0.0, 0.0, 0.0, 1.7103911398106868E9, 0.0, 2024-03-13 21:38:59.810
61.0, 222.0920889186673, 108.56742576370016, -33.72080795047805, 93.17960739601403, 0.5280000250786543, 0.6720000319182873, 0.6240000296384096, 0.0, 0.0, 0.0, 0.0, 0.0, 1.7103911398114135E9, 0.0, 2024-03-13 21:38:59.811
61.0, 208.77056527649984, 102.47886863583699, -31.678822574671358, 92.7121199015528, 0.5280000250786543, 0.6720000319182873, 0.6240000296384096, 0.0, 0.0, 0.0, 0.0, 0.0, 1.7103911398114135E9, 0.0, 2024-03-13 21:38:59.811
62.0, 204.7838319237344, 98.00220838887617, -37.393389706965536, 92.81309720035642, 0.5280000250786543, 0.6720000319182873, 0.6240000296384096, 0.0, 0.0, 0.0, 0.0, 0.0, 1.710391139824945E9, 0.0, 2024-03-13 21:38:59.824
62.0, 213.84186961641535, 106.30478629050776, -33.63853015145287, 98.62490173149854, 0.5280000250786543, 0.6720000319182873, 0.6240000296384096, 0.0, 0.0, 0.0, 0.0, 0.0, 1.710391139824945E9, 0.0, 2024-03-13 21:38:59.824
63.0, 200.58018437353894, 100.2910271617584, -37.72998070297763, 97.94050003960729, 0.5280000250786543, 0.6720000319182873, 0.6240000296384096, 0.0, 0.0, 0.0, 0.0, 0.0, 1.7103911398406868E9, 0.0, 2024-03-13 21:38:59.840
63.0, 198.8149515944533, 94.97662932472304, -45.9652404054068, 90.67761432565749, 0.5280000250786543, 0.6720000319182873, 0.6240000296384096, 0.0, 0.0, 0.0, 0.0, 0.0, 1.7103911398406868E9, 0.0, 2024-03-13 21:38:59.840
64.0, 200.5951439733617, 89.65849158773199, -48.82626387150958, 83.45960741117597, 0.5280000250786543, 0.6720000319182873, 0.6240000296384096, 0.0, 0.0, 0.0, 0.0, 0.0, 1.710391139841437E9, 0.0, 2024-03-13 21:38:59.841
64.0, 191.38377038249746, 88.54774130089208, -36.619230416137725, 92.17731420788914, 0.5280000250786543, 0.6720000319182873, 0.6240000296384096, 0.0, 0.0, 0.0, 0.0, 0.0, 1.710391139841437E9, 0.0, 2024-03-13 21:38:59.841
65.0, 192.46834136964753, 86.5768140242435, -37.060538610909134, 87.76049236021936, 0.5280000250786543, 0.6720000319182873, 0.6240000296384096, 0.0, 0.0, 0.0, 0.0, 0.0, 1.7103911398550413E9, 0.0, 2024-03-13 21:38:59.855
65.0, 204.44350102776662, 95.42541731940582, -40.602223868947476, 94.70174667797983, 0.5280000250786543, 0.6720000319182873, 0.6240000296384096, 0.0, 0.0, 0.0, 0.0, 0.0, 1.7103911398550413E9, 0.0, 2024-03-13 21:38:59.855
66.0, 212.09533633710817, 100.29850696166977, -33.26828005583957, 100.73420530650765, 0.5280000250786543, 0.6720000319182873, 0.6240000296384096, 0.0, 0.0, 0.0, 0.0, 0.0, 1.7103911398707688E9, 0.0, 2024-03-13 21:38:59.870
66.0, 199.87334328191355, 96.92885710159317, -40.598483968991786, 89.94459393434227, 0.5280000250786543, 0.6720000319182873, 0.6240000296384096, 0.0, 0.0, 0.0, 0.0, 0.0, 1.7103911398707688E9, 0.0, 2024-03-13 21:38:59.870
67.0, 207.7832316881977, 98.43977668369189, -44.46180062321946, 89.61174283828586, 0.5280000250786543, 0.6720000319182873, 0.6240000296384096, 0.0, 0.0, 0.0, 0.0, 0.0, 1.710391139871439E9, 0.0, 2024-03-13 21:38:59.871
67.0, 220.21465914091095, 106.10283169290051, -31.503047276753932, 106.05982284341007, 0.5280000250786543, 0.6720000319182873, 0.6240000296384096, 0.0, 0.0, 0.0, 0.0, 0.0, 1.710391139871439E9, 0.0, 2024-03-13 21:38:59.871
68.0, 221.37402812717482, 112.1465100212954, -26.36816463759169, 99.1559675252065, 0.5280000250786543, 0.6720000319182873, 0.6240000296384096, 0.0, 0.0, 0.0, 0.0, 0.0, 1.7103911398850446E9, 0.0, 2024-03-13 21:38:59.885
68.0, 224.2761904927902, 112.38212371850386, -32.11639086948708, 107.91481322143227, 0.5280000250786543, 0.6720000319182873, 0.6240000296384096, 0.0, 0.0, 0.0, 0.0, 0.0, 1.7103911398850446E9, 0.0, 2024-03-13 21:38:59.885
69.0, 230.4283259199001, 111.60422452772036, -37.3335513076745, 100.04232381470501, 0.5280000250786543, 0.6720000319182873, 0.6240000296384096, 0.0, 0.0, 0.0, 0.0, 0.0, 1.7103911399006712E9, 0.0, 2024-03-13 21:38:59.900
69.0, 224.11537479469553, 116.80268546612933, -22.157037287484854, 108.58051541354507, 0.5280000250786543, 0.6720000319182873, 0.6240000296384096, 0.0, 0.0, 0.0, 0.0, 0.0, 1.7103911399006712E9, 0.0, 2024-03-13 21:38:59.900
70.0, 217.69396657077596, 107.38561737770215, -33.91154284821823, 102.0880490904674, 0.5280000250786543, 0.6720000319182873, 0.6240000296384096, 0.0, 0.0, 0.0, 0.0, 0.0, 1.7103911399013937E9, 0.0, 2024-03-13 21:38:59.901
70.0, 223.78252369863912, 111.83609832497314, -37.041839111130685, 100.8613619050011, 0.5280000250786543, 0.6720000319182873, 0.6240000296384096, 0.0, 0.0, 0.0, 0.0, 0.0, 1.7103911399013937E9, 0.0, 2024-03-13 21:38:59.901
