%OpenBCI Raw EXG Data
%Number of channels = 4
%Sample Rate = 200 Hz
%Board = OpenBCI_GUI$BoardGanglionBLE
Sample Index, EXG Channel 0, EXG Channel 1, EXG Channel 2, EXG Channel 3, Accel Channel 0, Accel Channel 1, Accel Channel 2, Other, Other, Other, Other, Other, Timestamp, Other, Timestamp (Formatted)
0.0, 178.13330483948812, 41.69053475605324, -128.60580972628668, 34.90261633647606, 0.0, 0.0, 0.0, 0.0, 0.0, 0.0, 0.0, 0.0, 1.7103914179538407E9, 0.0, 2024-03-13 21:43:37.953
1.0, 183.1821697796695, 45.14246241515502, -104.59565201075748, 33.9227625480853, 0.0, 0.8160000387579203, 0.0, 0.0, 0.0, 0.0, 0.0, 0.0, 1.710391417966993E9, 0.0, 2024-03-13 21:43:37.966
1.0, 152.2756365458481, 35.60197762819007, -97.45244309538975, 25.12651785230264, 0.0, 0.8160000387579203, 0.0, 0.0, 0.0, 0.0, 0.0, 0.0, 1.710391417966993E9, 0.0, 2024-03-13 21:43:37.966
2.0, 172.45987660670653, 43.6315428330563, -110.52339344052598, 34.4426086419262, 0.5120000243186951, 0.8160000387579203, 0.0, 0.0, 0.0, 0.0, 0.0, 0.0, 1.710391417983715E9, 0.0, 2024-03-13 21:43:37.983
2.0, 178.83640603115782, 53.59463631501421, -102.64342423388734, 44.46554052317515, 0.5120000243186951, 0.8160000387579203, 0.0, 0.0, 0.0, 0.0, 0.0, 0.0, 1.710391417983715E9, 0.0, 2024-03-13 21:43:37.983
3.0, 173.60802589310333, 48.732766372617334, -110.29899944318458, 34.192035344894975, 0.5120000243186951, 0.8160000387579203, 0.0, 0.0, 0.0, 0.0, 0.0, 0.0, 1.7103914179844828E9, 0.0, 2024-03-13 21:43:37.984
3.0, 168.4320043544285, 43.65024233283475, -106.2524276911281, 37.797298902180046, 0.5120000243186951, 0.8160000387579203, 0.0, 0.0, 0.0, 0.0, 0.0, 0.0, 1.7103914179844828E9, 0.0, 2024-03-13 21:43:37.984
4.0, 168.7985145500861, 49.69392066122964, -106.79845308465883, 46.51500569889322, 0.5120000243186951, 0.8160000387579203, 0.0, 0.0, 0.0, 0.0, 0.0, 0.0, 1.7103914180132809E9, 0.0, 2024-03-13 21:43:38.013
4.0, 171.83157341415063, 50.292304654140025, -88.7646554983221, 48.39991527656093, 0.5120000243186951, 0.8160000387579203, 0.0, 0.0, 0.0, 0.0, 0.0, 0.0, 1.7103914180132809E9, 0.0, 2024-03-13 21:43:38.013
5.0, 178.41379733616486, 57.73470556596294, -77.56739503098652, 53.63203531457111, 0.5120000243186951, 0.8160000387579203, 0.0, 0.0, 0.0, 0.0, 0.0, 0.0, 1.7103914180139284E9, 0.0, 2024-03-13 21:43:38.013
5.0, 172.78898780280724, 43.070557839702815, -115.3703037831001, 38.78837239043787, 0.5120000243186951, 0.8160000387579203, 0.0, 0.0, 0.0, 0.0, 0.0, 0.0, 1.7103914180139284E9, 0.0, 2024-03-13 21:43:38.013
6.0, 184.2517811669968, 58.1947132605128, -91.15819146996364, 48.643008773680776, 0.5120000243186951, 0.8160000387579203, 0.0, 0.0, 0.0, 0.0, 0.0, 0.0, 1.7103914180146856E9, 0.0, 2024-03-13 21:43:38.014
6.0, 155.1703191115521, 37.879576701205224, -98.11814528750256, 32.11639086948708, 0.5120000243186951, 0.8160000387579203, 0.0, 0.0, 0.0, 0.0, 0.0, 0.0, 1.7103914180146856E9, 0.0, 2024-03-13 21:43:38.014
7.0, 152.25693704606965, 33.372997254598886, -123.74767968384549, 26.667356634046882, 0.5120000243186951, 0.8160000387579203, 0.0, 0.0, 0.0, 0.0, 0.0, 0.0, 1.7103914180268548E9, 0.0, 2024-03-13 21:43:38.026
7.0, 157.69475158164278, 41.088410863187164, -113.35075780702755, 32.85315116075799, 0.5120000243186951, 0.8160000387579203, 0.0, 0.0, 0.0, 0.0, 0.0, 0.0, 1.7103914180268548E9, 0.0, 2024-03-13 21:43:38.026
8.0, 161.6927046342753, 42.285178849007934, -97.53472089441493, 38.204947997350246, 0.5120000243186951, 0.8160000387579203, 0.0, 0.0, 0.0, 0.0, 0.0, 0.0, 1.7103914180589533E9, 0.0, 2024-03-13 21:43:38.058
8.0, 173.08443989930674, 50.931827546563, -95.33565972046927, 43.95691412920132, 0.5120000243186951, 0.8160000387579203, 0.0, 0.0, 0.0, 0.0, 0.0, 0.0, 1.7103914180589533E9, 0.0, 2024-03-13 21:43:38.058
9.0, 177.9575295415707, 51.28337814239785, -102.01886094128713, 47.483639787416905, 0.5120000243186951, 0.8160000387579203, 0.0, 0.0, 0.0, 0.0, 0.0, 0.0, 1.7103914180596297E9, 0.0, 2024-03-13 21:43:38.059
9.0, 182.2210154910572, 64.16733348974958, -73.36748738074675, 57.581369667779654, 0.5120000243186951, 0.8160000387579203, 0.0, 0.0, 0.0, 0.0, 0.0, 0.0, 1.7103914180596297E9, 0.0, 2024-03-13 21:43:38.059
10.0, 168.97054994804785, 49.69018076127395, -91.1357520702295, 39.850503977853805, 0.5120000243186951, 0.8160000387579203, 0.41600001975893974, 0.0, 0.0, 0.0, 0.0, 0.0, 1.7103914180603373E9, 0.0, 2024-03-13 21:43:38.060
10.0, 172.695490303915, 51.85558283561841, -120.14615602651611, 37.28119270829484, 0.5120000243186951, 0.8160000387579203, 0.41600001975893974, 0.0, 0.0, 0.0, 0.0, 0.0, 1.7103914180603373E9, 0.0, 2024-03-13 21:43:38.060
11.0, 191.46604818152264, 75.01304336125031, -77.77308952854946, 62.87706800503656, 0.5120000243186951, 0.8160000387579203, 0.41600001975893974, 0.0, 0.0, 0.0, 0.0, 0.0, 1.7103914180611224E9, 0.0, 2024-03-13 21:43:38.061
11.0, 166.5059558772482, 51.8219237360172, -100.94550965400413, 31.843378172721714, 0.5120000243186951, 0.8160000387579203, 0.41600001975893974, 0.0, 0.0, 0.0, 0.0, 0.0, 1.7103914180611224E9, 0.0, 2024-03-13 21:43:38.061
12.0, 158.70078466972336, 34.46878794161603, -126.49276625132188, 23.623078070115298, 0.49600002355873585, 0.8160000387579203, 0.41600001975893974, 0.0, 0.0, 0.0, 0.0, 0.0, 1.7103914180722265E9, 0.0, 2024-03-13 21:43:38.072
12.0, 170.59366652881727, 48.99829926947132, -107.38561737770215, 37.3335513076745, 0.49600002355873585, 0.8160000387579203, 0.41600001975893974, 0.0, 0.0, 0.0, 0.0, 0.0, 1.7103914180722265E9, 0.0, 2024-03-13 21:43:38.072
13.0, 170.765701926779, 47.27794528985396, -95.83306641457602, 30.38855708995834, 0.49600002355873585, 0.8160000387579203, 0.41600001975893974, 0.0, 0.0, 0.0, 0.0, 0.0, 1.71039141808715E9, 0.0, 2024-03-13 21:43:38.087
13.0, 165.3204075912945, 45.26587911369279, -100.73607525648549, 35.366363930981606, 0.49600002355873585, 0.8160000387579203, 0.41600001975893974, 0.0, 0.0, 0.0, 0.0, 0.0, 1.71039141808715E9, 0.0, 2024-03-13 21:43:38.087
14.0, 174.46446298295632, 50.681254249531776, -112.20634842058644, 39.52513268170878, 0.49600002355873585, 0.8160000387579203, 0.41600001975893974, 0.0, 0.0, 0.0, 0.0, 0.0, 1.7103914181025555E9, 0.0, 2024-03-13 21:43:38.102
14.0, 165.18577119288966, 48.97211996978149, -92.59057315299287, 40.43766827089712, 0.49600002355873585, 0.8160000387579203, 0.41600001975893974, 0.0, 0.0, 0.0, 0.0, 0.0, 1.7103914181025555E9, 0.0, 2024-03-13 21:43:38.102
15.0, 155.60414750641212, 35.845071125309914, -110.2915196432732, 24.849765255581588, 0.49600002355873585, 0.8160000387579203, 0.41600001975893974, 0.0, 0.0, 0.0, 0.0, 0.0, 1.7103914181038213E9, 0.0, 2024-03-13 21:43:38.103
15.0, 165.52610208885744, 45.71840700833127, -120.72210061969236, 27.665909922216088, 0.49600002355873585, 0.8160000387579203, 0.41600001975893974, 0.0, 0.0, 0.0, 0.0, 0.0, 1.7103914181038213E9, 0.0, 2024-03-13 21:43:38.103
16.0, 164.8716195966117, 49.895875258836895, -114.79061928996816, 30.00708729447797, 0.49600002355873585, 0.8160000387579203, 0.41600001975893974, 0.0, 0.0, 0.0, 0.0, 0.0, 1.7103914181168206E9, 0.0, 2024-03-13 21:43:38.116
16.0, 156.17261229967698, 43.73999993177131, -112.71871471451595, 24.210242363158613, 0.49600002355873585, 0.8160000387579203, 0.41600001975893974, 0.0, 0.0, 0.0, 0.0, 0.0, 1.7103914181168206E9, 0.0, 2024-03-13 21:43:38.116
17.0, 171.72311631543562, 42.603070345241576, -126.4852864514105, 22.456229283940047, 0.49600002355873585, 0.8160000387579203, 0.41600001975893974, 0.0, 0.0, 0.0, 0.0, 0.0, 1.7103914181325097E9, 0.0, 2024-03-13 21:43:38.132
17.0, 170.23837603302673, 45.71092720841989, -131.0442244973965, 20.66107730520889, 0.49600002355873585, 0.8160000387579203, 0.41600001975893974, 0.0, 0.0, 0.0, 0.0, 0.0, 1.7103914181325097E9, 0.0, 2024-03-13 21:43:38.132
18.0, 157.6835318817757, 41.443701358977705, -113.24978050822392, 26.970288530457765, 0.49600002355873585, 0.8160000387579203, 0.41600001975893974, 0.0, 0.0, 0.0, 0.0, 0.0, 1.7103914181333864E9, 0.0, 2024-03-13 21:43:38.133
18.0, 160.4622775488533, 37.079238110687584, -116.50723336962983, 27.90152361942455, 0.49600002355873585, 0.8160000387579203, 0.41600001975893974, 0.0, 0.0, 0.0, 0.0, 0.0, 1.7103914181333864E9, 0.0, 2024-03-13 21:43:38.133
19.0, 176.0277411644347, 44.226186926010996, -113.97158119967207, 37.427048806566745, 0.49600002355873585, 0.8160000387579203, 0.41600001975893974, 0.0, 0.0, 0.0, 0.0, 0.0, 1.7103914181469128E9, 0.0, 2024-03-13 21:43:38.146
19.0, 155.41715250862762, 47.865109582897276, -98.86238537868485, 37.370950307231396, 0.49600002355873585, 0.8160000387579203, 0.41600001975893974, 0.0, 0.0, 0.0, 0.0, 0.0, 1.7103914181469128E9, 0.0, 2024-03-13 21:43:38.146
20.0, 160.6156134470366, 42.681608244311064, -106.16267009219155, 25.825879144016653, 0.49600002355873585, 0.8160000387579203, 0.41600001975893974, 0.0, 0.0, 0.0, 0.0, 0.0, 1.7103914181625605E9, 0.0, 2024-03-13 21:43:38.162
20.0, 159.68063845811412, 37.24379370873794, -137.95181971555576, 19.239915322046727, 0.49600002355873585, 0.8160000387579203, 0.41600001975893974, 0.0, 0.0, 0.0, 0.0, 0.0, 1.7103914181625605E9, 0.0, 2024-03-13 21:43:38.162
21.0, 163.10264691757038, 51.19362054346129, -108.79929956095293, 38.31340509606525, 0.49600002355873585, 0.8160000387579203, 0.41600001975893974, 0.0, 0.0, 0.0, 0.0, 0.0, 1.7103914181632497E9, 0.0, 2024-03-13 21:43:38.163
21.0, 186.17408974422142, 64.70213918341324, -82.12633307697251, 49.76497876038775, 0.49600002355873585, 0.8160000387579203, 0.41600001975893974, 0.0, 0.0, 0.0, 0.0, 0.0, 1.7103914181632497E9, 0.0, 2024-03-13 21:43:38.163
22.0, 188.04777962202206, 62.420800210442394, -104.27028071461245, 45.59125040983781, 0.49600002355873585, 0.8160000387579203, 0.41600001975893974, 0.0, 0.0, 0.0, 0.0, 0.0, 1.710391418176904E9, 0.0, 2024-03-13 21:43:38.176
22.0, 180.65025750966743, 61.81493641762063, -107.42301637725905, 43.9269949295558, 0.49600002355873585, 0.8160000387579203, 0.41600001975893974, 0.0, 0.0, 0.0, 0.0, 0.0, 1.710391418176904E9, 0.0, 2024-03-13 21:43:38.176
23.0, 166.71539027476683, 53.519838315900415, -101.6972295450978, 40.70694106770679, 0.49600002355873585, 0.8160000387579203, 0.41600001975893974, 0.0, 0.0, 0.0, 0.0, 0.0, 1.710391418192518E9, 0.0, 2024-03-13 21:43:38.192
23.0, 148.3524814923294, 37.27745280833915, -117.46464775828645, 26.34572523785755, 0.49600002355873585, 0.8160000387579203, 0.41600001975893974, 0.0, 0.0, 0.0, 0.0, 0.0, 1.710391418192518E9, 0.0, 2024-03-13 21:43:38.192
24.0, 174.7636549794115, 54.53709110384807, -115.93502867640927, 40.16839547408745, 0.49600002355873585, 0.8160000387579203, 0.41600001975893974, 0.0, 0.0, 0.0, 0.0, 0.0, 1.710391418193266E9, 0.0, 2024-03-13 21:43:38.193
24.0, 153.14329333556816, 37.95437470031902, -106.38332418957725, 35.28408613195643, 0.49600002355873585, 0.8160000387579203, 0.41600001975893974, 0.0, 0.0, 0.0, 0.0, 0.0, 1.710391418193266E9, 0.0, 2024-03-13 21:43:38.193
25.0, 154.63551341788843, 33.15608305716887, -114.63354349182919, 25.328472449909896, 0.49600002355873585, 0.8160000387579203, 0.41600001975893974, 0.0, 0.0, 0.0, 0.0, 0.0, 1.7103914182072518E9, 0.0, 2024-03-13 21:43:38.207
25.0, 177.9163906420581, 50.254905654583126, -101.37185824895278, 43.474467034917325, 0.49600002355873585, 0.8160000387579203, 0.41600001975893974, 0.0, 0.0, 0.0, 0.0, 0.0, 1.7103914182072518E9, 0.0, 2024-03-13 21:43:38.207
26.0, 172.25792200909927, 54.65302800247446, -87.49308951338753, 52.97755282232538, 0.49600002355873585, 0.8160000387579203, 0.41600001975893974, 0.0, 0.0, 0.0, 0.0, 0.0, 1.7103914182229052E9, 0.0, 2024-03-13 21:43:38.222
26.0, 173.83615979040042, 59.67945354292169, -85.316467739176, 51.04028464527801, 0.49600002355873585, 0.8160000387579203, 0.41600001975893974, 0.0, 0.0, 0.0, 0.0, 0.0, 1.7103914182229052E9, 0.0, 2024-03-13 21:43:38.222
27.0, 191.5932047800161, 69.55652932589874, -98.14806448714808, 54.290257706772536, 0.49600002355873585, 0.8160000387579203, 0.41600001975893974, 0.0, 0.0, 0.0, 0.0, 0.0, 1.710391418223592E9, 0.0, 2024-03-13 21:43:38.223
27.0, 189.89903010008857, 75.05792216071859, -81.77478248113766, 67.00591755611822, 0.49600002355873585, 0.8160000387579203, 0.41600001975893974, 0.0, 0.0, 0.0, 0.0, 0.0, 1.710391418223592E9, 0.0, 2024-03-13 21:43:38.223
28.0, 172.5496342056431, 55.894674787763506, -88.19619070505723, 44.77595221949741, 0.49600002355873585, 0.8160000387579203, 0.41600001975893974, 0.0, 0.0, 0.0, 0.0, 0.0, 1.710391418237324E9, 0.0, 2024-03-13 21:43:38.237
28.0, 187.53167342813686, 60.719145730603486, -92.12308565853164, 50.91312804678455, 0.49600002355873585, 0.8160000387579203, 0.41600001975893974, 0.0, 0.0, 0.0, 0.0, 0.0, 1.710391418237324E9, 0.0, 2024-03-13 21:43:38.237
29.0, 164.45275080157444, 48.6355289737694, -120.71836071973667, 39.15862248605117, 0.49600002355873585, 0.8160000387579203, 0.41600001975893974, 0.0, 0.0, 0.0, 0.0, 0.0, 1.7103914182530563E9, 0.0, 2024-03-13 21:43:38.253
29.0, 176.04270076425746, 57.32331657083705, -87.81846080953255, 50.39328195294365, 0.49600002355873585, 0.8160000387579203, 0.41600001975893974, 0.0, 0.0, 0.0, 0.0, 0.0, 1.7103914182530563E9, 0.0, 2024-03-13 21:43:38.253
30.0, 176.57002665800974, 58.50512495683506, -85.6493188352324, 51.17118114372715, 0.49600002355873585, 0.8160000387579203, 0.41600001975893974, 0.0, 0.0, 0.0, 0.0, 0.0, 1.7103914182533116E9, 0.0, 2024-03-13 21:43:38.253
30.0, 192.00833367509767, 66.81144275842234, -97.01113490061834, 58.19845316046849, 0.49600002355873585, 0.8160000387579203, 0.41600001975893974, 0.0, 0.0, 0.0, 0.0, 0.0, 1.7103914182533116E9, 0.0, 2024-03-13 21:43:38.253
31.0, 195.5200997334905, 78.38269322132692, -72.09592139581218, 67.98203144455329, 0.49600002355873585, 0.8320000395178795, 0.41600001975893974, 0.0, 0.0, 0.0, 0.0, 0.0, 1.7103914182668593E9, 0.0, 2024-03-13 21:43:38.266
31.0, 192.01581347500905, 68.77489023515955, -66.57582906121388, 62.65641390765086, 0.49600002355873585, 0.8320000395178795, 0.41600001975893974, 0.0, 0.0, 0.0, 0.0, 0.0, 1.7103914182668593E9, 0.0, 2024-03-13 21:43:38.266
32.0, 190.13090389734134, 69.04790293192491, -95.90786441368982, 55.20279329596087, 0.49600002355873585, 0.8320000395178795, 0.41600001975893974, 0.0, 0.0, 0.0, 0.0, 0.0, 1.7103914182825027E9, 0.0, 2024-03-13 21:43:38.282
32.0, 195.31066533597186, 81.2773757870309, -86.45339732570574, 65.67077327193692, 0.49600002355873585, 0.8320000395178795, 0.41600001975893974, 0.0, 0.0, 0.0, 0.0, 0.0, 1.7103914182825027E9, 0.0, 2024-03-13 21:43:38.282
33.0, 194.2560135484673, 79.53458240767941, -75.41695255646482, 65.04620997933671, 0.49600002355873585, 0.8320000395178795, 0.41600001975893974, 0.0, 0.0, 0.0, 0.0, 0.0, 1.7103914182832437E9, 0.0, 2024-03-13 21:43:38.283
33.0, 156.19505169941112, 43.64650243287906, -117.56188515713438, 28.944955707062036, 0.49600002355873585, 0.8320000395178795, 0.41600001975893974, 0.0, 0.0, 0.0, 0.0, 0.0, 1.7103914182832437E9, 0.0, 2024-03-13 21:43:38.283
34.0, 172.2467023092322, 52.285671330522746, -115.8527508773841, 38.93422848870978, 0.49600002355873585, 0.8320000395178795, 0.41600001975893974, 0.0, 0.0, 0.0, 0.0, 0.0, 1.7103914182968917E9, 0.0, 2024-03-13 21:43:38.296
34.0, 175.7285491679795, 60.15442083729431, -88.01293560722843, 44.99286641692743, 0.49600002355873585, 0.8320000395178795, 0.41600001975893974, 0.0, 0.0, 0.0, 0.0, 0.0, 1.7103914182968917E9, 0.0, 2024-03-13 21:43:38.296
35.0, 169.29966114414856, 47.29664478963241, -103.7354750209488, 28.230634815525264, 0.49600002355873585, 0.8320000395178795, 0.41600001975893974, 0.0, 0.0, 0.0, 0.0, 0.0, 1.7103914183124764E9, 0.0, 2024-03-13 21:43:38.312
35.0, 170.08878003479913, 45.81564440717921, -118.50433994596824, 28.35031161410734, 0.49600002355873585, 0.8320000395178795, 0.41600001975893974, 0.0, 0.0, 0.0, 0.0, 0.0, 1.7103914183124764E9, 0.0, 2024-03-13 21:43:38.312
36.0, 168.85461304942146, 48.83374367142096, -111.09559813374653, 25.769780644681305, 0.49600002355873585, 0.8320000395178795, 0.41600001975893974, 0.0, 0.0, 0.0, 0.0, 0.0, 1.710391418313642E9, 0.0, 2024-03-13 21:43:38.313
36.0, 165.69813748681918, 47.936167682055384, -93.62278554076329, 31.480607877019793, 0.49600002355873585, 0.8320000395178795, 0.41600001975893974, 0.0, 0.0, 0.0, 0.0, 0.0, 1.710391418313642E9, 0.0, 2024-03-13 21:43:38.313
37.0, 177.64337794529274, 56.23500568373129, -106.41324338922277, 32.976567859295756, 0.49600002355873585, 0.8320000395178795, 0.41600001975893974, 0.0, 0.0, 0.0, 0.0, 0.0, 1.7103914183268943E9, 0.0, 2024-03-13 21:43:38.326
37.0, 172.7665484030731, 50.99914574576542, -104.82378590805456, 31.63768367515877, 0.49600002355873585, 0.8320000395178795, 0.41600001975893974, 0.0, 0.0, 0.0, 0.0, 0.0, 1.7103914183268943E9, 0.0, 2024-03-13 21:43:38.326
38.0, 172.67679080413654, 51.964039934333414, -92.29886095644906, 32.12013076944277, 0.49600002355873585, 0.8320000395178795, 0.41600001975893974, 0.0, 0.0, 0.0, 0.0, 0.0, 1.710391418342527E9, 0.0, 2024-03-13 21:43:38.342
38.0, 145.47275852644816, 33.97512114746496, -94.6213388289325, 32.598837963771075, 0.49600002355873585, 0.8320000395178795, 0.41600001975893974, 0.0, 0.0, 0.0, 0.0, 0.0, 1.710391418342527E9, 0.0, 2024-03-13 21:43:38.342
39.0, 148.22158499388024, 26.128811040427536, -130.33364350581542, 19.90187761420384, 0.49600002355873585, 0.8320000395178795, 0.41600001975893974, 0.0, 0.0, 0.0, 0.0, 0.0, 1.7103914183432443E9, 0.0, 2024-03-13 21:43:38.343
39.0, 150.51414366671816, 36.00214692344889, -106.02055389387533, 29.255367403384298, 0.49600002355873585, 0.8320000395178795, 0.41600001975893974, 0.0, 0.0, 0.0, 0.0, 0.0, 1.7103914183432443E9, 0.0, 2024-03-13 21:43:38.343
40.0, 142.5631163609214, 26.525240435730666, -109.76793364947662, 23.432343172375113, 0.49600002355873585, 0.8320000395178795, 0.41600001975893974, 0.0, 0.0, 0.0, 0.0, 0.0, 1.7103914183571873E9, 0.0, 2024-03-13 21:43:38.357
40.0, 156.40448609692976, 37.834697901736945, -119.06906483927742, 29.281546703074127, 0.49600002355873585, 0.8320000395178795, 0.41600001975893974, 0.0, 0.0, 0.0, 0.0, 0.0, 1.7103914183571873E9, 0.0, 2024-03-13 21:43:38.357
41.0, 174.29990738490596, 57.79454396525398, -89.0264484952204, 50.62141585024074, 0.49600002355873585, 0.8320000395178795, 0.41600001975893974, 0.0, 0.0, 0.0, 0.0, 0.0, 1.71039141837278E9, 0.0, 2024-03-13 21:43:38.372
41.0, 173.47712939465418, 57.6748671666719, -90.42143117869273, 41.866310053970665, 0.49600002355873585, 0.8320000395178795, 0.41600001975893974, 0.0, 0.0, 0.0, 0.0, 0.0, 1.71039141837278E9, 0.0, 2024-03-13 21:43:38.372
42.0, 169.53153494140133, 53.160807920154184, -108.67214296245947, 40.75555976713076, 0.5120000243186951, 0.8320000395178795, 0.41600001975893974, 0.0, 0.0, 0.0, 0.0, 0.0, 1.7103914183734074E9, 0.0, 2024-03-13 21:43:38.373
42.0, 187.04922633385286, 64.33936888771132, -95.01402832427993, 47.00867249304429, 0.5120000243186951, 0.8320000395178795, 0.41600001975893974, 0.0, 0.0, 0.0, 0.0, 0.0, 1.7103914183734074E9, 0.0, 2024-03-13 21:43:38.373
43.0, 170.59366652881727, 58.385448158252984, -97.45244309538975, 37.52054630545899, 0.5120000243186951, 0.8320000395178795, 0.41600001975893974, 0.0, 0.0, 0.0, 0.0, 0.0, 1.7103914183870544E9, 0.0, 2024-03-13 21:43:38.387
43.0, 156.78595589241013, 42.59185064537451, -111.7014619265683, 34.11723734578118, 0.5120000243186951, 0.8320000395178795, 0.41600001975893974, 0.0, 0.0, 0.0, 0.0, 0.0, 1.7103914183870544E9, 0.0, 2024-03-13 21:43:38.387
44.0, 161.9470178312622, 37.59908420452848, -123.88605598220602, 32.598837963771075, 0.5120000243186951, 0.8320000395178795, 0.41600001975893974, 0.0, 0.0, 0.0, 0.0, 0.0, 1.710391418402608E9, 0.0, 2024-03-13 21:43:38.402
44.0, 170.73578272713348, 56.12654858501628, -93.25627534510568, 45.3743362124078, 0.5120000243186951, 0.8320000395178795, 0.41600001975893974, 0.0, 0.0, 0.0, 0.0, 0.0, 1.710391418402608E9, 0.0, 2024-03-13 21:43:38.402
45.0, 180.63529790984467, 56.97550587495789, -95.29826072091237, 41.98972675250843, 0.5120000243186951, 0.8320000395178795, 0.41600001975893974, 0.0, 0.0, 0.0, 0.0, 0.0, 1.7103914184032776E9, 0.0, 2024-03-13 21:43:38.403
45.0, 175.9529431653209, 53.0074720219709, -126.72464004857466, 32.4417621656321, 0.5120000243186951, 0.8320000395178795, 0.41600001975893974, 0.0, 0.0, 0.0, 0.0, 0.0, 1.7103914184032776E9, 0.0, 2024-03-13 21:43:38.403
46.0, 172.19808360980824, 59.533597444649786, -106.6226777867414, 43.72878023190424, 0.5120000243186951, 0.8320000395178795, 0.41600001975893974, 0.0, 0.0, 0.0, 0.0, 0.0, 1.7103914184169111E9, 0.0, 2024-03-13 21:43:38.416
46.0, 162.34718712652102, 43.35853013629094, -104.06084631709382, 36.38361671892926, 0.5120000243186951, 0.8320000395178795, 0.41600001975893974, 0.0, 0.0, 0.0, 0.0, 0.0, 1.7103914184169111E9, 0.0, 2024-03-13 21:43:38.416
47.0, 173.21907629771158, 49.73131966078654, -116.58203136874363, 39.58497108099982, 0.5120000243186951, 0.8320000395178795, 0.41600001975893974, 0.0, 0.0, 0.0, 0.0, 0.0, 1.71039141843256E9, 0.0, 2024-03-13 21:43:38.432
47.0, 167.10433987015858, 50.5989764505066, -115.1459097857587, 36.675328915473074, 0.5120000243186951, 0.8320000395178795, 0.41600001975893974, 0.0, 0.0, 0.0, 0.0, 0.0, 1.71039141843256E9, 0.0, 2024-03-13 21:43:38.432
48.0, 173.30509399669245, 52.83169672405347, -99.20645617460832, 41.021092663984746, 0.5120000243186951, 0.8320000395178795, 0.41600001975893974, 0.0, 0.0, 0.0, 0.0, 0.0, 1.7103914184331985E9, 0.0, 2024-03-13 21:43:38.433
48.0, 163.6898112106137, 51.98647933406755, -107.8830240718089, 37.49436700576916, 0.5120000243186951, 0.8320000395178795, 0.41600001975893974, 0.0, 0.0, 0.0, 0.0, 0.0, 1.7103914184331985E9, 0.0, 2024-03-13 21:43:38.433
49.0, 157.30954188620672, 50.50547895161435, -117.09065776271746, 37.000700211618096, 0.5120000243186951, 0.8320000395178795, 0.41600001975893974, 0.0, 0.0, 0.0, 0.0, 0.0, 1.7103914184467945E9, 0.0, 2024-03-13 21:43:38.446
49.0, 155.86220060335472, 44.79839161923155, -109.39768355386332, 38.986587088089436, 0.5120000243186951, 0.8320000395178795, 0.41600001975893974, 0.0, 0.0, 0.0, 0.0, 0.0, 1.7103914184467945E9, 0.0, 2024-03-13 21:43:38.446
50.0, 167.79248146200553, 48.60934967407957, -105.87469779560342, 33.27949975570664, 0.5120000243186951, 0.8320000395178795, 0.41600001975893974, 0.0, 0.0, 0.0, 0.0, 0.0, 1.710391418462486E9, 0.0, 2024-03-13 21:43:38.462
50.0, 170.07382043497637, 47.887548982631415, -138.00417831493542, 22.564686382655054, 0.5120000243186951, 0.8320000395178795, 0.41600001975893974, 0.0, 0.0, 0.0, 0.0, 0.0, 1.710391418462486E9, 0.0, 2024-03-13 21:43:38.462
51.0, 164.66218519909307, 52.360469329636544, -117.65538265602663, 27.755667521152645, 0.5120000243186951, 0.8320000395178795, 0.41600001975893974, 0.0, 0.0, 0.0, 0.0, 0.0, 1.7103914184631815E9, 0.0, 2024-03-13 21:43:38.463
51.0, 171.5099420179613, 58.119915261399, -99.74874166818336, 37.93941510049626, 0.5120000243186951, 0.8320000395178795, 0.41600001975893974, 0.0, 0.0, 0.0, 0.0, 0.0, 1.7103914184631815E9, 0.0, 2024-03-13 21:43:38.463
52.0, 169.83446683781222, 49.944493958260864, -123.58686398575082, 29.330165402498096, 0.5120000243186951, 0.8320000395178795, 0.41600001975893974, 0.0, 0.0, 0.0, 0.0, 0.0, 1.7103914184769013E9, 0.0, 2024-03-13 21:43:38.476
52.0, 170.23837603302673, 57.88804146414623, -116.60447076847777, 34.76797993807122, 0.5120000243186951, 0.8320000395178795, 0.41600001975893974, 0.0, 0.0, 0.0, 0.0, 0.0, 1.7103914184769013E9, 0.0, 2024-03-13 21:43:38.476
53.0, 177.46386274741963, 61.48208532156423, -90.3204538798891, 47.25924579007551, 0.5120000243186951, 0.8320000395178795, 0.41600001975893974, 0.0, 0.0, 0.0, 0.0, 0.0, 1.7103914185088694E9, 0.0, 2024-03-13 21:43:38.508
53.0, 177.7705345437862, 57.121361973229796, -93.7649017390795, 47.38266248861328, 0.5120000243186951, 0.8320000395178795, 0.41600001975893974, 0.0, 0.0, 0.0, 0.0, 0.0, 1.7103914185088694E9, 0.0, 2024-03-13 21:43:38.508
54.0, 184.39389736531302, 64.0102576916106, -102.37789133703336, 52.375428929459304, 0.5120000243186951, 0.8320000395178795, 0.41600001975893974, 0.0, 0.0, 0.0, 0.0, 0.0, 1.710391418509585E9, 0.0, 2024-03-13 21:43:38.509
54.0, 162.3509270264767, 58.2695112596266, -89.53133498923853, 49.70514036109671, 0.5120000243186951, 0.8320000395178795, 0.41600001975893974, 0.0, 0.0, 0.0, 0.0, 0.0, 1.710391418509585E9, 0.0, 2024-03-13 21:43:38.509
55.0, 153.04605593672022, 43.57544433372095, -101.82064624363557, 43.19771443819627, 0.5120000243186951, 0.8320000395178795, 0.41600001975893974, 0.0, 0.0, 0.0, 0.0, 0.0, 1.710391418510301E9, 0.0, 2024-03-13 21:43:38.510
55.0, 183.7730739726685, 61.10435542603955, -103.36896482529119, 49.57050396269187, 0.5120000243186951, 0.8320000395178795, 0.41600001975893974, 0.0, 0.0, 0.0, 0.0, 0.0, 1.710391418510301E9, 0.0, 2024-03-13 21:43:38.510
56.0, 172.2167831095867, 57.600069167558104, -98.90726417815313, 46.04377830447629, 0.5120000243186951, 0.8320000395178795, 0.41600001975893974, 0.0, 0.0, 0.0, 0.0, 0.0, 1.7103914185111792E9, 0.0, 2024-03-13 21:43:38.511
56.0, 171.88393201353028, 59.67945354292169, -93.47692944249138, 43.840977230574936, 0.5120000243186951, 0.8320000395178795, 0.41600001975893974, 0.0, 0.0, 0.0, 0.0, 0.0, 1.7103914185111792E9, 0.0, 2024-03-13 21:43:38.511
57.0, 150.54406286636367, 44.78717191936448, -118.84093094198033, 33.814305449370295, 0.5120000243186951, 0.8320000395178795, 0.41600001975893974, 0.0, 0.0, 0.0, 0.0, 0.0, 1.710391418521875E9, 0.0, 2024-03-13 21:43:38.521
57.0, 162.9455711194314, 50.77475174842402, -119.79086553072557, 33.552512452472, 0.5120000243186951, 0.8320000395178795, 0.41600001975893974, 0.0, 0.0, 0.0, 0.0, 0.0, 1.710391418521875E9, 0.0, 2024-03-13 21:43:38.521
58.0, 168.8022544500418, 56.23500568373129, -105.33615220198408, 40.82661786628887, 0.5120000243186951, 0.8320000395178795, 0.41600001975893974, 0.0, 0.0, 0.0, 0.0, 0.0, 1.7103914185373628E9, 0.0, 2024-03-13 21:43:38.537
58.0, 173.40607129549608, 51.477852940093726, -102.02260084124282, 47.20688719069585, 0.5120000243186951, 0.8320000395178795, 0.41600001975893974, 0.0, 0.0, 0.0, 0.0, 0.0, 1.7103914185373628E9, 0.0, 2024-03-13 21:43:38.537
59.0, 168.7237165509723, 51.30581754213199, -118.24254694906995, 39.15114268613979, 0.5120000243186951, 0.8320000395178795, 0.41600001975893974, 0.0, 0.0, 0.0, 0.0, 0.0, 1.710391418552541E9, 0.0, 2024-03-13 21:43:38.552
59.0, 185.05211975751445, 63.613828296307474, -87.73244311055169, 49.63782216189429, 0.5120000243186951, 0.8320000395178795, 0.41600001975893974, 0.0, 0.0, 0.0, 0.0, 0.0, 1.710391418552541E9, 0.0, 2024-03-13 21:43:38.552
60.0, 165.49618288921192, 53.938707110937685, -100.42566356016323, 35.61319732805714, 0.5120000243186951, 0.8320000395178795, 0.41600001975893974, 0.0, 0.0, 0.0, 0.0, 0.0, 1.710391418553467E9, 0.0, 2024-03-13 21:43:38.553
60.0, 163.33452071482316, 39.820584778208286, -125.49047306319699, 21.438976495992392, 0.5120000243186951, 0.8320000395178795, 0.41600001975893974, 0.0, 0.0, 0.0, 0.0, 0.0, 1.710391418553467E9, 0.0, 2024-03-13 21:43:38.553
61.0, 172.59451300511137, 57.74218536587432, -101.29332034988329, 36.34995761932805, 0.5120000243186951, 0.8160000387579203, 0.41600001975893974, 0.0, 0.0, 0.0, 0.0, 0.0, 1.7103914185668948E9, 0.0, 2024-03-13 21:43:38.566
61.0, 167.4297111663036, 53.04113112157211, -83.36050006235018, 46.39906880026683, 0.5120000243186951, 0.8160000387579203, 0.41600001975893974, 0.0, 0.0, 0.0, 0.0, 0.0, 1.7103914185668948E9, 0.0, 2024-03-13 21:43:38.566
62.0, 181.97792199393734, 58.81927655311301, -95.35061932029203, 54.0808233092539, 0.5120000243186951, 0.8160000387579203, 0.41600001975893974, 0.0, 0.0, 0.0, 0.0, 0.0, 1.7103914185825589E9, 0.0, 2024-03-13 21:43:38.582
62.0, 171.4688031184487, 55.67028079042211, -103.60083862254396, 46.85907649481669, 0.5120000243186951, 0.8160000387579203, 0.41600001975893974, 0.0, 0.0, 0.0, 0.0, 0.0, 1.7103914185825589E9, 0.0, 2024-03-13 21:43:38.582
63.0, 181.26734100235626, 61.605502020101994, -81.6513657825999, 50.06043085688725, 0.5120000243186951, 0.8160000387579203, 0.41600001975893974, 0.0, 0.0, 0.0, 0.0, 0.0, 1.710391418583381E9, 0.0, 2024-03-13 21:43:38.583
63.0, 167.22775656869635, 46.290611701551825, -106.22624839143828, 36.77256631432101, 0.5120000243186951, 0.8160000387579203, 0.41600001975893974, 0.0, 0.0, 0.0, 0.0, 0.0, 1.710391418583381E9, 0.0, 2024-03-13 21:43:38.583
64.0, 162.33596742665395, 38.657475891988724, -120.53136572195217, 29.883670595940202, 0.5120000243186951, 0.8160000387579203, 0.41600001975893974, 0.0, 0.0, 0.0, 0.0, 0.0, 1.7103914185968919E9, 0.0, 2024-03-13 21:43:38.596
64.0, 158.58484777109697, 43.070557839702815, -108.56742576370016, 31.364670978393406, 0.5120000243186951, 0.8160000387579203, 0.41600001975893974, 0.0, 0.0, 0.0, 0.0, 0.0, 1.7103914185968919E9, 0.0, 2024-03-13 21:43:38.596
65.0, 161.14667924074456, 45.19482101453468, -98.53701408253983, 34.614644039887935, 0.5120000243186951, 0.8160000387579203, 0.41600001975893974, 0.0, 0.0, 0.0, 0.0, 0.0, 1.7103914186125493E9, 0.0, 2024-03-13 21:43:38.612
65.0, 165.93001128407195, 50.262385454494506, -106.19258929183707, 42.36371674807742, 0.5120000243186951, 0.8160000387579203, 0.41600001975893974, 0.0, 0.0, 0.0, 0.0, 0.0, 1.7103914186125493E9, 0.0, 2024-03-13 21:43:38.612
66.0, 189.39414360607043, 70.74581751180813, -80.30874169850722, 61.89347431669012, 0.5120000243186951, 0.8160000387579203, 0.41600001975893974, 0.0, 0.0, 0.0, 0.0, 0.0, 1.7103914186132443E9, 0.0, 2024-03-13 21:43:38.613
66.0, 187.7747669252567, 64.36180828744546, -85.7278567343019, 48.893582070712, 0.5120000243186951, 0.8160000387579203, 0.41600001975893974, 0.0, 0.0, 0.0, 0.0, 0.0, 1.7103914186132443E9, 0.0, 2024-03-13 21:43:38.613
67.0, 189.2221082081087, 62.66015380760655, -102.69204293331131, 49.4134281645529, 0.5120000243186951, 0.8160000387579203, 0.41600001975893974, 0.0, 0.0, 0.0, 0.0, 0.0, 1.7103914186268656E9, 0.0, 2024-03-13 21:43:38.626
67.0, 179.19169652694836, 66.70672555966303, -91.13201217027381, 60.012304638978094, 0.5120000243186951, 0.8160000387579203, 0.41600001975893974, 0.0, 0.0, 0.0, 0.0, 0.0, 1.7103914186268656E9, 0.0, 2024-03-13 21:43:38.626
68.0, 178.2866407376714, 63.02292410330847, -91.05347427120432, 50.16514805564657, 0.5120000243186951, 0.8160000387579203, 0.41600001975893974, 0.0, 0.0, 0.0, 0.0, 0.0, 1.710391418642989E9, 0.0, 2024-03-13 21:43:38.642
68.0, 189.9252093997784, 66.90494025731459, -103.68685632152483, 46.649642097298056, 0.5120000243186951, 0.8160000387579203, 0.41600001975893974, 0.0, 0.0, 0.0, 0.0, 0.0, 1.710391418642989E9, 0.0, 2024-03-13 21:43:38.642
69.0, 175.12268537515774, 61.45216612191871, -109.83899174863473, 46.56736429827288, 0.5120000243186951, 0.8160000387579203, 0.41600001975893974, 0.0, 0.0, 0.0, 0.0, 0.0, 1.7103914186578796E9, 0.0, 2024-03-13 21:43:38.657
69.0, 175.1413848749362, 64.87043468141928, -85.11825304152444, 55.573043391574174, 0.5120000243186951, 0.8160000387579203, 0.41600001975893974, 0.0, 0.0, 0.0, 0.0, 0.0, 1.7103914186578796E9, 0.0, 2024-03-13 21:43:38.657
70.0, 179.53202742291614, 62.31982291163877, -82.45918417302892, 52.360469329636544, 0.5120000243186951, 0.8160000387579203, 0.4000000189989805, 0.0, 0.0, 0.0, 0.0, 0.0, 1.7103914186586382E9, 0.0, 2024-03-13 21:43:38.658
70.0, 163.92168500786647, 46.02507880469784, -109.5510194520466, 40.688241567928344, 0.5120000243186951, 0.8160000387579203, 0.4000000189989805, 0.0, 0.0, 0.0, 0.0, 0.0, 1.7103914186586382E9, 0.0, 2024-03-13 21:43:38.658
71.0, 167.97199665987864, 57.04282407416031, -92.42975745489821, 51.971519734244794, 0.5120000243186951, 0.8320000395178795, 0.4000000189989805, 0.0, 0.0, 0.0, 0.0, 0.0, 1.71039141867255E9, 0.0, 2024-03-13 21:43:38.672
71.0, 176.4727892591618, 52.5998229268007, -84.22441695211455, 43.99431312875822, 0.5120000243186951, 0.8320000395178795, 0.4000000189989805, 0.0, 0.0, 0.0, 0.0, 0.0, 1.71039141867255E9, 0.0, 2024-03-13 21:43:38.672
72.0, 171.67823751596734, 54.2678183070384, -102.46764893596992, 41.851350454147905, 0.5120000243186951, 0.8320000395178795, 0.4000000189989805, 0.0, 0.0, 0.0, 0.0, 0.0, 1.7103914186732783E9, 0.0, 2024-03-13 21:43:38.673
72.0, 196.93752181669697, 73.22537118243054, -93.08050004718825, 53.572196915280074, 0.5120000243186951, 0.8320000395178795, 0.4000000189989805, 0.0, 0.0, 0.0, 0.0, 0.0, 1.7103914186732783E9, 0.0, 2024-03-13 21:43:38.673
73.0, 192.920869264286, 76.20607144711539, -69.2348979297094, 60.97719882754609, 0.5120000243186951, 0.8320000395178795, 0.4000000189989805, 0.0, 0.0, 0.0, 0.0, 0.0, 1.710391418687348E9, 0.0, 2024-03-13 21:43:38.687
73.0, 179.20665612677112, 57.61876866733655, -89.67719108751044, 50.88320884713903, 0.5120000243186951, 0.8320000395178795, 0.4000000189989805, 0.0, 0.0, 0.0, 0.0, 0.0, 1.710391418687348E9, 0.0, 2024-03-13 21:43:38.687
74.0, 158.47265077242628, 44.36456322437152, -117.12057696236297, 37.54672560514882, 0.5120000243186951, 0.8320000395178795, 0.4000000189989805, 0.0, 0.0, 0.0, 0.0, 0.0, 1.7103914187025976E9, 0.0, 2024-03-13 21:43:38.702
74.0, 173.85859919013456, 60.67052703117952, -88.42058470239863, 47.924947982188314, 0.5120000243186951, 0.8320000395178795, 0.4000000189989805, 0.0, 0.0, 0.0, 0.0, 0.0, 1.7103914187025976E9, 0.0, 2024-03-13 21:43:38.702
75.0, 190.44879539357498, 69.51539042638615, -75.89939965074882, 56.317283482756466, 0.5120000243186951, 0.8320000395178795, 0.4000000189989805, 0.0, 0.0, 0.0, 0.0, 0.0, 1.7103914187035477E9, 0.0, 2024-03-13 21:43:38.703
75.0, 173.20411669788882, 57.27095797145739, -119.60761043289676, 39.73456707922742, 0.5120000243186951, 0.8320000395178795, 0.4000000189989805, 0.0, 0.0, 0.0, 0.0, 0.0, 1.7103914187035477E9, 0.0, 2024-03-13 21:43:38.703
76.0, 179.67788352118805, 70.03897642018273, -94.64377822866663, 54.12196220876649, 0.5120000243186951, 0.8320000395178795, 0.4000000189989805, 0.0, 0.0, 0.0, 0.0, 0.0, 1.7103914187169547E9, 0.0, 2024-03-13 21:43:38.716
76.0, 187.3633779301308, 74.2762830699794, -86.11680632969365, 55.38230849383399, 0.5120000243186951, 0.8320000395178795, 0.4000000189989805, 0.0, 0.0, 0.0, 0.0, 0.0, 1.7103914187169547E9, 0.0, 2024-03-13 21:43:38.716
77.0, 179.83869921928272, 61.523224221076816, -110.50469394074753, 43.844717130530626, 0.5120000243186951, 0.8320000395178795, 0.4000000189989805, 0.0, 0.0, 0.0, 0.0, 0.0, 1.7103914187326753E9, 0.0, 2024-03-13 21:43:38.732
77.0, 192.72265456663445, 73.6442399774678, -100.40696406038478, 54.8213235004805, 0.5120000243186951, 0.8320000395178795, 0.4000000189989805, 0.0, 0.0, 0.0, 0.0, 0.0, 1.7103914187326753E9, 0.0, 2024-03-13 21:43:38.732
78.0, 189.75317400181666, 69.73978442372754, -83.85042695654556, 55.66280099051073, 0.5120000243186951, 0.8320000395178795, 0.4000000189989805, 0.0, 0.0, 0.0, 0.0, 0.0, 1.7103914187335443E9, 0.0, 2024-03-13 21:43:38.733
78.0, 170.82554032607004, 55.64784139068797, -104.2553211147897, 43.489426634740084, 0.5120000243186951, 0.8320000395178795, 0.4000000189989805, 0.0, 0.0, 0.0, 0.0, 0.0, 1.7103914187335443E9, 0.0, 2024-03-13 21:43:38.733
79.0, 183.8478719717823, 68.59911493724212, -101.56259314669296, 51.63866863818839, 0.5120000243186951, 0.8320000395178795, 0.4000000189989805, 0.0, 0.0, 0.0, 0.0, 0.0, 1.7103914187469437E9, 0.0, 2024-03-13 21:43:38.746
79.0, 186.53686003992334, 69.88938042195514, -83.92896485561505, 58.815536653157324, 0.5120000243186951, 0.8320000395178795, 0.4000000189989805, 0.0, 0.0, 0.0, 0.0, 0.0, 1.7103914187469437E9, 0.0, 2024-03-13 21:43:38.746
80.0, 178.1071255397983, 61.37736812280491, -85.01353584276512, 47.846410083118826, 0.5120000243186951, 0.8320000395178795, 0.4000000189989805, 0.0, 0.0, 0.0, 0.0, 0.0, 1.7103914187625413E9, 0.0, 2024-03-13 21:43:38.762
80.0, 191.1144975856878, 70.58126191375777, -102.30683323787525, 54.79514420079067, 0.5120000243186951, 0.8320000395178795, 0.4000000189989805, 0.0, 0.0, 0.0, 0.0, 0.0, 1.7103914187625413E9, 0.0, 2024-03-13 21:43:38.762
81.0, 195.02643293933943, 73.77887637587264, -85.73533653421327, 58.88659475231543, 0.5120000243186951, 0.8320000395178795, 0.4000000189989805, 0.0, 0.0, 0.0, 0.0, 0.0, 1.7103914187632573E9, 0.0, 2024-03-13 21:43:38.763
81.0, 179.52454762300476, 61.63542121974751, -86.47957662539557, 43.855936830397695, 0.5120000243186951, 0.8320000395178795, 0.4000000189989805, 0.0, 0.0, 0.0, 0.0, 0.0, 1.7103914187632573E9, 0.0, 2024-03-13 21:43:38.763
82.0, 180.59415901033208, 59.48871864518151, -111.24893403192982, 43.33983063651249, 0.5120000243186951, 0.8320000395178795, 0.4000000189989805, 0.0, 0.0, 0.0, 0.0, 0.0, 1.7103914187768435E9, 0.0, 2024-03-13 21:43:38.776
82.0, 169.97658303612843, 57.43551356950775, -113.21612140862271, 38.608857192564756, 0.5120000243186951, 0.8320000395178795, 0.4000000189989805, 0.0, 0.0, 0.0, 0.0, 0.0, 1.7103914187768435E9, 0.0, 2024-03-13 21:43:38.776
83.0, 170.97513632429764, 61.09313572617248, -90.29053468024358, 45.531412010546774, 0.5120000243186951, 0.8320000395178795, 0.4000000189989805, 0.0, 0.0, 0.0, 0.0, 0.0, 1.7103914187925715E9, 0.0, 2024-03-13 21:43:38.792
83.0, 170.3991917311214, 60.93232002807781, -84.55352814821526, 61.45216612191871, 0.5120000243186951, 0.8320000395178795, 0.4000000189989805, 0.0, 0.0, 0.0, 0.0, 0.0, 1.7103914187925715E9, 0.0, 2024-03-13 21:43:38.792
84.0, 185.75522094918415, 64.02147739147767, -109.61085785133764, 52.82421692414209, 0.5120000243186951, 0.8320000395178795, 0.4000000189989805, 0.0, 0.0, 0.0, 0.0, 0.0, 1.7103914187932901E9, 0.0, 2024-03-13 21:43:38.793
84.0, 175.1787838744931, 63.47171209799126, -83.0949671654962, 59.90758744021878, 0.5120000243186951, 0.8320000395178795, 0.4000000189989805, 0.0, 0.0, 0.0, 0.0, 0.0, 1.7103914187932901E9, 0.0, 2024-03-13 21:43:38.793
85.0, 178.12956493953243, 60.96223922772333, -93.06928034732118, 52.315590530168265, 0.5120000243186951, 0.8320000395178795, 0.4000000189989805, 0.0, 0.0, 0.0, 0.0, 0.0, 1.710391418806837E9, 0.0, 2024-03-13 21:43:38.806
85.0, 183.1447707801126, 61.201592824887484, -113.23482090840116, 44.94798761745915, 0.5120000243186951, 0.8320000395178795, 0.4000000189989805, 0.0, 0.0, 0.0, 0.0, 0.0, 1.710391418806837E9, 0.0, 2024-03-13 21:43:38.806
86.0, 199.1141435909085, 75.15515955956653, -91.0272949715145, 56.97924577491358, 0.5120000243186951, 0.8320000395178795, 0.4000000189989805, 0.0, 0.0, 0.0, 0.0, 0.0, 1.7103914188228097E9, 0.0, 2024-03-13 21:43:38.822
86.0, 193.46315475786105, 73.22537118243054, -78.88383981538936, 59.78417074168101, 0.5120000243186951, 0.8320000395178795, 0.4000000189989805, 0.0, 0.0, 0.0, 0.0, 0.0, 1.7103914188228097E9, 0.0, 2024-03-13 21:43:38.822
87.0, 178.60079233394936, 63.88310109311715, -104.22914181509987, 55.88345508789644, 0.5120000243186951, 0.8320000395178795, 0.4000000189989805, 0.0, 0.0, 0.0, 0.0, 0.0, 1.7103914188233728E9, 0.0, 2024-03-13 21:43:38.823
87.0, 189.8915503001772, 72.80276248743758, -85.03223534254357, 59.76547124190256, 0.5120000243186951, 0.8320000395178795, 0.4000000189989805, 0.0, 0.0, 0.0, 0.0, 0.0, 1.7103914188233728E9, 0.0, 2024-03-13 21:43:38.823
88.0, 183.35794507758692, 70.17735271854326, -78.82400141609833, 57.68982676649466, 0.5120000243186951, 0.8320000395178795, 0.4000000189989805, 0.0, 0.0, 0.0, 0.0, 0.0, 1.7103914188373134E9, 0.0, 2024-03-13 21:43:38.837
88.0, 169.45299704233184, 56.49679868062958, -103.92620991868898, 41.858830254059285, 0.5120000243186951, 0.8320000395178795, 0.4000000189989805, 0.0, 0.0, 0.0, 0.0, 0.0, 1.7103914188373134E9, 0.0, 2024-03-13 21:43:38.837
89.0, 191.4099496821873, 67.85113494610414, -100.67623685719445, 56.321023382712156, 0.5120000243186951, 0.8320000395178795, 0.4000000189989805, 0.0, 0.0, 0.0, 0.0, 0.0, 1.7103914188525205E9, 0.0, 2024-03-13 21:43:38.852
89.0, 188.9229162116535, 72.4586916915141, -73.38244698056951, 67.02461705589667, 0.5120000243186951, 0.8320000395178795, 0.4000000189989805, 0.0, 0.0, 0.0, 0.0, 0.0, 1.7103914188525205E9, 0.0, 2024-03-13 21:43:38.852
90.0, 176.70466305641457, 62.98178520379588, -91.64063856424764, 46.47386679938063, 0.5120000243186951, 0.8320000395178795, 0.4000000189989805, 0.0, 0.0, 0.0, 0.0, 0.0, 1.7103914188532507E9, 0.0, 2024-03-13 21:43:38.853
90.0, 167.26141566829756, 54.90734119946137, -107.78204677300528, 43.822277730796486, 0.5120000243186951, 0.8320000395178795, 0.4000000189989805, 0.0, 0.0, 0.0, 0.0, 0.0, 1.7103914188532507E9, 0.0, 2024-03-13 21:43:38.853
91.0, 168.70875695114955, 60.345155735034496, -102.75188133260235, 45.95402070553973, 0.5120000243186951, 0.8160000387579203, 0.4000000189989805, 0.0, 0.0, 0.0, 0.0, 0.0, 1.710391418866964E9, 0.0, 2024-03-13 21:43:38.866
91.0, 178.9972217292525, 62.64519420778379, -83.55871476000175, 48.21666017873213, 0.5120000243186951, 0.8160000387579203, 0.4000000189989805, 0.0, 0.0, 0.0, 0.0, 0.0, 1.710391418866964E9, 0.0, 2024-03-13 21:43:38.866
92.0, 186.00953414617106, 56.302323882933706, -109.63329725107178, 39.016506287734956, 0.5120000243186951, 0.8160000387579203, 0.4000000189989805, 0.0, 0.0, 0.0, 0.0, 0.0, 1.7103914188825312E9, 0.0, 2024-03-13 21:43:38.882
92.0, 188.94909551134333, 69.48547122674063, -105.68770279781893, 42.674128444399685, 0.5120000243186951, 0.8160000387579203, 0.4000000189989805, 0.0, 0.0, 0.0, 0.0, 0.0, 1.7103914188825312E9, 0.0, 2024-03-13 21:43:38.882
93.0, 173.08443989930674, 64.29075018828735, -95.82932651462033, 42.90974214160815, 0.5120000243186951, 0.8160000387579203, 0.4000000189989805, 0.0, 0.0, 0.0, 0.0, 0.0, 1.710391418883274E9, 0.0, 2024-03-13 21:43:38.883
93.0, 175.87440526625142, 63.74846469471231, -94.1725508342497, 47.95486718183383, 0.5120000243186951, 0.8160000387579203, 0.4000000189989805, 0.0, 0.0, 0.0, 0.0, 0.0, 1.710391418883274E9, 0.0, 2024-03-13 21:43:38.883
94.0, 172.1382452105172, 60.15068093733862, -115.43762198230252, 40.35913037182763, 0.5120000243186951, 0.8160000387579203, 0.4000000189989805, 0.0, 0.0, 0.0, 0.0, 0.0, 1.710391418897137E9, 0.0, 2024-03-13 21:43:38.897
94.0, 170.45903013041243, 61.24647162435576, -105.79615989653394, 40.50124657014385, 0.5120000243186951, 0.8160000387579203, 0.4000000189989805, 0.0, 0.0, 0.0, 0.0, 0.0, 1.710391418897137E9, 0.0, 2024-03-13 21:43:38.897
95.0, 165.08105399413034, 50.77475174842402, -105.25013450300321, 32.06403227010742, 0.5120000243186951, 0.8160000387579203, 0.4000000189989805, 0.0, 0.0, 0.0, 0.0, 0.0, 1.7103914189125297E9, 0.0, 2024-03-13 21:43:38.912
95.0, 159.99105015443638, 42.91722194151953, -121.08861081534997, 31.349711378570646, 0.5120000243186951, 0.8160000387579203, 0.4000000189989805, 0.0, 0.0, 0.0, 0.0, 0.0, 1.7103914189125297E9, 0.0, 2024-03-13 21:43:38.912
96.0, 184.67064996203408, 66.272897164803, -76.82315493980423, 59.32416304713115, 0.5120000243186951, 0.8160000387579203, 0.4000000189989805, 0.0, 0.0, 0.0, 0.0, 0.0, 1.7103914189132457E9, 0.0, 2024-03-13 21:43:38.913
96.0, 163.51029601274058, 47.59209688613191, -97.13081169920042, 37.73372060293332, 0.5120000243186951, 0.8160000387579203, 0.4000000189989805, 0.0, 0.0, 0.0, 0.0, 0.0, 1.7103914189132457E9, 0.0, 2024-03-13 21:43:38.913
97.0, 165.33536719111726, 47.37892258865759, -119.2224007374607, 30.081885293591768, 0.5120000243186951, 0.8160000387579203, 0.4000000189989805, 0.0, 0.0, 0.0, 0.0, 0.0, 1.7103914189269052E9, 0.0, 2024-03-13 21:43:38.926
97.0, 187.79346642503515, 69.4966909266077, -100.07411296432838, 46.96379369357601, 0.5120000243186951, 0.8160000387579203, 0.4000000189989805, 0.0, 0.0, 0.0, 0.0, 0.0, 1.7103914189269052E9, 0.0, 2024-03-13 21:43:38.926
98.0, 181.77970729628578, 61.00711802719161, -91.4349440666847, 42.5955905453302, 0.5120000243186951, 0.8160000387579203, 0.4000000189989805, 0.0, 0.0, 0.0, 0.0, 0.0, 1.710391418942484E9, 0.0, 2024-03-13 21:43:38.942
98.0, 174.48316248273477, 51.3394766417332, -100.56029995856807, 39.61489028064534, 0.5120000243186951, 0.8160000387579203, 0.4000000189989805, 0.0, 0.0, 0.0, 0.0, 0.0, 1.710391418942484E9, 0.0, 2024-03-13 21:43:38.942
99.0, 179.401130924467, 62.828449305612594, -107.57635227544233, 41.91866865335032, 0.5120000243186951, 0.8160000387579203, 0.4000000189989805, 0.0, 0.0, 0.0, 0.0, 0.0, 1.710391418943218E9, 0.0, 2024-03-13 21:43:38.943
99.0, 185.2540743551217, 64.47400528611615, -94.40816453145817, 40.17213537404314, 0.5120000243186951, 0.8160000387579203, 0.4000000189989805, 0.0, 0.0, 0.0, 0.0, 0.0, 1.710391418943218E9, 0.0, 2024-03-13 21:43:38.943
100.0, 177.56110014626756, 61.33248932333663, -93.66766434023157, 45.531412010546774, 0.5120000243186951, 0.8160000387579203, 0.4000000189989805, 0.0, 0.0, 0.0, 0.0, 0.0, 1.7103914189746802E9, 0.0, 2024-03-13 21:43:38.974
100.0, 173.23403589753434, 59.68319344287738, -106.46934188855812, 46.90769519424066, 0.5120000243186951, 0.8160000387579203, 0.4000000189989805, 0.0, 0.0, 0.0, 0.0, 0.0, 1.7103914189746802E9, 0.0, 2024-03-13 21:43:38.974
0.0, 188.77893006335944, 72.9953673351556, -101.44291634811088, 45.88857245631516, 0.5120000243186951, 0.8160000387579203, 0.4000000189989805, 0.0, 0.0, 0.0, 0.0, 0.0, 1.7103914189757051E9, 0.0, 2024-03-13 21:43:38.975
1.0, 174.8216234287247, 65.05555972922593, -96.27437460934743, 40.892066115513444, 0.5120000243186951, 0.8320000395178795, 0.4000000189989805, 0.0, 0.0, 0.0, 0.0, 0.0, 1.7103914189760916E9, 0.0, 2024-03-13 21:43:38.976
1.0, 188.1955056702718, 69.56587907578796, -114.31191209563985, 40.1291265245527, 0.5120000243186951, 0.8320000395178795, 0.4000000189989805, 0.0, 0.0, 0.0, 0.0, 0.0, 1.7103914189760916E9, 0.0, 2024-03-13 21:43:38.976
2.0, 190.14025364723057, 72.82707183714956, -100.6949363569729, 48.499022625386715, 0.5120000243186951, 0.8320000395178795, 0.4000000189989805, 0.0, 0.0, 0.0, 0.0, 0.0, 1.710391418987906E9, 0.0, 2024-03-13 21:43:38.987
2.0, 176.25026521179825, 59.797260391525924, -89.44531729025766, 46.434597849845886, 0.5120000243186951, 0.8320000395178795, 0.4000000189989805, 0.0, 0.0, 0.0, 0.0, 0.0, 1.710391418987906E9, 0.0, 2024-03-13 21:43:38.987
3.0, 160.65114249661565, 41.77842240501195, -109.62207755120471, 32.350134616717696, 0.5120000243186951, 0.8320000395178795, 0.4000000189989805, 0.0, 0.0, 0.0, 0.0, 0.0, 1.7103914189885037E9, 0.0, 2024-03-13 21:43:38.988
3.0, 180.341715763323, 61.61859166994691, -112.23626762023196, 40.439538220874965, 0.5120000243186951, 0.8320000395178795, 0.4000000189989805, 0.0, 0.0, 0.0, 0.0, 0.0, 1.7103914189885037E9, 0.0, 2024-03-13 21:43:38.988
4.0, 179.39926097448915, 64.0682261409238, -96.39405140792951, 43.34544048644602, 0.5120000243186951, 0.8320000395178795, 0.4000000189989805, 0.0, 0.0, 0.0, 0.0, 0.0, 1.7103914190019157E9, 0.0, 2024-03-13 21:43:39.001
4.0, 188.67047296464443, 67.49771440029144, -79.70661780564114, 55.14856474660337, 0.5120000243186951, 0.8320000395178795, 0.4000000189989805, 0.0, 0.0, 0.0, 0.0, 0.0, 1.7103914190019157E9, 0.0, 2024-03-13 21:43:39.001
5.0, 179.92284696828574, 58.106825611554086, -114.4802075936459, 41.52036930806935, 0.5120000243186951, 0.8320000395178795, 0.4000000189989805, 0.0, 0.0, 0.0, 0.0, 0.0, 1.7103914190176835E9, 0.0, 2024-03-13 21:43:39.017
5.0, 190.93311243783683, 74.05375902261585, -87.53796831285581, 52.493235778063536, 0.5120000243186951, 0.8320000395178795, 0.4000000189989805, 0.0, 0.0, 0.0, 0.0, 0.0, 1.7103914190176835E9, 0.0, 2024-03-13 21:43:39.017
6.0, 184.89317400939763, 67.46405530069023, -74.65027306554839, 56.188256934285164, 0.5120000243186951, 0.8320000395178795, 0.4000000189989805, 0.0, 0.0, 0.0, 0.0, 0.0, 1.7103914190182965E9, 0.0, 2024-03-13 21:43:39.018
6.0, 175.43496702145785, 51.24036929290742, -112.67009601509199, 34.840907987207174, 0.5120000243186951, 0.8320000395178795, 0.4000000189989805, 0.0, 0.0, 0.0, 0.0, 0.0, 1.7103914190182965E9, 0.0, 2024-03-13 21:43:39.018
7.0, 182.8250093339011, 57.325186520814896, -116.83634456573054, 34.71749128866941, 0.5120000243186951, 0.8320000395178795, 0.4000000189989805, 0.0, 0.0, 0.0, 0.0, 0.0, 1.7103914190318816E9, 0.0, 2024-03-13 21:43:39.031
7.0, 175.35642912238836, 55.8030472388491, -88.24106950452551, 43.19958438817412, 0.5120000243186951, 0.8320000395178795, 0.4000000189989805, 0.0, 0.0, 0.0, 0.0, 0.0, 1.7103914190318816E9, 0.0, 2024-03-13 21:43:39.031
8.0, 162.28173887729645, 46.27752205170691, -119.1476027383469, 26.91605998110026, 0.5120000243186951, 0.8320000395178795, 0.4000000189989805, 0.0, 0.0, 0.0, 0.0, 0.0, 1.710391419047508E9, 0.0, 2024-03-13 21:43:39.047
8.0, 178.25111168809235, 57.89365131407976, -109.09849155740812, 44.18317807652056, 0.5120000243186951, 0.8320000395178795, 0.4000000189989805, 0.0, 0.0, 0.0, 0.0, 0.0, 1.710391419047508E9, 0.0, 2024-03-13 21:43:39.047
9.0, 191.7932894276455, 72.1800691448152, -85.18931114068255, 54.991488948464394, 0.5120000243186951, 0.8320000395178795, 0.4000000189989805, 0.0, 0.0, 0.0, 0.0, 0.0, 1.710391419048236E9, 0.0, 2024-03-13 21:43:39.048
9.0, 190.55538254231215, 64.45343583635986, -92.33252005605027, 45.331327362917364, 0.5120000243186951, 0.8320000395178795, 0.4000000189989805, 0.0, 0.0, 0.0, 0.0, 0.0, 1.710391419048236E9, 0.0, 2024-03-13 21:43:39.048
10.0, 177.2001998005435, 57.82259321492165, -120.97267391672358, 36.68093876540661, 0.5120000243186951, 0.8320000395178795, 0.3840000182390213, 0.0, 0.0, 0.0, 0.0, 0.0, 1.710391419078215E9, 0.0, 2024-03-13 21:43:39.078
10.0, 193.3116888096556, 73.08138503413647, -83.22586366394535, 56.3976913318038, 0.5120000243186951, 0.8320000395178795, 0.3840000182390213, 0.0, 0.0, 0.0, 0.0, 0.0, 1.710391419078215E9, 0.0, 2024-03-13 21:43:39.078
11.0, 183.07184273097664, 68.32049239054322, -74.93450546218082, 58.66033080499619, 0.5120000243186951, 0.8320000395178795, 0.3840000182390213, 0.0, 0.0, 0.0, 0.0, 0.0, 1.7103914190789275E9, 0.0, 2024-03-13 21:43:39.078
11.0, 182.1929662413895, 64.89848393108696, -91.56584056513384, 51.696637087501585, 0.5120000243186951, 0.8320000395178795, 0.3840000182390213, 0.0, 0.0, 0.0, 0.0, 0.0, 1.7103914190789275E9, 0.0, 2024-03-13 21:43:39.078
12.0, 175.6070024194196, 58.31252010911703, -101.68974974518642, 45.52580216061324, 0.5120000243186951, 0.8320000395178795, 0.3840000182390213, 0.0, 0.0, 0.0, 0.0, 0.0, 1.7103914190796947E9, 0.0, 2024-03-13 21:43:39.079
12.0, 186.1946591939777, 70.08198526967317, -76.17241234751418, 57.42616381961852, 0.5120000243186951, 0.8320000395178795, 0.3840000182390213, 0.0, 0.0, 0.0, 0.0, 0.0, 1.7103914190796947E9, 0.0, 2024-03-13 21:43:39.079
13.0, 171.17522097192705, 54.23228925745934, -97.55342039419338, 49.77432851027697, 0.5120000243186951, 0.8320000395178795, 0.3840000182390213, 0.0, 0.0, 0.0, 0.0, 0.0, 1.7103914190918698E9, 0.0, 2024-03-13 21:43:39.091
13.0, 174.03624443802983, 61.09500567615032, -100.37704486073926, 54.550180753692985, 0.5120000243186951, 0.8320000395178795, 0.3840000182390213, 0.0, 0.0, 0.0, 0.0, 0.0, 1.7103914190918698E9, 0.0, 2024-03-13 21:43:39.091
14.0, 176.265224811621, 64.03456704132259, -91.09461317071691, 50.559707500971854, 0.5120000243186951, 0.8320000395178795, 0.3840000182390213, 0.0, 0.0, 0.0, 0.0, 0.0, 1.7103914191089475E9, 0.0, 2024-03-13 21:43:39.108
14.0, 201.03084231819957, 80.67712184414268, -78.83896101592109, 61.60737197007984, 0.5120000243186951, 0.8320000395178795, 0.3840000182390213, 0.0, 0.0, 0.0, 0.0, 0.0, 1.7103914191089475E9, 0.0, 2024-03-13 21:43:39.108
15.0, 193.1246938118711, 70.98704105895013, -105.5119274999015, 55.42905724328011, 0.5120000243186951, 0.8320000395178795, 0.3840000182390213, 0.0, 0.0, 0.0, 0.0, 0.0, 1.7103914191224785E9, 0.0, 2024-03-13 21:43:39.122
15.0, 194.03722940105945, 82.38251622393727, -78.51732961973175, 66.22988831531256, 0.5120000243186951, 0.8320000395178795, 0.3840000182390213, 0.0, 0.0, 0.0, 0.0, 0.0, 1.7103914191224785E9, 0.0, 2024-03-13 21:43:39.122
16.0, 191.1687261350453, 80.86037694197148, -83.70457085827366, 55.96760283689946, 0.5120000243186951, 0.8320000395178795, 0.3840000182390213, 0.0, 0.0, 0.0, 0.0, 0.0, 1.7103914191232004E9, 0.0, 2024-03-13 21:43:39.123
16.0, 182.862408333458, 60.182470086961985, -120.87543651787564, 33.969511297531426, 0.5120000243186951, 0.8320000395178795, 0.3840000182390213, 0.0, 0.0, 0.0, 0.0, 0.0, 1.7103914191232004E9, 0.0, 2024-03-13 21:43:39.123
17.0, 184.66504011210054, 68.26439389120787, -104.53207371151075, 43.56983448378742, 0.5120000243186951, 0.8320000395178795, 0.3840000182390213, 0.0, 0.0, 0.0, 0.0, 0.0, 1.7103914191379764E9, 0.0, 2024-03-13 21:43:39.137
17.0, 201.45345101319253, 75.77037310227752, -88.59262010036036, 48.01283563114703, 0.5120000243186951, 0.8320000395178795, 0.3840000182390213, 0.0, 0.0, 0.0, 0.0, 0.0, 1.7103914191379764E9, 0.0, 2024-03-13 21:43:39.137
18.0, 182.8661482334137, 69.70799527410418, -91.09461317071691, 47.38827233854681, 0.5120000243186951, 0.8320000395178795, 0.3840000182390213, 0.0, 0.0, 0.0, 0.0, 0.0, 1.710391419138316E9, 0.0, 2024-03-13 21:43:39.138
18.0, 201.098160517402, 76.45851469412446, -99.10547887580469, 53.53292796574533, 0.5120000243186951, 0.8320000395178795, 0.3840000182390213, 0.0, 0.0, 0.0, 0.0, 0.0, 1.710391419138316E9, 0.0, 2024-03-13 21:43:39.138
19.0, 183.77120402269065, 75.45996140595526, -92.1380452583544, 51.752735586836934, 0.5120000243186951, 0.8320000395178795, 0.3840000182390213, 0.0, 0.0, 0.0, 0.0, 0.0, 1.7103914191518836E9, 0.0, 2024-03-13 21:43:39.151
19.0, 174.44389353320003, 62.66202375758439, -96.41649080766365, 42.040215401910245, 0.5120000243186951, 0.8320000395178795, 0.3840000182390213, 0.0, 0.0, 0.0, 0.0, 0.0, 1.7103914191518836E9, 0.0, 2024-03-13 21:43:39.151
20.0, 185.39806050341576, 62.4750287597999, -109.16206985665485, 42.481523596681654, 0.5120000243186951, 0.8320000395178795, 0.3840000182390213, 0.0, 0.0, 0.0, 0.0, 0.0, 1.7103914191679404E9, 0.0, 2024-03-13 21:43:39.167
20.0, 189.1230008592829, 74.83913801331073, -91.13201217027381, 52.934543972834945, 0.5120000243186951, 0.8320000395178795, 0.3840000182390213, 0.0, 0.0, 0.0, 0.0, 0.0, 1.7103914191679404E9, 0.0, 2024-03-13 21:43:39.167
21.0, 179.69471307098866, 63.59699874650687, -85.53338193660602, 48.71593682281673, 0.5120000243186951, 0.8320000395178795, 0.3840000182390213, 0.0, 0.0, 0.0, 0.0, 0.0, 1.710391419168409E9, 0.0, 2024-03-13 21:43:39.168
21.0, 187.59712167736143, 64.98450163006783, -110.30273934314027, 39.46716423239559, 0.5120000243186951, 0.8320000395178795, 0.3840000182390213, 0.0, 0.0, 0.0, 0.0, 0.0, 1.710391419168409E9, 0.0, 2024-03-13 21:43:39.168
22.0, 196.5766214709729, 73.00284713506699, -98.23034228617325, 48.97025001980364, 0.5120000243186951, 0.8320000395178795, 0.3840000182390213, 0.0, 0.0, 0.0, 0.0, 0.0, 1.7103914191818235E9, 0.0, 2024-03-13 21:43:39.181
22.0, 168.74054610077292, 60.03287408873439, -87.35097331507131, 46.868426244705915, 0.5120000243186951, 0.8320000395178795, 0.3840000182390213, 0.0, 0.0, 0.0, 0.0, 0.0, 1.7103914191818235E9, 0.0, 2024-03-13 21:43:39.181
23.0, 169.02477849740535, 52.571773677133024, -103.92994981864467, 39.276429334655404, 0.5120000243186951, 0.8320000395178795, 0.3840000182390213, 0.0, 0.0, 0.0, 0.0, 0.0, 1.7103914191979165E9, 0.0, 2024-03-13 21:43:39.197
23.0, 176.21660611219704, 58.41723730787635, -112.03805292258039, 40.67515191808343, 0.5120000243186951, 0.8320000395178795, 0.3840000182390213, 0.0, 0.0, 0.0, 0.0, 0.0, 1.7103914191979165E9, 0.0, 2024-03-13 21:43:39.197
24.0, 189.725124752149, 68.9936743825674, -88.3944054027088, 48.95903031993657, 0.5120000243186951, 0.8320000395178795, 0.3840000182390213, 0.0, 0.0, 0.0, 0.0, 0.0, 1.7103914191985052E9, 0.0, 2024-03-13 21:43:39.198
24.0, 173.98014593869448, 53.282354668714106, -99.12043847562745, 40.77986911684275, 0.5120000243186951, 0.8320000395178795, 0.3840000182390213, 0.0, 0.0, 0.0, 0.0, 0.0, 1.7103914191985052E9, 0.0, 2024-03-13 21:43:39.198
25.0, 173.55379734374583, 56.143378134816885, -119.73850693134591, 37.997383549809456, 0.5120000243186951, 0.8320000395178795, 0.3840000182390213, 0.0, 0.0, 0.0, 0.0, 0.0, 1.7103914192118912E9, 0.0, 2024-03-13 21:43:39.211
25.0, 182.271504140459, 63.757814444601536, -94.7671949272044, 48.0240553310141, 0.5120000243186951, 0.8320000395178795, 0.3840000182390213, 0.0, 0.0, 0.0, 0.0, 0.0, 1.7103914192118912E9, 0.0, 2024-03-13 21:43:39.211
26.0, 167.39044221676886, 53.84707956202328, -99.94321646587923, 40.31986142229289, 0.5120000243186951, 0.8320000395178795, 0.3840000182390213, 0.0, 0.0, 0.0, 0.0, 0.0, 1.7103914192277124E9, 0.0, 2024-03-13 21:43:39.227
26.0, 168.94624059833586, 45.75767595786601, -126.99391284538433, 31.269303529523313, 0.5120000243186951, 0.8320000395178795, 0.3840000182390213, 0.0, 0.0, 0.0, 0.0, 0.0, 1.7103914192277124E9, 0.0, 2024-03-13 21:43:39.227
27.0, 186.22457839362323, 69.90994987171143, -91.4349440666847, 59.04928040038794, 0.5120000243186951, 0.8320000395178795, 0.3840000182390213, 0.0, 0.0, 0.0, 0.0, 0.0, 1.710391419228438E9, 0.0, 2024-03-13 21:43:39.228
27.0, 192.7619235161692, 69.09091178141534, -87.42203141422942, 53.15893797017634, 0.5120000243186951, 0.8320000395178795, 0.3840000182390213, 0.0, 0.0, 0.0, 0.0, 0.0, 1.710391419228438E9, 0.0, 2024-03-13 21:43:39.228
28.0, 160.23601360153407, 48.25966902822256, -110.50095404079184, 35.14757978357375, 0.5120000243186951, 0.8320000395178795, 0.3840000182390213, 0.0, 0.0, 0.0, 0.0, 0.0, 1.7103914192418404E9, 0.0, 2024-03-13 21:43:39.241
28.0, 171.1901805717498, 51.05711419507861, -119.45053463475779, 39.5008233319968, 0.5120000243186951, 0.8320000395178795, 0.3840000182390213, 0.0, 0.0, 0.0, 0.0, 0.0, 1.7103914192418404E9, 0.0, 2024-03-13 21:43:39.241
29.0, 175.5322044203058, 61.6971295690164, -88.43554430222139, 46.72257014643401, 0.5120000243186951, 0.8320000395178795, 0.3840000182390213, 0.0, 0.0, 0.0, 0.0, 0.0, 1.7103914192575758E9, 0.0, 2024-03-13 21:43:39.257
29.0, 181.0148977553472, 60.137591287493706, -94.26604833314195, 44.20187757629901, 0.5120000243186951, 0.8320000395178795, 0.3840000182390213, 0.0, 0.0, 0.0, 0.0, 0.0, 1.7103914192575758E9, 0.0, 2024-03-13 21:43:39.257
30.0, 169.1594148958102, 53.15145817026496, -126.86675624689087, 36.063855272717774, 0.5120000243186951, 0.8320000395178795, 0.3840000182390213, 0.0, 0.0, 0.0, 0.0, 0.0, 1.710391419258356E9, 0.0, 2024-03-13 21:43:39.258
30.0, 186.9800381846726, 67.64731039851904, -105.27631380269304, 45.323847563005984, 0.5120000243186951, 0.8320000395178795, 0.3840000182390213, 0.0, 0.0, 0.0, 0.0, 0.0, 1.710391419258356E9, 0.0, 2024-03-13 21:43:39.258
31.0, 174.03624443802983, 57.65429771691561, -103.75417452072725, 36.74825696460903, 0.5120000243186951, 0.8320000395178795, 0.3840000182390213, 0.0, 0.0, 0.0, 0.0, 0.0, 1.710391419272142E9, 0.0, 2024-03-13 21:43:39.272
31.0, 179.39926097448915, 57.9534897133708, -102.84163893153891, 39.586841030977666, 0.5120000243186951, 0.8320000395178795, 0.3840000182390213, 0.0, 0.0, 0.0, 0.0, 0.0, 1.710391419272142E9, 0.0, 2024-03-13 21:43:39.272
32.0, 183.5692494250834, 63.49228154774755, -101.46535574784502, 44.62822617124766, 0.5120000243186951, 0.8320000395178795, 0.3840000182390213, 0.0, 0.0, 0.0, 0.0, 0.0, 1.7103914192879012E9, 0.0, 2024-03-13 21:43:39.287
32.0, 180.99245835561305, 63.06967285275459, -102.8079798319377, 39.295128834433854, 0.5120000243186951, 0.8320000395178795, 0.3840000182390213, 0.0, 0.0, 0.0, 0.0, 0.0, 1.7103914192879012E9, 0.0, 2024-03-13 21:43:39.287
33.0, 174.53739103209227, 52.171604381874204, -111.922116023954, 28.658853360451758, 0.5120000243186951, 0.8320000395178795, 0.3840000182390213, 0.0, 0.0, 0.0, 0.0, 0.0, 1.7103914192887936E9, 0.0, 2024-03-13 21:43:39.288
33.0, 186.29189659282565, 60.87435157876462, -115.407702782657, 41.77842240501195, 0.5120000243186951, 0.8320000395178795, 0.3840000182390213, 0.0, 0.0, 0.0, 0.0, 0.0, 1.7103914192887936E9, 0.0, 2024-03-13 21:43:39.288
34.0, 192.2009385228157, 64.50205453578383, -100.86697175493464, 39.08943433687091, 0.5120000243186951, 0.8320000395178795, 0.3840000182390213, 0.0, 0.0, 0.0, 0.0, 0.0, 1.7103914193020473E9, 0.0, 2024-03-13 21:43:39.302
34.0, 180.36041526310146, 55.795567438937724, -93.72376283956692, 44.25423617567867, 0.5120000243186951, 0.8320000395178795, 0.3840000182390213, 0.0, 0.0, 0.0, 0.0, 0.0, 1.7103914193020473E9, 0.0, 2024-03-13 21:43:39.302
35.0, 176.1904268125072, 56.81282022688538, -117.53196595748886, 42.38802609778941, 0.5120000243186951, 0.8320000395178795, 0.3840000182390213, 0.0, 0.0, 0.0, 0.0, 0.0, 1.710391419317528E9, 0.0, 2024-03-13 21:43:39.317
35.0, 187.13711398281157, 65.60906492266804, -101.27088095014915, 43.86154668033123, 0.5120000243186951, 0.8320000395178795, 0.3840000182390213, 0.0, 0.0, 0.0, 0.0, 0.0, 1.710391419317528E9, 0.0, 2024-03-13 21:43:39.317
36.0, 172.9741128506139, 59.752381592057645, -95.44037691922858, 38.438691744580865, 0.5120000243186951, 0.8320000395178795, 0.3840000182390213, 0.0, 0.0, 0.0, 0.0, 0.0, 1.71039141931825E9, 0.0, 2024-03-13 21:43:39.318
36.0, 175.22553262393922, 48.929111120291054, -121.86277010617778, 29.533989950083196, 0.5120000243186951, 0.8320000395178795, 0.3840000182390213, 0.0, 0.0, 0.0, 0.0, 0.0, 1.71039141931825E9, 0.0, 2024-03-13 21:43:39.318
37.0, 181.3477488514036, 64.52075403556228, -109.52484015235677, 40.398399321362376, 0.5120000243186951, 0.8320000395178795, 0.3840000182390213, 0.0, 0.0, 0.0, 0.0, 0.0, 1.7103914193318412E9, 0.0, 2024-03-13 21:43:39.331
37.0, 184.69869921170175, 73.04772593453526, -96.52494790637866, 42.26834929920733, 0.5120000243186951, 0.8320000395178795, 0.3840000182390213, 0.0, 0.0, 0.0, 0.0, 0.0, 1.7103914193318412E9, 0.0, 2024-03-13 21:43:39.331
38.0, 174.1147823370993, 49.9875028077513, -116.10332417441532, 35.30091568175703, 0.5120000243186951, 0.8320000395178795, 0.3840000182390213, 0.0, 0.0, 0.0, 0.0, 0.0, 1.7103914193475833E9, 0.0, 2024-03-13 21:43:39.347
38.0, 183.92453992087394, 62.90511725470424, -112.9618082116358, 40.12538662459701, 0.5120000243186951, 0.8320000395178795, 0.3840000182390213, 0.0, 0.0, 0.0, 0.0, 0.0, 1.7103914193475833E9, 0.0, 2024-03-13 21:43:39.347
39.0, 185.11382810678333, 62.86023845523596, -95.3954981197603, 43.78300878126174, 0.5120000243186951, 0.8320000395178795, 0.3840000182390213, 0.0, 0.0, 0.0, 0.0, 0.0, 1.7103914193482788E9, 0.0, 2024-03-13 21:43:39.348
39.0, 178.87567498069257, 57.736575515940785, -97.90497099002823, 39.990750226192176, 0.5120000243186951, 0.8320000395178795, 0.3840000182390213, 0.0, 0.0, 0.0, 0.0, 0.0, 1.7103914193482788E9, 0.0, 2024-03-13 21:43:39.348
40.0, 169.51844529155642, 46.516875648871064, -129.58192361472175, 24.376667911186814, 0.5120000243186951, 0.8320000395178795, 0.3840000182390213, 0.0, 0.0, 0.0, 0.0, 0.0, 1.7103914193619015E9, 0.0, 2024-03-13 21:43:39.361
40.0, 185.6822929000482, 56.487448930740356, -113.91548270033672, 32.88868021033704, 0.5120000243186951, 0.8320000395178795, 0.3840000182390213, 0.0, 0.0, 0.0, 0.0, 0.0, 1.7103914193619015E9, 0.0, 2024-03-13 21:43:39.361
41.0, 165.03430524468422, 42.38428619783372, -100.9903884534724, 30.23335124179721, 0.5120000243186951, 0.8320000395178795, 0.3840000182390213, 0.0, 0.0, 0.0, 0.0, 0.0, 1.7103914193777418E9, 0.0, 2024-03-13 21:43:39.377
41.0, 172.17003436014056, 41.46801070868969, -120.83055771840736, 29.500330850481987, 0.5120000243186951, 0.8320000395178795, 0.3840000182390213, 0.0, 0.0, 0.0, 0.0, 0.0, 1.7103914193777418E9, 0.0, 2024-03-13 21:43:39.377
42.0, 157.69662153162062, 36.430365468375385, -121.39154271176085, 28.307302764616907, 0.5120000243186951, 0.8320000395178795, 0.3840000182390213, 0.0, 0.0, 0.0, 0.0, 0.0, 1.7103914193782873E9, 0.0, 2024-03-13 21:43:39.378
42.0, 158.17532872594893, 42.833074192516506, -106.79097328474745, 33.236490906216204, 0.5120000243186951, 0.8320000395178795, 0.3840000182390213, 0.0, 0.0, 0.0, 0.0, 0.0, 1.7103914193782873E9, 0.0, 2024-03-13 21:43:39.378
43.0, 167.86540951114148, 47.98291643150151, -108.03635996999219, 36.08629467245191, 0.5120000243186951, 0.8320000395178795, 0.3840000182390213, 0.0, 0.0, 0.0, 0.0, 0.0, 1.7103914194082096E9, 0.0, 2024-03-13 21:43:39.408
43.0, 171.21261997148395, 41.52410920802504, -130.82731029996648, 26.14938049018383, 0.5120000243186951, 0.8320000395178795, 0.3840000182390213, 0.0, 0.0, 0.0, 0.0, 0.0, 1.7103914194082096E9, 0.0, 2024-03-13 21:43:39.408
44.0, 182.76143103465438, 53.93309726100415, -98.6566908811219, 38.77528274059296, 0.5120000243186951, 0.8320000395178795, 0.3840000182390213, 0.0, 0.0, 0.0, 0.0, 0.0, 1.710391419408942E9, 0.0, 2024-03-13 21:43:39.408
44.0, 177.85094239283353, 54.4716428546235, -93.60408604098484, 42.64607919473201, 0.5120000243186951, 0.8320000395178795, 0.3840000182390213, 0.0, 0.0, 0.0, 0.0, 0.0, 1.710391419408942E9, 0.0, 2024-03-13 21:43:39.408
45.0, 191.4604383315891, 61.51387447118759, -104.37873781332746, 48.43544432613999, 0.5120000243186951, 0.8320000395178795, 0.3840000182390213, 0.0, 0.0, 0.0, 0.0, 0.0, 1.7103914194096863E9, 0.0, 2024-03-13 21:43:39.409
45.0, 161.4477411871776, 36.781916064210236, -123.0408385922201, 23.224778724834323, 0.5120000243186951, 0.8320000395178795, 0.3840000182390213, 0.0, 0.0, 0.0, 0.0, 0.0, 1.7103914194096863E9, 0.0, 2024-03-13 21:43:39.409
46.0, 149.3267254307866, 30.483924538828433, -117.49830685788766, 24.08121581468731, 0.5120000243186951, 0.8320000395178795, 0.3840000182390213, 0.0, 0.0, 0.0, 0.0, 0.0, 1.7103914194221578E9, 0.0, 2024-03-13 21:43:39.422
46.0, 154.05021907482296, 28.21754516568035, -136.54561733221635, 17.401754493825138, 0.5120000243186951, 0.8320000395178795, 0.3840000182390213, 0.0, 0.0, 0.0, 0.0, 0.0, 1.7103914194221578E9, 0.0, 2024-03-13 21:43:39.422
47.0, 164.1180297555402, 45.91475175600499, -114.925255688373, 30.678399336524308, 0.5120000243186951, 0.8320000395178795, 0.3840000182390213, 0.0, 0.0, 0.0, 0.0, 0.0, 1.7103914194379096E9, 0.0, 2024-03-13 21:43:39.437
47.0, 166.0029393332079, 51.06833389494568, -96.41275090770796, 39.00715653784573, 0.5120000243186951, 0.8320000395178795, 0.3840000182390213, 0.0, 0.0, 0.0, 0.0, 0.0, 1.7103914194379096E9, 0.0, 2024-03-13 21:43:39.437
48.0, 156.00618675164878, 38.58828774280846, -129.71656001312658, 17.211019596084952, 0.5120000243186951, 0.8320000395178795, 0.3840000182390213, 0.0, 0.0, 0.0, 0.0, 0.0, 1.7103914194383748E9, 0.0, 2024-03-13 21:43:39.438
48.0, 156.9224622407928, 33.258930305950344, -149.95689857332036, 10.942947270348668, 0.5120000243186951, 0.8320000395178795, 0.3840000182390213, 0.0, 0.0, 0.0, 0.0, 0.0, 1.7103914194383748E9, 0.0, 2024-03-13 21:43:39.438
49.0, 157.75272003095597, 44.56090797204524, -115.1459097857587, 26.50467098597437, 0.5120000243186951, 0.8320000395178795, 0.3840000182390213, 0.0, 0.0, 0.0, 0.0, 0.0, 1.7103914194518626E9, 0.0, 2024-03-13 21:43:39.451
49.0, 158.6353364204988, 39.8710734276101, -111.18535573268309, 29.481631350703537, 0.5120000243186951, 0.8320000395178795, 0.3840000182390213, 0.0, 0.0, 0.0, 0.0, 0.0, 1.7103914194518626E9, 0.0, 2024-03-13 21:43:39.451
50.0, 167.0014926213771, 47.347133439034224, -134.31289705866948, 26.58694878499955, 0.5120000243186951, 0.8320000395178795, 0.3680000174790621, 0.0, 0.0, 0.0, 0.0, 0.0, 1.7103914194675925E9, 0.0, 2024-03-13 21:43:39.467
50.0, 176.65417440701276, 67.48275480046868, -97.01487480057403, 48.42796452622861, 0.5120000243186951, 0.8320000395178795, 0.3680000174790621, 0.0, 0.0, 0.0, 0.0, 0.0, 1.7103914194675925E9, 0.0, 2024-03-13 21:43:39.467
51.0, 186.24327789340168, 64.90970363095403, -86.96576361963525, 48.62991912383586, 0.5120000243186951, 0.8320000395178795, 0.3680000174790621, 0.0, 0.0, 0.0, 0.0, 0.0, 1.7103914194682643E9, 0.0, 2024-03-13 21:43:39.468
51.0, 166.7434395244345, 50.888818697072566, -121.13722951477394, 31.86394762247801, 0.5120000243186951, 0.8320000395178795, 0.3680000174790621, 0.0, 0.0, 0.0, 0.0, 0.0, 1.7103914194682643E9, 0.0, 2024-03-13 21:43:39.468
52.0, 161.3318042885512, 45.630519359372556, -116.11828377423808, 36.65101956576109, 0.5120000243186951, 0.8320000395178795, 0.3680000174790621, 0.0, 0.0, 0.0, 0.0, 0.0, 1.7103914194819448E9, 0.0, 2024-03-13 21:43:39.481
52.0, 161.81051148287952, 48.32698722742498, -104.98460160614923, 35.9441784741357, 0.5120000243186951, 0.8320000395178795, 0.3680000174790621, 0.0, 0.0, 0.0, 0.0, 0.0, 1.7103914194819448E9, 0.0, 2024-03-13 21:43:39.481
53.0, 165.1913810428232, 54.65115805249661, -108.87783746002242, 40.97434391453862, 0.5120000243186951, 0.8320000395178795, 0.3680000174790621, 0.0, 0.0, 0.0, 0.0, 0.0, 1.7103914194975426E9, 0.0, 2024-03-13 21:43:39.497
53.0, 170.4496803805232, 56.521108030341566, -122.57335109775886, 40.26376292295754, 0.5120000243186951, 0.8320000395178795, 0.3680000174790621, 0.0, 0.0, 0.0, 0.0, 0.0, 1.7103914194975426E9, 0.0, 2024-03-13 21:43:39.497
54.0, 182.2303652409464, 70.20166206825525, -93.59286634111777, 55.59735274128616, 0.5120000243186951, 0.8320000395178795, 0.3680000174790621, 0.0, 0.0, 0.0, 0.0, 0.0, 1.7103914194983184E9, 0.0, 2024-03-13 21:43:39.498
54.0, 173.77071154117584, 63.380084549076855, -75.75354355247691, 60.87809147872031, 0.5120000243186951, 0.8320000395178795, 0.3680000174790621, 0.0, 0.0, 0.0, 0.0, 0.0, 1.7103914194983184E9, 0.0, 2024-03-13 21:43:39.498
55.0, 168.77794510032982, 60.534020682796836, -104.20670241536573, 51.62931888829917, 0.5120000243186951, 0.8320000395178795, 0.3680000174790621, 0.0, 0.0, 0.0, 0.0, 0.0, 1.7103914195118644E9, 0.0, 2024-03-13 21:43:39.511
55.0, 176.35872231051326, 68.2531741913408, -94.96914952481166, 54.37066555581987, 0.5120000243186951, 0.8320000395178795, 0.3680000174790621, 0.0, 0.0, 0.0, 0.0, 0.0, 1.7103914195118644E9, 0.0, 2024-03-13 21:43:39.511
56.0, 181.22059225291014, 63.11081175226718, -86.37111952668056, 51.97712958417833, 0.5120000243186951, 0.8320000395178795, 0.3680000174790621, 0.0, 0.0, 0.0, 0.0, 0.0, 1.71039141952754E9, 0.0, 2024-03-13 21:43:39.527
56.0, 148.94525563530624, 40.33856092207134, -115.13469008589163, 36.026456273160875, 0.5120000243186951, 0.8320000395178795, 0.3680000174790621, 0.0, 0.0, 0.0, 0.0, 0.0, 1.71039141952754E9, 0.0, 2024-03-13 21:43:39.527
57.0, 156.0697650508955, 51.51712188962847, -105.79241999657825, 47.646325435489416, 0.5120000243186951, 0.8320000395178795, 0.3680000174790621, 0.0, 0.0, 0.0, 0.0, 0.0, 1.7103914195282607E9, 0.0, 2024-03-13 21:43:39.528
57.0, 175.26293162349612, 62.66576365754008, -77.60105413058773, 58.72764900419861, 0.5120000243186951, 0.8320000395178795, 0.3680000174790621, 0.0, 0.0, 0.0, 0.0, 0.0, 1.7103914195282607E9, 0.0, 2024-03-13 21:43:39.528
58.0, 185.1250478066504, 70.98330115899444, -74.908326162491, 67.9577220948413, 0.5120000243186951, 0.8320000395178795, 0.3680000174790621, 0.0, 0.0, 0.0, 0.0, 0.0, 1.7103914195418403E9, 0.0, 2024-03-13 21:43:39.541
58.0, 178.4530662856996, 65.47068862430751, -94.23986903345212, 57.68047701660544, 0.5120000243186951, 0.8320000395178795, 0.3680000174790621, 0.0, 0.0, 0.0, 0.0, 0.0, 1.7103914195418403E9, 0.0, 2024-03-13 21:43:39.541
59.0, 167.55125791486353, 54.66985755227506, -84.62458624737337, 54.86059245001525, 0.5120000243186951, 0.8320000395178795, 0.3680000174790621, 0.0, 0.0, 0.0, 0.0, 0.0, 1.7103914195575857E9, 0.0, 2024-03-13 21:43:39.557
59.0, 166.31335102953017, 53.9891957603395, -78.64448621822521, 55.04384754784405, 0.5120000243186951, 0.8320000395178795, 0.3680000174790621, 0.0, 0.0, 0.0, 0.0, 0.0, 1.7103914195575857E9, 0.0, 2024-03-13 21:43:39.557
60.0, 162.94744106940925, 49.05252781882882, -109.69687555031851, 47.18631774093956, 0.5120000243186951, 0.8320000395178795, 0.3840000182390213, 0.0, 0.0, 0.0, 0.0, 0.0, 1.7103914195582497E9, 0.0, 2024-03-13 21:43:39.558
60.0, 167.72703321278095, 59.22131579834968, -88.64123879978433, 55.87036543805152, 0.5120000243186951, 0.8320000395178795, 0.3840000182390213, 0.0, 0.0, 0.0, 0.0, 0.0, 1.7103914195582497E9, 0.0, 2024-03-13 21:43:39.558
61.0, 177.66020749509335, 60.79207377973944, -71.69201220059767, 58.89968440216035, 0.5120000243186951, 0.8320000395178795, 0.3840000182390213, 0.0, 0.0, 0.0, 0.0, 0.0, 1.7103914195718784E9, 0.0, 2024-03-13 21:43:39.571
61.0, 167.62979581393301, 49.16098491754383, -92.46715645445511, 53.23373596929014, 0.5120000243186951, 0.8320000395178795, 0.3840000182390213, 0.0, 0.0, 0.0, 0.0, 0.0, 1.7103914195718784E9, 0.0, 2024-03-13 21:43:39.571
62.0, 166.29091162979603, 51.763955286704004, -98.27522108564153, 51.42736429069191, 0.5120000243186951, 0.8320000395178795, 0.3840000182390213, 0.0, 0.0, 0.0, 0.0, 0.0, 1.710391419588628E9, 0.0, 2024-03-13 21:43:39.588
62.0, 177.86964189261198, 61.401677472516894, -80.33118109824136, 54.942870249040425, 0.5120000243186951, 0.8320000395178795, 0.3840000182390213, 0.0, 0.0, 0.0, 0.0, 0.0, 1.710391419588628E9, 0.0, 2024-03-13 21:43:39.588
63.0, 170.81245067622513, 52.78868787456304, -92.36243925569579, 48.62617922388017, 0.5120000243186951, 0.8320000395178795, 0.3840000182390213, 0.0, 0.0, 0.0, 0.0, 0.0, 1.710391419588771E9, 0.0, 2024-03-13 21:43:39.588
63.0, 181.05603665485978, 65.3659714255482, -97.31032689707354, 50.22685640491545, 0.5120000243186951, 0.8320000395178795, 0.3840000182390213, 0.0, 0.0, 0.0, 0.0, 0.0, 1.710391419588771E9, 0.0, 2024-03-13 21:43:39.588
64.0, 182.0508500430733, 65.9568756185472, -73.52082327893004, 57.14193142298609, 0.5120000243186951, 0.8320000395178795, 0.3840000182390213, 0.0, 0.0, 0.0, 0.0, 0.0, 1.7103914196021323E9, 0.0, 2024-03-13 21:43:39.602
64.0, 183.14290083013475, 68.17089639231563, -86.80494792154059, 49.88652550894767, 0.5120000243186951, 0.8320000395178795, 0.3840000182390213, 0.0, 0.0, 0.0, 0.0, 0.0, 1.7103914196021323E9, 0.0, 2024-03-13 21:43:39.602
65.0, 183.70762572344393, 68.60472478717566, -93.73498253943399, 54.80823385063559, 0.5120000243186951, 0.8320000395178795, 0.3840000182390213, 0.0, 0.0, 0.0, 0.0, 0.0, 1.7103914196175609E9, 0.0, 2024-03-13 21:43:39.617
65.0, 182.59687543660402, 64.94710263051093, -91.33770666783676, 50.466210002079606, 0.5120000243186951, 0.8320000395178795, 0.3840000182390213, 0.0, 0.0, 0.0, 0.0, 0.0, 1.7103914196175609E9, 0.0, 2024-03-13 21:43:39.617
66.0, 181.96483234409243, 63.66431694570929, -87.36593291489407, 46.68143124692142, 0.5120000243186951, 0.8320000395178795, 0.3840000182390213, 0.0, 0.0, 0.0, 0.0, 0.0, 1.710391419618492E9, 0.0, 2024-03-13 21:43:39.618
66.0, 165.0455249445513, 50.3951519029215, -108.80303946090862, 31.890126922167838, 0.5120000243186951, 0.8320000395178795, 0.3840000182390213, 0.0, 0.0, 0.0, 0.0, 0.0, 1.710391419618492E9, 0.0, 2024-03-13 21:43:39.618
67.0, 176.45969960931689, 62.553566658869386, -103.44376282440498, 42.78819539304823, 0.5120000243186951, 0.8320000395178795, 0.3840000182390213, 0.0, 0.0, 0.0, 0.0, 0.0, 1.7103914196318676E9, 0.0, 2024-03-13 21:43:39.631
67.0, 187.795336375013, 73.10008453391492, -75.28231615805998, 55.81800683867186, 0.5120000243186951, 0.8320000395178795, 0.3840000182390213, 0.0, 0.0, 0.0, 0.0, 0.0, 1.7103914196318676E9, 0.0, 2024-03-13 21:43:39.631
68.0, 170.61797587852925, 52.078106882981956, -101.08388595236465, 35.2747363820672, 0.5120000243186951, 0.8320000395178795, 0.3840000182390213, 0.0, 0.0, 0.0, 0.0, 0.0, 1.710391419647566E9, 0.0, 2024-03-13 21:43:39.647
68.0, 179.4927584733814, 63.9186301426962, -106.78723338479176, 44.59082717169076, 0.5120000243186951, 0.8320000395178795, 0.3840000182390213, 0.0, 0.0, 0.0, 0.0, 0.0, 1.710391419647566E9, 0.0, 2024-03-13 21:43:39.647
69.0, 197.30590196233243, 75.740453902632, -77.47763743204996, 61.020207677036524, 0.5120000243186951, 0.8320000395178795, 0.3840000182390213, 0.0, 0.0, 0.0, 0.0, 0.0, 1.7103914196482337E9, 0.0, 2024-03-13 21:43:39.648
69.0, 161.38416288793087, 49.08244701847434, -102.87155813118443, 31.80036932323128, 0.5120000243186951, 0.8320000395178795, 0.3840000182390213, 0.0, 0.0, 0.0, 0.0, 0.0, 1.7103914196482337E9, 0.0, 2024-03-13 21:43:39.648
70.0, 165.38585584051907, 48.22600992862135, -110.7365677380003, 37.81038855202496, 0.5120000243186951, 0.8320000395178795, 0.3680000174790621, 0.0, 0.0, 0.0, 0.0, 0.0, 1.7103914196619053E9, 0.0, 2024-03-13 21:43:39.661
70.0, 171.49685236811638, 58.933343501761556, -96.78300100332126, 46.24760285206139, 0.5120000243186951, 0.8320000395178795, 0.3680000174790621, 0.0, 0.0, 0.0, 0.0, 0.0, 1.7103914196619053E9, 0.0, 2024-03-13 21:43:39.661
71.0, 152.1428700974211, 39.994490126147866, -104.00474781775847, 29.459191950969398, 0.5120000243186951, 0.8320000395178795, 0.3680000174790621, 0.0, 0.0, 0.0, 0.0, 0.0, 1.7103914196775947E9, 0.0, 2024-03-13 21:43:39.677
71.0, 162.79410517122597, 36.95021156221628, -123.80751808313653, 23.72966521885246, 0.5120000243186951, 0.8320000395178795, 0.3680000174790621, 0.0, 0.0, 0.0, 0.0, 0.0, 1.7103914196775947E9, 0.0, 2024-03-13 21:43:39.677
72.0, 170.8947284752503, 45.85117345675826, -115.19078858522698, 25.7155520953238, 0.5120000243186951, 0.8320000395178795, 0.3680000174790621, 0.0, 0.0, 0.0, 0.0, 0.0, 1.710391419678278E9, 0.0, 2024-03-13 21:43:39.678
72.0, 166.34701012913138, 43.89146587997675, -107.20610217982903, 26.16434009000659, 0.5120000243186951, 0.8320000395178795, 0.3680000174790621, 0.0, 0.0, 0.0, 0.0, 0.0, 1.710391419678278E9, 0.0, 2024-03-13 21:43:39.678
73.0, 169.55584429111332, 42.55258169583976, -102.81171973189339, 32.32395531702787, 0.5120000243186951, 0.8320000395178795, 0.3680000174790621, 0.0, 0.0, 0.0, 0.0, 0.0, 1.710391419691915E9, 0.0, 2024-03-13 21:43:39.691
73.0, 159.75356650725007, 45.241569763980806, -109.401423453819, 33.81617539934814, 0.5120000243186951, 0.8320000395178795, 0.3680000174790621, 0.0, 0.0, 0.0, 0.0, 0.0, 1.710391419691915E9, 0.0, 2024-03-13 21:43:39.691
74.0, 167.18100781925023, 49.38537891488522, -86.41599832614884, 41.3520738100633, 0.5120000243186951, 0.8320000395178795, 0.3680000174790621, 0.0, 0.0, 0.0, 0.0, 0.0, 1.710391419707577E9, 0.0, 2024-03-13 21:43:39.707
74.0, 148.49646764062345, 33.629180401563644, -98.7688878797926, 26.92353978101164, 0.5120000243186951, 0.8320000395178795, 0.3680000174790621, 0.0, 0.0, 0.0, 0.0, 0.0, 1.710391419707577E9, 0.0, 2024-03-13 21:43:39.707
75.0, 154.45412827003747, 36.445325068198144, -122.08342420356348, 22.847048829309642, 0.5120000243186951, 0.8320000395178795, 0.3680000174790621, 0.0, 0.0, 0.0, 0.0, 0.0, 1.7103914197082725E9, 0.0, 2024-03-13 21:43:39.708
75.0, 176.65043450705707, 54.976529348641634, -86.25518262805417, 44.29537507519126, 0.5120000243186951, 0.8320000395178795, 0.3680000174790621, 0.0, 0.0, 0.0, 0.0, 0.0, 1.7103914197082725E9, 0.0, 2024-03-13 21:43:39.708
76.0, 179.70219287090003, 51.64801838807762, -96.83161970274523, 37.4251788565889, 0.5120000243186951, 0.8320000395178795, 0.3680000174790621, 0.0, 0.0, 0.0, 0.0, 0.0, 1.7103914197221413E9, 0.0, 2024-03-13 21:43:39.722
76.0, 155.27690626028925, 39.14179293625057, -110.39623684203252, 23.38559442292899, 0.5120000243186951, 0.8320000395178795, 0.3680000174790621, 0.0, 0.0, 0.0, 0.0, 0.0, 1.7103914197221413E9, 0.0, 2024-03-13 21:43:39.722
77.0, 152.02319329883903, 36.905332762748, -119.40565583528951, 22.794690229929984, 0.5120000243186951, 0.8320000395178795, 0.3680000174790621, 0.0, 0.0, 0.0, 0.0, 0.0, 1.710391419737626E9, 0.0, 2024-03-13 21:43:39.737
77.0, 159.91812210530043, 40.78360901679844, -98.40611758409068, 27.162893378175795, 0.5120000243186951, 0.8320000395178795, 0.3680000174790621, 0.0, 0.0, 0.0, 0.0, 0.0, 1.710391419737626E9, 0.0, 2024-03-13 21:43:39.737
78.0, 161.72823368385434, 31.72557132411748, -114.06881859852001, 19.847649064846337, 0.5120000243186951, 0.8320000395178795, 0.3680000174790621, 0.0, 0.0, 0.0, 0.0, 0.0, 1.710391419738288E9, 0.0, 2024-03-13 21:43:39.738
78.0, 164.58925714995712, 35.244817182421684, -127.34546344121918, 16.16758750844747, 0.5120000243186951, 0.8320000395178795, 0.3680000174790621, 0.0, 0.0, 0.0, 0.0, 0.0, 1.710391419738288E9, 0.0, 2024-03-13 21:43:39.738
79.0, 164.4434010516852, 41.83078100439161, -109.86891094828025, 21.149134249426425, 0.5120000243186951, 0.8320000395178795, 0.3680000174790621, 0.0, 0.0, 0.0, 0.0, 0.0, 1.7103914197518568E9, 0.0, 2024-03-13 21:43:39.751
79.0, 149.52120022848248, 30.22213154193014, -112.09789132187143, 18.658360878936946, 0.5120000243186951, 0.8320000395178795, 0.3680000174790621, 0.0, 0.0, 0.0, 0.0, 0.0, 1.7103914197518568E9, 0.0, 2024-03-13 21:43:39.751
80.0, 165.3409770410508, 41.16507881227881, -109.90630994783714, 30.58490183763206, 0.5120000243186951, 0.8320000395178795, 0.3680000174790621, 0.0, 0.0, 0.0, 0.0, 0.0, 1.71039141976751E9, 0.0, 2024-03-13 21:43:39.767
80.0, 163.5271255625412, 47.85575983300805, -98.02464778861031, 40.058068425394595, 0.5120000243186951, 0.8320000395178795, 0.3680000174790621, 0.0, 0.0, 0.0, 0.0, 0.0, 1.71039141976751E9, 0.0, 2024-03-13 21:43:39.767
81.0, 158.09679082687944, 39.624240030534565, -91.25168896885589, 36.54630236700177, 0.5120000243186951, 0.8320000395178795, 0.3680000174790621, 0.0, 0.0, 0.0, 0.0, 0.0, 1.7103914197682464E9, 0.0, 2024-03-13 21:43:39.768
81.0, 152.89458998851478, 31.138407031074166, -112.98798751132563, 24.073736014775932, 0.5120000243186951, 0.8320000395178795, 0.3680000174790621, 0.0, 0.0, 0.0, 0.0, 0.0, 1.7103914197682464E9, 0.0, 2024-03-13 21:43:39.768
82.0, 158.9644476165995, 38.068441648967564, -114.05759889865294, 29.73220464773476, 0.5120000243186951, 0.8320000395178795, 0.3680000174790621, 0.0, 0.0, 0.0, 0.0, 0.0, 1.710391419781834E9, 0.0, 2024-03-13 21:43:39.781
82.0, 172.90305475145578, 54.19115035794675, -95.5824931175448, 36.99135046172887, 0.5120000243186951, 0.8320000395178795, 0.3680000174790621, 0.0, 0.0, 0.0, 0.0, 0.0, 1.710391419781834E9, 0.0, 2024-03-13 21:43:39.781
83.0, 191.8680874267593, 53.731142663396895, -95.29826072091237, 43.32674098666757, 0.5120000243186951, 0.8320000395178795, 0.3680000174790621, 0.0, 0.0, 0.0, 0.0, 0.0, 1.7103914197975736E9, 0.0, 2024-03-13 21:43:39.797
83.0, 155.0001536635682, 35.7571834763512, -121.5598382097669, 26.284016888588667, 0.5120000243186951, 0.8320000395178795, 0.3680000174790621, 0.0, 0.0, 0.0, 0.0, 0.0, 1.7103914197975736E9, 0.0, 2024-03-13 21:43:39.797
84.0, 157.2927123364061, 42.818114592693746, -96.15843771072105, 37.223224258981645, 0.5120000243186951, 0.8320000395178795, 0.3680000174790621, 0.0, 0.0, 0.0, 0.0, 0.0, 1.7103914197984624E9, 0.0, 2024-03-13 21:43:39.798
84.0, 165.50553263910115, 41.692404706031084, -102.46016913605854, 30.23335124179721, 0.5120000243186951, 0.8320000395178795, 0.3680000174790621, 0.0, 0.0, 0.0, 0.0, 0.0, 1.7103914197984624E9, 0.0, 2024-03-13 21:43:39.798
85.0, 156.4774141460657, 35.42059248033911, -129.1144361202605, 19.69431316666305, 0.5120000243186951, 0.8320000395178795, 0.3680000174790621, 0.0, 0.0, 0.0, 0.0, 0.0, 1.7103914198118446E9, 0.0, 2024-03-13 21:43:39.811
85.0, 163.8973756581545, 42.511442796327174, -106.85829148394987, 32.20801841840148, 0.5120000243186951, 0.8320000395178795, 0.3680000174790621, 0.0, 0.0, 0.0, 0.0, 0.0, 1.7103914198118446E9, 0.0, 2024-03-13 21:43:39.811
86.0, 164.27136565372348, 44.25049627572298, -100.00679476512596, 35.226117682643235, 0.5120000243186951, 0.8320000395178795, 0.3680000174790621, 0.0, 0.0, 0.0, 0.0, 0.0, 1.7103914198277404E9, 0.0, 2024-03-13 21:43:39.827
86.0, 178.47176578547806, 46.139145753346384, -112.08667162200436, 30.827995334751904, 0.5120000243186951, 0.8320000395178795, 0.3680000174790621, 0.0, 0.0, 0.0, 0.0, 0.0, 1.7103914198277404E9, 0.0, 2024-03-13 21:43:39.827
87.0, 185.67107320018113, 57.332666320726275, -94.43808373110369, 49.44521731417626, 0.5120000243186951, 0.8320000395178795, 0.3680000174790621, 0.0, 0.0, 0.0, 0.0, 0.0, 1.7103914198284616E9, 0.0, 2024-03-13 21:43:39.828
87.0, 176.69157340656966, 61.805586667731404, -81.722423881758, 48.057714430615306, 0.5120000243186951, 0.8320000395178795, 0.3680000174790621, 0.0, 0.0, 0.0, 0.0, 0.0, 1.7103914198284616E9, 0.0, 2024-03-13 21:43:39.828
88.0, 174.55609053187072, 53.779761362820864, -93.37221224373206, 41.46801070868969, 0.5120000243186951, 0.8320000395178795, 0.3680000174790621, 0.0, 0.0, 0.0, 0.0, 0.0, 1.710391419842158E9, 0.0, 2024-03-13 21:43:39.842
88.0, 187.5746822776273, 65.549226523377, -110.89364353613928, 42.444124597124755, 0.5120000243186951, 0.8320000395178795, 0.3680000174790621, 0.0, 0.0, 0.0, 0.0, 0.0, 1.710391419842158E9, 0.0, 2024-03-13 21:43:39.842
89.0, 171.5641705673188, 57.83007301483303, -91.21802986925468, 45.44352436158806, 0.5120000243186951, 0.8320000395178795, 0.3680000174790621, 0.0, 0.0, 0.0, 0.0, 0.0, 1.7103914198575895E9, 0.0, 2024-03-13 21:43:39.857
89.0, 190.7199381403625, 65.26499412674457, -83.86538655636832, 46.99184294324368, 0.5120000243186951, 0.8320000395178795, 0.3680000174790621, 0.0, 0.0, 0.0, 0.0, 0.0, 1.7103914198575895E9, 0.0, 2024-03-13 21:43:39.857
90.0, 180.80546335782856, 56.120938735082746, -117.05325876316056, 41.99533660244197, 0.5120000243186951, 0.8320000395178795, 0.3840000182390213, 0.0, 0.0, 0.0, 0.0, 0.0, 1.7103914198582911E9, 0.0, 2024-03-13 21:43:39.858
90.0, 187.81777577474713, 67.9577220948413, -82.9453711672686, 54.969049548730254, 0.5120000243186951, 0.8320000395178795, 0.3840000182390213, 0.0, 0.0, 0.0, 0.0, 0.0, 1.7103914198582911E9, 0.0, 2024-03-13 21:43:39.858
91.0, 190.13651374727488, 67.16112340427935, -88.51034230133519, 51.307687492109835, 0.5120000243186951, 0.8320000395178795, 0.3840000182390213, 0.0, 0.0, 0.0, 0.0, 0.0, 1.7103914198722217E9, 0.0, 2024-03-13 21:43:39.872
91.0, 194.6131739942357, 67.70340889785439, -103.79157352028415, 49.05252781882882, 0.5120000243186951, 0.8320000395178795, 0.3840000182390213, 0.0, 0.0, 0.0, 0.0, 0.0, 1.7103914198722217E9, 0.0, 2024-03-13 21:43:39.872
92.0, 181.46368575002998, 65.55670632328838, -100.6201383578591, 45.91475175600499, 0.5120000243186951, 0.8320000395178795, 0.3840000182390213, 0.0, 0.0, 0.0, 0.0, 0.0, 1.7103914199040933E9, 0.0, 2024-03-13 21:43:39.904
92.0, 178.5241243848577, 67.00030770618469, -88.34952660324052, 46.920784844085574, 0.5120000243186951, 0.8320000395178795, 0.3840000182390213, 0.0, 0.0, 0.0, 0.0, 0.0, 1.7103914199040933E9, 0.0, 2024-03-13 21:43:39.904
93.0, 184.88195430953056, 62.534867159090936, -99.64028456946835, 45.18173136468977, 0.5120000243186951, 0.8320000395178795, 0.3840000182390213, 0.0, 0.0, 0.0, 0.0, 0.0, 1.7103914199046938E9, 0.0, 2024-03-13 21:43:39.904
93.0, 186.43027289118618, 59.397091096267104, -110.11948424531147, 45.91849165596068, 0.5120000243186951, 0.8320000395178795, 0.3840000182390213, 0.0, 0.0, 0.0, 0.0, 0.0, 1.7103914199046938E9, 0.0, 2024-03-13 21:43:39.904
94.0, 183.44209282658994, 64.44221613649279, -78.67066551791504, 61.360538573004305, 0.5120000243186951, 0.8320000395178795, 0.3840000182390213, 0.0, 0.0, 0.0, 0.0, 0.0, 1.7103914199054232E9, 0.0, 2024-03-13 21:43:39.905
94.0, 177.20767960045487, 64.83864553179592, -74.47449776763096, 57.04095412418246, 0.5120000243186951, 0.8320000395178795, 0.3840000182390213, 0.0, 0.0, 0.0, 0.0, 0.0, 1.7103914199054232E9, 0.0, 2024-03-13 21:43:39.905
95.0, 171.0031855739653, 54.77457475103438, -104.24036151496693, 49.280661716125906, 0.5120000243186951, 0.8320000395178795, 0.3840000182390213, 0.0, 0.0, 0.0, 0.0, 0.0, 1.7103914199063234E9, 0.0, 2024-03-13 21:43:39.906
95.0, 185.66733330022544, 63.817652843892574, -88.60757970018312, 58.37983830831945, 0.5120000243186951, 0.8320000395178795, 0.3840000182390213, 0.0, 0.0, 0.0, 0.0, 0.0, 1.7103914199063234E9, 0.0, 2024-03-13 21:43:39.906
96.0, 165.39333564043045, 57.317706720903516, -79.92353200307116, 48.65235852357, 0.5120000243186951, 0.8320000395178795, 0.3840000182390213, 0.0, 0.0, 0.0, 0.0, 0.0, 1.710391419916858E9, 0.0, 2024-03-13 21:43:39.916
96.0, 163.51590586267412, 46.79736814554781, -114.77191979018971, 39.0183762377128, 0.5120000243186951, 0.8320000395178795, 0.3840000182390213, 0.0, 0.0, 0.0, 0.0, 0.0, 1.710391419916858E9, 0.0, 2024-03-13 21:43:39.916
97.0, 188.74527096375823, 67.7370679974556, -99.41589057212695, 54.546440853737295, 0.5120000243186951, 0.8320000395178795, 0.3840000182390213, 0.0, 0.0, 0.0, 0.0, 0.0, 1.710391419932008E9, 0.0, 2024-03-13 21:43:39.932
97.0, 186.5686491895467, 67.04144660569727, -84.36279325047508, 48.01283563114703, 0.5120000243186951, 0.8320000395178795, 0.3840000182390213, 0.0, 0.0, 0.0, 0.0, 0.0, 1.710391419932008E9, 0.0, 2024-03-13 21:43:39.932
98.0, 182.7202921351418, 56.22191603388637, -90.0997997825034, 47.07786064222455, 0.5120000243186951, 0.8320000395178795, 0.3840000182390213, 0.0, 0.0, 0.0, 0.0, 0.0, 1.7103914199475749E9, 0.0, 2024-03-13 21:43:39.947
98.0, 167.19596741907299, 47.253635940141976, -120.84925721818581, 32.002323920838535, 0.5120000243186951, 0.8320000395178795, 0.3840000182390213, 0.0, 0.0, 0.0, 0.0, 0.0, 1.7103914199475749E9, 0.0, 2024-03-13 21:43:39.947
99.0, 175.7528585176915, 55.08872634731233, -85.7615158339031, 51.59939968865365, 0.5120000243186951, 0.8320000395178795, 0.3840000182390213, 0.0, 0.0, 0.0, 0.0, 0.0, 1.7103914199482653E9, 0.0, 2024-03-13 21:43:39.948
99.0, 172.91053455136716, 48.23722962848842, -94.74101562751457, 39.80375522840768, 0.5120000243186951, 0.8320000395178795, 0.3840000182390213, 0.0, 0.0, 0.0, 0.0, 0.0, 1.7103914199482653E9, 0.0, 2024-03-13 21:43:39.948
100.0, 168.69940720126033, 49.13106571789831, -107.46789517672732, 42.30200839880854, 0.5120000243186951, 0.8320000395178795, 0.3840000182390213, 0.0, 0.0, 0.0, 0.0, 0.0, 1.7103914199625745E9, 0.0, 2024-03-13 21:43:39.962
100.0, 161.84417058248073, 56.00874173641205, -98.00968818878755, 46.34484025090933, 0.5120000243186951, 0.8320000395178795, 0.3840000182390213, 0.0, 0.0, 0.0, 0.0, 0.0, 1.7103914199625745E9, 0.0, 2024-03-13 21:43:39.962
0.0, 186.02449374599382, 70.96834155917168, -65.41459012497216, 64.35993833746761, 0.5120000243186951, 0.8320000395178795, 0.3840000182390213, 0.0, 0.0, 0.0, 0.0, 0.0, 1.7103914199632564E9, 0.0, 2024-03-13 21:43:39.963
1.0, 194.151296349708, 71.3311118548736, -84.77231229562312, 56.913797525689006, 0.5120000243186951, 0.8320000395178795, 0.3840000182390213, 0.0, 0.0, 0.0, 0.0, 0.0, 1.710391419976879E9, 0.0, 2024-03-13 21:43:39.976
1.0, 183.38412437727675, 58.2489418098703, -107.84375512227416, 42.97893029078841, 0.5120000243186951, 0.8320000395178795, 0.3840000182390213, 0.0, 0.0, 0.0, 0.0, 0.0, 1.710391419976879E9, 0.0, 2024-03-13 21:43:39.976
2.0, 177.3666253485717, 53.678784064017236, -91.1563215199858, 42.29452859889716, 0.5120000243186951, 0.8320000395178795, 0.3840000182390213, 0.0, 0.0, 0.0, 0.0, 0.0, 1.7103914199927132E9, 0.0, 2024-03-13 21:43:39.992
2.0, 178.04728714050725, 47.82958053331822, -96.0107116624713, 39.51578293181956, 0.5120000243186951, 0.8320000395178795, 0.3840000182390213, 0.0, 0.0, 0.0, 0.0, 0.0, 1.7103914199927132E9, 0.0, 2024-03-13 21:43:39.992
3.0, 171.947510312777, 49.49757591355592, -108.41221991553903, 40.57791451923549, 0.5120000243186951, 0.8320000395178795, 0.3840000182390213, 0.0, 0.0, 0.0, 0.0, 0.0, 1.7103914199934268E9, 0.0, 2024-03-13 21:43:39.993
3.0, 193.2911193598993, 75.68435540329665, -73.53017302881926, 60.07775288820267, 0.5120000243186951, 0.8320000395178795, 0.3840000182390213, 0.0, 0.0, 0.0, 0.0, 0.0, 1.7103914199934268E9, 0.0, 2024-03-13 21:43:39.993
4.0, 184.8090262603946, 62.08981906436384, -91.76218531280756, 45.12189296539873, 0.5120000243186951, 0.8320000395178795, 0.3840000182390213, 0.0, 0.0, 0.0, 0.0, 0.0, 1.7103914200235434E9, 0.0, 2024-03-13 21:43:40.023
4.0, 212.7872178289108, 76.32013839576393, -102.4171602865681, 52.30250088032335, 0.5120000243186951, 0.8320000395178795, 0.3840000182390213, 0.0, 0.0, 0.0, 0.0, 0.0, 1.7103914200235434E9, 0.0, 2024-03-13 21:43:40.023
5.0, 219.02537095500156, 87.28552506584674, -81.91876862943172, 62.06363976467401, 0.5120000243186951, 0.8320000395178795, 0.3840000182390213, 0.0, 0.0, 0.0, 0.0, 0.0, 1.7103914200241091E9, 0.0, 2024-03-13 21:43:40.024
5.0, 186.72385503770784, 69.5883184755221, -84.47312029916793, 52.33989987988025, 0.5120000243186951, 0.8320000395178795, 0.3840000182390213, 0.0, 0.0, 0.0, 0.0, 0.0, 1.7103914200241091E9, 0.0, 2024-03-13 21:43:40.024
6.0, 186.35734484205022, 58.6939899045974, -114.85980743914843, 36.95395146217197, 0.5120000243186951, 0.8320000395178795, 0.3840000182390213, 0.0, 0.0, 0.0, 0.0, 0.0, 1.7103914200247316E9, 0.0, 2024-03-13 21:43:40.024
6.0, 195.64351643202826, 70.97582135908306, -102.47325878590345, 48.121292729862034, 0.5120000243186951, 0.8320000395178795, 0.3840000182390213, 0.0, 0.0, 0.0, 0.0, 0.0, 1.7103914200247316E9, 0.0, 2024-03-13 21:43:40.024
7.0, 192.56183886853978, 68.96375518292189, -82.00478632841259, 53.48430926632136, 0.5120000243186951, 0.8320000395178795, 0.3840000182390213, 0.0, 0.0, 0.0, 0.0, 0.0, 1.7103914200368464E9, 0.0, 2024-03-13 21:43:40.036
7.0, 196.5223929216154, 67.39299720153213, -100.93242000415921, 42.37680639792234, 0.5120000243186951, 0.8320000395178795, 0.3840000182390213, 0.0, 0.0, 0.0, 0.0, 0.0, 1.7103914200368464E9, 0.0, 2024-03-13 21:43:40.036
8.0, 199.28991888882592, 71.96315494738519, -111.5350363785401, 44.78530196938664, 0.5120000243186951, 0.8320000395178795, 0.3840000182390213, 0.0, 0.0, 0.0, 0.0, 0.0, 1.7103914200529823E9, 0.0, 2024-03-13 21:43:40.052
8.0, 199.94440138107166, 83.38106951210648, -75.58337810449302, 62.49746815953404, 0.5120000243186951, 0.8320000395178795, 0.3840000182390213, 0.0, 0.0, 0.0, 0.0, 0.0, 1.7103914200529823E9, 0.0, 2024-03-13 21:43:40.052
9.0, 196.4438550225459, 79.83564435411245, -75.8526509013027, 62.609665158204734, 0.5120000243186951, 0.8320000395178795, 0.3840000182390213, 0.0, 0.0, 0.0, 0.0, 0.0, 1.7103914200534291E9, 0.0, 2024-03-13 21:43:40.053
9.0, 211.53435134375468, 84.55539809819311, -89.77629843633622, 65.04060012940317, 0.5120000243186951, 0.8320000395178795, 0.3840000182390213, 0.0, 0.0, 0.0, 0.0, 0.0, 1.7103914200534291E9, 0.0, 2024-03-13 21:43:40.053
10.0, 202.40151565195993, 78.78847236651927, -87.35658316500485, 59.49058859515935, 0.5120000243186951, 0.8320000395178795, 0.3840000182390213, 0.0, 0.0, 0.0, 0.0, 0.0, 1.7103914200668275E9, 0.0, 2024-03-13 21:43:40.066
10.0, 209.84017666382715, 91.53031151555479, -58.952043001540005, 76.73526729084551, 0.5120000243186951, 0.8320000395178795, 0.3840000182390213, 0.0, 0.0, 0.0, 0.0, 0.0, 1.7103914200668275E9, 0.0, 2024-03-13 21:43:40.066
11.0, 201.98264685692266, 77.17283558566123, -95.73769896570593, 59.92067709006369, 0.5120000243186951, 0.8320000395178795, 0.3840000182390213, 0.0, 0.0, 0.0, 0.0, 0.0, 1.710391420082594E9, 0.0, 2024-03-13 21:43:40.082
11.0, 215.03115780232474, 87.21072706673294, -87.113489667885, 63.21926885098219, 0.5120000243186951, 0.8320000395178795, 0.3840000182390213, 0.0, 0.0, 0.0, 0.0, 0.0, 1.710391420082594E9, 0.0, 2024-03-13 21:43:40.082
12.0, 210.14310856023803, 80.43402834702283, -71.59290485177189, 60.24604838620871, 0.5120000243186951, 0.8320000395178795, 0.3840000182390213, 0.0, 0.0, 0.0, 0.0, 0.0, 1.710391420083295E9, 0.0, 2024-03-13 21:43:40.083
12.0, 182.2509346907027, 59.07919960003346, -109.4967909026891, 36.007756773382425, 0.5120000243186951, 0.8320000395178795, 0.3840000182390213, 0.0, 0.0, 0.0, 0.0, 0.0, 1.710391420083295E9, 0.0, 2024-03-13 21:43:40.083
13.0, 181.71612899703905, 61.5849325703457, -110.57388208992779, 41.669965306296945, 0.5120000243186951, 0.8320000395178795, 0.3840000182390213, 0.0, 0.0, 0.0, 0.0, 0.0, 1.7103914200968485E9, 0.0, 2024-03-13 21:43:40.096
13.0, 173.21907629771158, 47.82584063336253, -114.17914564721286, 26.048403191380203, 0.5120000243186951, 0.8320000395178795, 0.3840000182390213, 0.0, 0.0, 0.0, 0.0, 0.0, 1.7103914200968485E9, 0.0, 2024-03-13 21:43:40.096
14.0, 170.57496702903882, 49.07870711851865, -101.6766600953415, 34.31732199341059, 0.5120000243186951, 0.8320000395178795, 0.3840000182390213, 0.0, 0.0, 0.0, 0.0, 0.0, 1.7103914201125796E9, 0.0, 2024-03-13 21:43:40.112
14.0, 183.45892237639055, 56.03492103610188, -117.5375758074224, 39.197891435585916, 0.5120000243186951, 0.8320000395178795, 0.3840000182390213, 0.0, 0.0, 0.0, 0.0, 0.0, 1.7103914201125796E9, 0.0, 2024-03-13 21:43:40.112
15.0, 206.36580960499123, 78.39204297121614, -81.855190330185, 62.39649086073041, 0.5120000243186951, 0.8320000395178795, 0.3840000182390213, 0.0, 0.0, 0.0, 0.0, 0.0, 1.710391420113297E9, 0.0, 2024-03-13 21:43:40.113
15.0, 199.20764108980075, 71.08053855784237, -76.60437079239637, 58.42097720783204, 0.5120000243186951, 0.8320000395178795, 0.3840000182390213, 0.0, 0.0, 0.0, 0.0, 0.0, 1.710391420113297E9, 0.0, 2024-03-13 21:43:40.113
16.0, 199.6339896847494, 74.18839542102069, -94.27913798298687, 54.905471249483526, 0.5120000243186951, 0.8320000395178795, 0.3840000182390213, 0.0, 0.0, 0.0, 0.0, 0.0, 1.710391420127098E9, 0.0, 2024-03-13 21:43:40.127
16.0, 199.02812589192763, 80.28069244883955, -106.43381283897907, 54.568880253471434, 0.5120000243186951, 0.8320000395178795, 0.3840000182390213, 0.0, 0.0, 0.0, 0.0, 0.0, 1.710391420127098E9, 0.0, 2024-03-13 21:43:40.127
17.0, 199.09170419117436, 75.79655240196735, -82.2590995253995, 60.25352818612009, 0.5120000243186951, 0.8320000395178795, 0.3840000182390213, 0.0, 0.0, 0.0, 0.0, 0.0, 1.7103914201425767E9, 0.0, 2024-03-13 21:43:40.142
17.0, 200.2248938777484, 73.111304233782, -93.81913028843701, 48.510242325253785, 0.5120000243186951, 0.8320000395178795, 0.3840000182390213, 0.0, 0.0, 0.0, 0.0, 0.0, 1.7103914201425767E9, 0.0, 2024-03-13 21:43:40.142
18.0, 188.85559801245108, 66.514120711945, -117.95270470250398, 42.840553992427886, 0.5120000243186951, 0.8320000395178795, 0.3840000182390213, 0.0, 0.0, 0.0, 0.0, 0.0, 1.7103914201432931E9, 0.0, 2024-03-13 21:43:40.143
18.0, 185.2914733546786, 63.1781299514696, -109.89322029799223, 36.74077716469765, 0.5120000243186951, 0.8320000395178795, 0.3840000182390213, 0.0, 0.0, 0.0, 0.0, 0.0, 1.7103914201432931E9, 0.0, 2024-03-13 21:43:40.143
19.0, 192.5917580681853, 72.04543274641037, -86.93397447001189, 48.21105032879859, 0.5120000243186951, 0.8320000395178795, 0.3840000182390213, 0.0, 0.0, 0.0, 0.0, 0.0, 1.7103914201574364E9, 0.0, 2024-03-13 21:43:40.157
19.0, 204.82871072320268, 73.219761332497, -109.29109640512615, 45.679138058796525, 0.5120000243186951, 0.8320000395178795, 0.3840000182390213, 0.0, 0.0, 0.0, 0.0, 0.0, 1.7103914201574364E9, 0.0, 2024-03-13 21:43:40.157
20.0, 193.79974575387314, 72.80463243741542, -89.12555584404618, 60.556460082530975, 0.5120000243186951, 0.8320000395178795, 0.3840000182390213, 0.0, 0.0, 0.0, 0.0, 0.0, 1.7103914201726336E9, 0.0, 2024-03-13 21:43:40.172
20.0, 184.48739486420527, 62.613405058160424, -91.53405141551048, 46.57297414820641, 0.5120000243186951, 0.8320000395178795, 0.3840000182390213, 0.0, 0.0, 0.0, 0.0, 0.0, 1.7103914201726336E9, 0.0, 2024-03-13 21:43:40.172
21.0, 179.79008051985875, 55.85166593827307, -102.1965061891824, 39.97953052632511, 0.5120000243186951, 0.8320000395178795, 0.3840000182390213, 0.0, 0.0, 0.0, 0.0, 0.0, 1.7103914201732821E9, 0.0, 2024-03-13 21:43:40.173
21.0, 194.2260943488218, 70.23906106781214, -103.81962276995182, 53.282354668714106, 0.5120000243186951, 0.8320000395178795, 0.3840000182390213, 0.0, 0.0, 0.0, 0.0, 0.0, 1.7103914201732821E9, 0.0, 2024-03-13 21:43:40.173
22.0, 192.7750131660141, 73.81814532540739, -88.23919955454767, 55.339299644343555, 0.5120000243186951, 0.8320000395178795, 0.3840000182390213, 0.0, 0.0, 0.0, 0.0, 0.0, 1.7103914202036736E9, 0.0, 2024-03-13 21:43:40.203
22.0, 186.59669843921438, 67.44909570086747, -103.98791826795787, 44.033582078292966, 0.5120000243186951, 0.8320000395178795, 0.3840000182390213, 0.0, 0.0, 0.0, 0.0, 0.0, 1.7103914202036736E9, 0.0, 2024-03-13 21:43:40.203
23.0, 209.91497466294095, 84.89946889411658, -98.79319722950459, 61.06882637646049, 0.5120000243186951, 0.8320000395178795, 0.3840000182390213, 0.0, 0.0, 0.0, 0.0, 0.0, 1.7103914202041552E9, 0.0, 2024-03-13 21:43:40.204
23.0, 191.83629827713594, 75.64321650378406, -88.56457085069269, 59.92441699001938, 0.5120000243186951, 0.8320000395178795, 0.3840000182390213, 0.0, 0.0, 0.0, 0.0, 0.0, 1.7103914202041552E9, 0.0, 2024-03-13 21:43:40.204
24.0, 181.5814925986342, 62.77422075625509, -104.5676027610898, 40.98556361440569, 0.5120000243186951, 0.8320000395178795, 0.3840000182390213, 0.0, 0.0, 0.0, 0.0, 0.0, 1.7103914202048354E9, 0.0, 2024-03-13 21:43:40.204
24.0, 203.23925324203447, 70.52703336440027, -109.46687170304358, 45.84369365684688, 0.5120000243186951, 0.8320000395178795, 0.3840000182390213, 0.0, 0.0, 0.0, 0.0, 0.0, 1.7103914202048354E9, 0.0, 2024-03-13 21:43:40.204
25.0, 181.547833499033, 65.24629462696612, -96.81479015294462, 49.19838391710073, 0.5120000243186951, 0.8320000395178795, 0.3840000182390213, 0.0, 0.0, 0.0, 0.0, 0.0, 1.7103914202170086E9, 0.0, 2024-03-13 21:43:40.217
25.0, 177.93509014183655, 59.27741429768503, -88.07464395649731, 51.23288949299604, 0.5120000243186951, 0.8320000395178795, 0.3840000182390213, 0.0, 0.0, 0.0, 0.0, 0.0, 1.7103914202170086E9, 0.0, 2024-03-13 21:43:40.217
26.0, 184.08722556894645, 60.34328578505665, -106.10096174292266, 44.69180447049439, 0.5120000243186951, 0.8320000395178795, 0.3840000182390213, 0.0, 0.0, 0.0, 0.0, 0.0, 1.7103914202325473E9, 0.0, 2024-03-13 21:43:40.232
26.0, 184.68934946181253, 65.7698806207627, -109.534189902246, 46.457037249580026, 0.5120000243186951, 0.8320000395178795, 0.3840000182390213, 0.0, 0.0, 0.0, 0.0, 0.0, 1.7103914202325473E9, 0.0, 2024-03-13 21:43:40.232
27.0, 186.08059224532917, 65.45198912452906, -101.59438229631633, 44.3552134744823, 0.5120000243186951, 0.8320000395178795, 0.3840000182390213, 0.0, 0.0, 0.0, 0.0, 0.0, 1.710391420233261E9, 0.0, 2024-03-13 21:43:40.233
27.0, 196.1072640265338, 63.761554344557226, -102.13292788993567, 43.629672883078456, 0.5120000243186951, 0.8320000395178795, 0.3840000182390213, 0.0, 0.0, 0.0, 0.0, 0.0, 1.710391420233261E9, 0.0, 2024-03-13 21:43:40.233
28.0, 200.02667918009683, 65.04434002935886, -102.0132510913536, 48.2447094283998, 0.5120000243186951, 0.8320000395178795, 0.3840000182390213, 0.0, 0.0, 0.0, 0.0, 0.0, 1.7103914202469037E9, 0.0, 2024-03-13 21:43:40.246
28.0, 186.54059993987903, 63.24544815067202, -89.9707732340321, 48.27836852800101, 0.5120000243186951, 0.8320000395178795, 0.3840000182390213, 0.0, 0.0, 0.0, 0.0, 0.0, 1.7103914202469037E9, 0.0, 2024-03-13 21:43:40.246
29.0, 179.8798381187953, 59.008141500875354, -84.50303949881345, 48.944070720113814, 0.5120000243186951, 0.8320000395178795, 0.3840000182390213, 0.0, 0.0, 0.0, 0.0, 0.0, 1.7103914202789595E9, 0.0, 2024-03-13 21:43:40.278
29.0, 181.50669459952042, 54.501562054269016, -117.5001768078655, 39.48960363212973, 0.5120000243186951, 0.8320000395178795, 0.3840000182390213, 0.0, 0.0, 0.0, 0.0, 0.0, 1.7103914202789595E9, 0.0, 2024-03-13 21:43:40.278
30.0, 194.80203894199803, 70.0707655698061, -90.04557123314589, 54.501562054269016, 0.5120000243186951, 0.8320000395178795, 0.3840000182390213, 0.0, 0.0, 0.0, 0.0, 0.0, 1.7103914202796693E9, 0.0, 2024-03-13 21:43:40.279
30.0, 192.61793736787513, 69.36018457822502, -75.68435540329665, 59.15399759914726, 0.5120000243186951, 0.8320000395178795, 0.3840000182390213, 0.0, 0.0, 0.0, 0.0, 0.0, 1.7103914202796693E9, 0.0, 2024-03-13 21:43:40.279
31.0, 180.44456301210448, 46.74126964621246, -124.87151962053031, 33.47584450338036, 0.5120000243186951, 0.8320000395178795, 0.3840000182390213, 0.0, 0.0, 0.0, 0.0, 0.0, 1.7103914202803771E9, 0.0, 2024-03-13 21:43:40.280
31.0, 186.6640166384168, 54.34448625613004, -112.47375126741827, 39.15675253607333, 0.5120000243186951, 0.8320000395178795, 0.3840000182390213, 0.0, 0.0, 0.0, 0.0, 0.0, 1.7103914202803771E9, 0.0, 2024-03-13 21:43:40.280
32.0, 166.9098650724627, 53.316013768315315, -104.47036536224186, 39.5382223315537, 0.5120000243186951, 0.8320000395178795, 0.3840000182390213, 0.0, 0.0, 0.0, 0.0, 0.0, 1.710391420281164E9, 0.0, 2024-03-13 21:43:40.281
32.0, 172.11206591082737, 50.103439706377685, -116.43430532049388, 30.872874134220183, 0.5120000243186951, 0.8320000395178795, 0.3840000182390213, 0.0, 0.0, 0.0, 0.0, 0.0, 1.710391420281164E9, 0.0, 2024-03-13 21:43:40.281
33.0, 172.41125790728256, 52.571773677133024, -127.17529799323529, 34.21634469460696, 0.5120000243186951, 0.8320000395178795, 0.3840000182390213, 0.0, 0.0, 0.0, 0.0, 0.0, 1.7103914202923672E9, 0.0, 2024-03-13 21:43:40.292
33.0, 189.26324710762128, 67.4378760010004, -87.1172295678407, 50.30539430398494, 0.5120000243186951, 0.8320000395178795, 0.3840000182390213, 0.0, 0.0, 0.0, 0.0, 0.0, 1.7103914202923672E9, 0.0, 2024-03-13 21:43:40.292
34.0, 195.00773343956098, 65.26125422678888, -79.31953816022724, 50.514828701503575, 0.5120000243186951, 0.8320000395178795, 0.3840000182390213, 0.0, 0.0, 0.0, 0.0, 0.0, 1.7103914203068612E9, 0.0, 2024-03-13 21:43:40.306
34.0, 195.09001123858616, 61.420376972295344, -101.56072319671512, 46.434597849845886, 0.5120000243186951, 0.8320000395178795, 0.3840000182390213, 0.0, 0.0, 0.0, 0.0, 0.0, 1.7103914203068612E9, 0.0, 2024-03-13 21:43:40.306
35.0, 158.90273926733062, 44.74042316991836, -106.73674473538995, 40.417098821140826, 0.5120000243186951, 0.8320000395178795, 0.3840000182390213, 0.0, 0.0, 0.0, 0.0, 0.0, 1.7103914203229175E9, 0.0, 2024-03-13 21:43:40.322
35.0, 174.00071538845077, 53.91065786127001, -90.95436692237854, 42.65729889459908, 0.5120000243186951, 0.8320000395178795, 0.3840000182390213, 0.0, 0.0, 0.0, 0.0, 0.0, 1.7103914203229175E9, 0.0, 2024-03-13 21:43:40.322
36.0, 186.49572114041075, 53.349672867916524, -120.79502866882831, 33.69275870081037, 0.5120000243186951, 0.8320000395178795, 0.3840000182390213, 0.0, 0.0, 0.0, 0.0, 0.0, 1.7103914203235047E9, 0.0, 2024-03-13 21:43:40.323
36.0, 179.97333561768755, 61.50265477132052, -119.97599057853222, 38.54714884329587, 0.5120000243186951, 0.8320000395178795, 0.3840000182390213, 0.0, 0.0, 0.0, 0.0, 0.0, 1.7103914203235047E9, 0.0, 2024-03-13 21:43:40.323
37.0, 190.2580604958348, 77.40096948295832, -84.44320109952241, 58.48829540703446, 0.5120000243186951, 0.8320000395178795, 0.3840000182390213, 0.0, 0.0, 0.0, 0.0, 0.0, 1.7103914203375494E9, 0.0, 2024-03-13 21:43:40.337
37.0, 181.813366395887, 61.97388216573745, -92.43536730483174, 48.29706802777946, 0.5120000243186951, 0.8320000395178795, 0.3840000182390213, 0.0, 0.0, 0.0, 0.0, 0.0, 1.7103914203375494E9, 0.0, 2024-03-13 21:43:40.337
38.0, 193.2238011606969, 67.6248709987849, -102.29374358803034, 48.02031543105841, 0.5120000243186951, 0.8320000395178795, 0.3840000182390213, 0.0, 0.0, 0.0, 0.0, 0.0, 1.7103914203525963E9, 0.0, 2024-03-13 21:43:40.352
38.0, 186.27506704302505, 71.02444005850703, -74.6633627153933, 61.98884176556021, 0.5120000243186951, 0.8320000395178795, 0.3840000182390213, 0.0, 0.0, 0.0, 0.0, 0.0, 1.7103914203525963E9, 0.0, 2024-03-13 21:43:40.352
39.0, 179.44600972393528, 58.510734806768596, -83.60920340940356, 49.54993451293558, 0.5120000243186951, 0.8320000395178795, 0.3840000182390213, 0.0, 0.0, 0.0, 0.0, 0.0, 1.7103914203533027E9, 0.0, 2024-03-13 21:43:40.353
39.0, 185.85993814794347, 58.45089640747756, -101.44852619804442, 49.02634851913899, 0.5120000243186951, 0.8320000395178795, 0.3840000182390213, 0.0, 0.0, 0.0, 0.0, 0.0, 1.7103914203533027E9, 0.0, 2024-03-13 21:43:40.353
40.0, 181.54035369912162, 59.70376289263368, -98.37432843446732, 44.96107726730406, 0.5120000243186951, 0.8320000395178795, 0.3840000182390213, 0.0, 0.0, 0.0, 0.0, 0.0, 1.7103914203668628E9, 0.0, 2024-03-13 21:43:40.366
40.0, 177.41898394795135, 62.205755962990224, -89.26767204236239, 46.71509034652263, 0.5120000243186951, 0.8320000395178795, 0.3840000182390213, 0.0, 0.0, 0.0, 0.0, 0.0, 1.7103914203668628E9, 0.0, 2024-03-13 21:43:40.366
41.0, 177.11979195149615, 59.99921498913318, -107.3089494286105, 44.415051873773336, 0.5120000243186951, 0.8320000395178795, 0.3840000182390213, 0.0, 0.0, 0.0, 0.0, 0.0, 1.7103914203826056E9, 0.0, 2024-03-13 21:43:40.382
41.0, 178.46241603558883, 64.62921113427728, -108.09806831926107, 43.58479408361018, 0.5120000243186951, 0.8320000395178795, 0.3840000182390213, 0.0, 0.0, 0.0, 0.0, 0.0, 1.7103914203826056E9, 0.0, 2024-03-13 21:43:40.382
42.0, 183.42152337683365, 67.8118659965694, -82.02348582819104, 55.57117344159633, 0.5120000243186951, 0.8320000395178795, 0.3840000182390213, 0.0, 0.0, 0.0, 0.0, 0.0, 1.710391420383365E9, 0.0, 2024-03-13 21:43:40.383
42.0, 182.35191198950633, 60.563939882442355, -90.51305872760713, 47.96795683167875, 0.5120000243186951, 0.8320000395178795, 0.3840000182390213, 0.0, 0.0, 0.0, 0.0, 0.0, 1.710391420383365E9, 0.0, 2024-03-13 21:43:40.383
43.0, 185.37749105365947, 58.85480560269207, -103.6064484724775, 46.094266953878105, 0.5120000243186951, 0.8320000395178795, 0.3840000182390213, 0.0, 0.0, 0.0, 0.0, 0.0, 1.7103914203968804E9, 0.0, 2024-03-13 21:43:40.396
43.0, 191.5894648800604, 66.33834541402757, -79.54393215756863, 49.21334351692349, 0.5120000243186951, 0.8320000395178795, 0.3840000182390213, 0.0, 0.0, 0.0, 0.0, 0.0, 1.7103914203968804E9, 0.0, 2024-03-13 21:43:40.396
44.0, 169.92422443674877, 51.10199299454689, -96.45949965715408, 38.442431644536555, 0.5120000243186951, 0.8320000395178795, 0.3840000182390213, 0.0, 0.0, 0.0, 0.0, 0.0, 1.7103914204126067E9, 0.0, 2024-03-13 21:43:40.412
44.0, 169.60633294051513, 47.747302734293044, -128.6488185757771, 26.456052286550403, 0.5120000243186951, 0.8320000395178795, 0.3840000182390213, 0.0, 0.0, 0.0, 0.0, 0.0, 1.7103914204126067E9, 0.0, 2024-03-13 21:43:40.412
45.0, 185.16431675618514, 66.6599768102169, -100.40883401036263, 41.09776061307639, 0.5120000243186951, 0.8320000395178795, 0.3840000182390213, 0.0, 0.0, 0.0, 0.0, 0.0, 1.7103914204133496E9, 0.0, 2024-03-13 21:43:40.413
45.0, 191.61564417975023, 68.38781058974564, -83.39602911192924, 51.307687492109835, 0.5120000243186951, 0.8320000395178795, 0.3840000182390213, 0.0, 0.0, 0.0, 0.0, 0.0, 1.7103914204133496E9, 0.0, 2024-03-13 21:43:40.413
46.0, 189.46146180527285, 58.929603601805866, -95.45720646902919, 48.01283563114703, 0.5120000243186951, 0.8320000395178795, 0.3840000182390213, 0.0, 0.0, 0.0, 0.0, 0.0, 1.7103914204269848E9, 0.0, 2024-03-13 21:43:40.426
46.0, 193.0368061629124, 64.77880713250488, -105.24826455302536, 46.33736045099795, 0.5120000243186951, 0.8320000395178795, 0.3840000182390213, 0.0, 0.0, 0.0, 0.0, 0.0, 1.7103914204269848E9, 0.0, 2024-03-13 21:43:40.426
47.0, 193.0742051624693, 73.94156202394515, -70.9608617592603, 61.68216996919364, 0.5120000243186951, 0.8320000395178795, 0.3840000182390213, 0.0, 0.0, 0.0, 0.0, 0.0, 1.7103914204425776E9, 0.0, 2024-03-13 21:43:40.442
47.0, 185.45976885268465, 66.50664091203362, -89.94459393434227, 50.503609001636505, 0.5120000243186951, 0.8320000395178795, 0.3840000182390213, 0.0, 0.0, 0.0, 0.0, 0.0, 1.7103914204425776E9, 0.0, 2024-03-13 21:43:40.442
48.0, 175.96042296523228, 53.716183063574135, -111.57991517800838, 38.10584064852446, 0.5120000243186951, 0.8320000395178795, 0.3840000182390213, 0.0, 0.0, 0.0, 0.0, 0.0, 1.710391420443292E9, 0.0, 2024-03-13 21:43:40.443
48.0, 186.71637523779646, 67.83804529625922, -86.21591367851943, 49.261962216347456, 0.5120000243186951, 0.8320000395178795, 0.3840000182390213, 0.0, 0.0, 0.0, 0.0, 0.0, 1.710391420443292E9, 0.0, 2024-03-13 21:43:40.443
49.0, 179.05332022858784, 59.57660629414022, -86.8928355704993, 48.32698722742498, 0.5120000243186951, 0.8320000395178795, 0.3840000182390213, 0.0, 0.0, 0.0, 0.0, 0.0, 1.7103914204569297E9, 0.0, 2024-03-13 21:43:40.456
49.0, 174.63275848096237, 55.02888794802129, -115.88080012705177, 38.25917654670775, 0.5120000243186951, 0.8320000395178795, 0.3840000182390213, 0.0, 0.0, 0.0, 0.0, 0.0, 1.7103914204569297E9, 0.0, 2024-03-13 21:43:40.456
50.0, 184.15454376814887, 65.61654472257942, -95.20289327204227, 49.92766440846026, 0.5120000243186951, 0.8320000395178795, 0.3840000182390213, 0.0, 0.0, 0.0, 0.0, 0.0, 1.7103914204727724E9, 0.0, 2024-03-13 21:43:40.472
50.0, 175.6612309687771, 57.68795681651682, -97.74228534195572, 39.51578293181956, 0.5120000243186951, 0.8320000395178795, 0.3840000182390213, 0.0, 0.0, 0.0, 0.0, 0.0, 1.7103914204727724E9, 0.0, 2024-03-13 21:43:40.472
51.0, 177.56857994617894, 52.04070788342506, -109.03304330818355, 37.38030005712062, 0.5120000243186951, 0.8320000395178795, 0.3840000182390213, 0.0, 0.0, 0.0, 0.0, 0.0, 1.7103914204733102E9, 0.0, 2024-03-13 21:43:40.473
51.0, 176.45034985942766, 57.83007301483303, -101.35128879919648, 44.486109972931445, 0.5120000243186951, 0.8320000395178795, 0.3840000182390213, 0.0, 0.0, 0.0, 0.0, 0.0, 1.7103914204733102E9, 0.0, 2024-03-13 21:43:40.473
52.0, 179.89105781866238, 56.906317725777626, -90.4868794279173, 43.60349358338863, 0.5120000243186951, 0.8320000395178795, 0.3840000182390213, 0.0, 0.0, 0.0, 0.0, 0.0, 1.7103914204868474E9, 0.0, 2024-03-13 21:43:40.486
52.0, 185.94595584692433, 55.45149664301425, -103.1950594773516, 35.170019183307886, 0.5120000243186951, 0.8320000395178795, 0.3840000182390213, 0.0, 0.0, 0.0, 0.0, 0.0, 1.7103914204868474E9, 0.0, 2024-03-13 21:43:40.486
53.0, 183.59729867475107, 56.547287330031395, -115.2038782350719, 40.30864172242582, 0.5120000243186951, 0.8320000395178795, 0.3840000182390213, 0.0, 0.0, 0.0, 0.0, 0.0, 1.7103914205027187E9, 0.0, 2024-03-13 21:43:40.502
53.0, 189.88033060031012, 65.96435541845858, -87.64829536154866, 53.57406686525792, 0.5120000243186951, 0.8320000395178795, 0.3840000182390213, 0.0, 0.0, 0.0, 0.0, 0.0, 1.7103914205027187E9, 0.0, 2024-03-13 21:43:40.502
54.0, 186.72011513775215, 64.33749893773347, -84.0766909038648, 54.179930658079684, 0.5120000243186951, 0.8320000395178795, 0.3840000182390213, 0.0, 0.0, 0.0, 0.0, 0.0, 1.710391420503553E9, 0.0, 2024-03-13 21:43:40.503
54.0, 182.1761366915889, 54.83067325036973, -115.23379743471742, 38.042262349277735, 0.5120000243186951, 0.8320000395178795, 0.3840000182390213, 0.0, 0.0, 0.0, 0.0, 0.0, 1.710391420503553E9, 0.0, 2024-03-13 21:43:40.503
55.0, 178.01362804090604, 61.29322037380189, -99.82914951723069, 45.637999159283936, 0.5120000243186951, 0.8320000395178795, 0.3840000182390213, 0.0, 0.0, 0.0, 0.0, 0.0, 1.7103914205169165E9, 0.0, 2024-03-13 21:43:40.516
55.0, 169.9130047368817, 50.555967601016164, -95.53948426805437, 38.046002249233425, 0.5120000243186951, 0.8320000395178795, 0.3840000182390213, 0.0, 0.0, 0.0, 0.0, 0.0, 1.7103914205169165E9, 0.0, 2024-03-13 21:43:40.516
56.0, 174.6551978806965, 51.711596687324345, -108.23270471766591, 34.014390096999705, 0.5120000243186951, 0.8320000395178795, 0.3840000182390213, 0.0, 0.0, 0.0, 0.0, 0.0, 1.710391420532592E9, 0.0, 2024-03-13 21:43:40.532
56.0, 194.41682924656197, 70.64297026302665, -87.30422456562519, 56.73428232781589, 0.5120000243186951, 0.8320000395178795, 0.3840000182390213, 0.0, 0.0, 0.0, 0.0, 0.0, 1.710391420532592E9, 0.0, 2024-03-13 21:43:40.532
57.0, 202.25565955368802, 82.95098101720214, -62.33291256148368, 69.41628307756037, 0.5120000243186951, 0.8320000395178795, 0.3840000182390213, 0.0, 0.0, 0.0, 0.0, 0.0, 1.7103914205334294E9, 0.0, 2024-03-13 21:43:40.533
57.0, 177.00385505286977, 61.85794526711106, -91.51909181568772, 55.361739044077694, 0.5120000243186951, 0.8320000395178795, 0.3840000182390213, 0.0, 0.0, 0.0, 0.0, 0.0, 1.7103914205334294E9, 0.0, 2024-03-13 21:43:40.533
58.0, 182.030280593317, 66.48794141225517, -96.59413605555892, 56.30045393295586, 0.5120000243186951, 0.8320000395178795, 0.3840000182390213, 0.0, 0.0, 0.0, 0.0, 0.0, 1.710391420546876E9, 0.0, 2024-03-13 21:43:40.546
58.0, 186.5555595397018, 73.38057703059167, -85.72598678432405, 56.78290102723986, 0.5120000243186951, 0.8320000395178795, 0.3840000182390213, 0.0, 0.0, 0.0, 0.0, 0.0, 1.710391420546876E9, 0.0, 2024-03-13 21:43:40.546
59.0, 186.94450913509354, 70.05206607002765, -85.41557508800179, 54.531481253914535, 0.5120000243186951, 0.8320000395178795, 0.3840000182390213, 0.0, 0.0, 0.0, 0.0, 0.0, 1.7103914205625868E9, 0.0, 2024-03-13 21:43:40.562
59.0, 177.33670614892617, 59.61400529369712, -110.26347039360553, 46.38223925046623, 0.5120000243186951, 0.8320000395178795, 0.3840000182390213, 0.0, 0.0, 0.0, 0.0, 0.0, 1.7103914205625868E9, 0.0, 2024-03-13 21:43:40.562
60.0, 187.87948412401602, 69.69677557423711, -92.28951120655984, 55.07002684753388, 0.5120000243186951, 0.8320000395178795, 0.3840000182390213, 0.0, 0.0, 0.0, 0.0, 0.0, 1.7103914205633583E9, 0.0, 2024-03-13 21:43:40.563
60.0, 196.15588272595778, 79.30083866044879, -71.75372054986656, 68.87773748394102, 0.5120000243186951, 0.8320000395178795, 0.3840000182390213, 0.0, 0.0, 0.0, 0.0, 0.0, 1.7103914205633583E9, 0.0, 2024-03-13 21:43:40.563
61.0, 192.15418977336958, 69.8463715724647, -90.17646773159504, 55.90028463769704, 0.5120000243186951, 0.8320000395178795, 0.3840000182390213, 0.0, 0.0, 0.0, 0.0, 0.0, 1.7103914205769713E9, 0.0, 2024-03-13 21:43:40.576
61.0, 202.1546822548844, 82.88740271795541, -88.58701025042683, 65.20889562740922, 0.5120000243186951, 0.8320000395178795, 0.3840000182390213, 0.0, 0.0, 0.0, 0.0, 0.0, 1.7103914205769713E9, 0.0, 2024-03-13 21:43:40.576
62.0, 212.47680613258854, 96.59787595551461, -56.147118034772575, 80.83419764228165, 0.5120000243186951, 0.8320000395178795, 0.3840000182390213, 0.0, 0.0, 0.0, 0.0, 0.0, 1.7103914205925882E9, 0.0, 2024-03-13 21:43:40.592
62.0, 190.37773729441687, 71.4395689535886, -82.46853392291814, 60.608818681910634, 0.5120000243186951, 0.8320000395178795, 0.3840000182390213, 0.0, 0.0, 0.0, 0.0, 0.0, 1.7103914205925882E9, 0.0, 2024-03-13 21:43:40.592
63.0, 191.7727199778892, 74.16221612133086, -105.00517105590552, 53.1364985704422, 0.5120000243186951, 0.8320000395178795, 0.3840000182390213, 0.0, 0.0, 0.0, 0.0, 0.0, 1.7103914205933456E9, 0.0, 2024-03-13 21:43:40.593
63.0, 190.08602509787306, 63.25666785053909, -97.38325494620949, 40.69011151790619, 0.5120000243186951, 0.8320000395178795, 0.3840000182390213, 0.0, 0.0, 0.0, 0.0, 0.0, 1.7103914205933456E9, 0.0, 2024-03-13 21:43:40.593
64.0, 167.3212540675886, 48.27088872808963, -105.73445154726505, 29.04780295584351, 0.5120000243186951, 0.8320000395178795, 0.3840000182390213, 0.0, 0.0, 0.0, 0.0, 0.0, 1.7103914206073153E9, 0.0, 2024-03-13 21:43:40.607
64.0, 178.05476694041863, 54.75213535130024, -109.534189902246, 38.65186604205519, 0.5120000243186951, 0.8320000395178795, 0.3840000182390213, 0.0, 0.0, 0.0, 0.0, 0.0, 1.7103914206073153E9, 0.0, 2024-03-13 21:43:40.607
65.0, 196.4775141221471, 78.852050665766, -85.557691286318, 57.04469402413815, 0.5120000243186951, 0.8320000395178795, 0.3840000182390213, 0.0, 0.0, 0.0, 0.0, 0.0, 1.7103914206229253E9, 0.0, 2024-03-13 21:43:40.622
65.0, 202.86152334650978, 75.01491331122816, -76.80258549004793, 59.69254319276661, 0.5120000243186951, 0.8320000395178795, 0.3840000182390213, 0.0, 0.0, 0.0, 0.0, 0.0, 1.7103914206229253E9, 0.0, 2024-03-13 21:43:40.622
66.0, 192.0719119743444, 72.91308953613043, -83.94205450545996, 58.89220460224897, 0.5120000243186951, 0.8320000395178795, 0.3840000182390213, 0.0, 0.0, 0.0, 0.0, 0.0, 1.7103914206235232E9, 0.0, 2024-03-13 21:43:40.623
66.0, 204.77635212382302, 87.71187366079539, -71.49192755296826, 73.3319583311677, 0.5120000243186951, 0.8320000395178795, 0.3840000182390213, 0.0, 0.0, 0.0, 0.0, 0.0, 1.7103914206235232E9, 0.0, 2024-03-13 21:43:40.623
67.0, 188.05525942193344, 82.10950352717191, -80.40410914737731, 65.81849932018667, 0.5120000243186951, 0.8320000395178795, 0.3840000182390213, 0.0, 0.0, 0.0, 0.0, 0.0, 1.7103914206371996E9, 0.0, 2024-03-13 21:43:40.637
67.0, 177.4339435477741, 66.39818381331861, -90.07549043279141, 55.761908339336514, 0.5120000243186951, 0.8320000395178795, 0.3840000182390213, 0.0, 0.0, 0.0, 0.0, 0.0, 1.7103914206371996E9, 0.0, 2024-03-13 21:43:40.637
68.0, 176.15863766288385, 61.0650864765048, -116.55772201903164, 42.76949589326978, 0.5120000243186951, 0.8320000395178795, 0.3840000182390213, 0.0, 0.0, 0.0, 0.0, 0.0, 1.710391420652808E9, 0.0, 2024-03-13 21:43:40.652
68.0, 177.15719095105305, 63.387564348988235, -91.0441245213151, 48.169911429286, 0.5120000243186951, 0.8320000395178795, 0.3840000182390213, 0.0, 0.0, 0.0, 0.0, 0.0, 1.710391420652808E9, 0.0, 2024-03-13 21:43:40.652
69.0, 176.45034985942766, 63.836352343671024, -97.71610604226589, 42.62737969495356, 0.5120000243186951, 0.8320000395178795, 0.3840000182390213, 0.0, 0.0, 0.0, 0.0, 0.0, 1.7103914206533227E9, 0.0, 2024-03-13 21:43:40.653
69.0, 188.9229162116535, 68.04373979382217, -110.47290479112417, 45.07701416593045, 0.5120000243186951, 0.8320000395178795, 0.3840000182390213, 0.0, 0.0, 0.0, 0.0, 0.0, 1.7103914206533227E9, 0.0, 2024-03-13 21:43:40.653
70.0, 202.68200814863667, 81.10721033904701, -91.9678798103705, 54.123832158744335, 0.5120000243186951, 0.8320000395178795, 0.3840000182390213, 0.0, 0.0, 0.0, 0.0, 0.0, 1.7103914206668637E9, 0.0, 2024-03-13 21:43:40.666
