%OpenBCI Raw EXG Data
%Number of channels = 4
%Sample Rate = 200 Hz
%Board = OpenBCI_GUI$BoardGanglionBLE
Sample Index, EXG Channel 0, EXG Channel 1, EXG Channel 2, EXG Channel 3, Accel Channel 0, Accel Channel 1, Accel Channel 2, Other, Other, Other, Other, Other, Timestamp, Other, Timestamp (Formatted)
2.0, -115.44323183223605, 172.7702883030288, -75.86387060116976, 144.68737953575328, 0.01600000075995922, 0.0, 0.0, 0.0, 0.0, 0.0, 0.0, 0.0, 1.710387214632696E9, 0.0, 2024-03-13 20:33:34.632
2.0, -141.44675622414798, 326.56245428090915, -138.0284876646474, 353.09330456657335, 0.01600000075995922, 0.0, 0.0, 0.0, 0.0, 0.0, 0.0, 0.0, 1.710387214632696E9, 0.0, 2024-03-13 20:33:34.632
3.0, 7.7453328082337976, 387.81079585524276, 41.251096511259675, 362.2672791578807, 0.01600000075995922, 0.0, 0.0, 0.0, 0.0, 0.0, 0.0, 0.0, 1.7103872146473043E9, 0.0, 2024-03-13 20:33:34.647
3.0, 77.95260472642258, 265.49362790444866, 146.80042301071808, 279.87354323407635, 0.01600000075995922, 0.0, 0.0, 0.0, 0.0, 0.0, 0.0, 0.0, 1.7103872146473043E9, 0.0, 2024-03-13 20:33:34.647
4.0, 185.83749874820933, 83.75879940763116, 203.47486693924293, 130.67210445180535, 0.01600000075995922, 0.0, 0.0, 0.0, 0.0, 0.0, 0.0, 0.0, 1.7103872146479554E9, 0.0, 2024-03-13 20:33:34.647
4.0, 55.25328194536269, 18.899584426078945, 71.78363974951208, 7.7472027582116425, 0.01600000075995922, 0.0, 0.0, 0.0, 0.0, 0.0, 0.0, 0.0, 1.7103872146479554E9, 0.0, 2024-03-13 20:33:34.647
5.0, 230.10669452371076, -57.03160437429324, 279.64914923673496, -64.61612148443237, 0.01600000075995922, 0.0, 0.0, 0.0, 0.0, 0.0, 0.0, 0.0, 1.7103872146614993E9, 0.0, 2024-03-13 20:33:34.661
5.0, 61.47460552165285, -152.56360884243622, 81.86080018011853, -97.88253159029409, 0.01600000075995922, 0.0, 0.0, 0.0, 0.0, 0.0, 0.0, 0.0, 1.7103872146614993E9, 0.0, 2024-03-13 20:33:34.661
6.0, -1.2603462850674987, -1.288395534735173, 6.275552125647664, 7.193697564769536, 0.01600000075995922, 0.0, 0.0, 0.0, 0.0, 0.0, 0.0, 0.0, 1.7103872146774645E9, 0.0, 2024-03-13 20:33:34.677
6.0, -111.69959197659045, 178.43810668587685, -63.62691794615239, 153.30223908368498, 0.01600000075995922, 0.0, 0.0, 0.0, 0.0, 0.0, 0.0, 0.0, 1.7103872146774645E9, 0.0, 2024-03-13 20:33:34.677
7.0, 32.68859556270763, 234.10838747629896, 68.08300874335691, 272.8799303169362, 0.01600000075995922, 0.0, 0.0, 0.0, 0.0, 0.0, 0.0, 0.0, 1.7103872146779535E9, 0.0, 2024-03-13 20:33:34.677
7.0, -141.2560213264078, 326.8429467775859, -138.50345495902002, 353.68420875957236, 0.01600000075995922, 0.0, 0.0, 0.0, 0.0, 0.0, 0.0, 0.0, 1.7103872146779535E9, 0.0, 2024-03-13 20:33:34.677
8.0, 9.749919184483588, 394.18732527969405, 39.699038029648364, 365.7154669170268, 0.01600000075995922, 0.0, 0.0, 0.0, 0.0, 0.0, 0.0, 0.0, 1.7103872146916547E9, 0.0, 2024-03-13 20:33:34.691
8.0, 88.01667550718412, 264.00888762203977, 132.25221218308434, 275.898029581178, 0.01600000075995922, 0.0, 0.0, 0.0, 0.0, 0.0, 0.0, 0.0, 1.7103872146916547E9, 0.0, 2024-03-13 20:33:34.691
9.0, 189.17722940864041, 89.70524033717811, 197.49102701013908, 133.70516331586987, 0.01600000075995922, 0.0, 0.0, 0.0, 0.0, 0.0, 0.0, 0.0, 1.710387214707216E9, 0.0, 2024-03-13 20:33:34.707
9.0, 64.03456704132259, 30.964501683134586, 76.14436309784651, 19.56154671823606, 0.01600000075995922, 0.0, 0.0, 0.0, 0.0, 0.0, 0.0, 0.0, 1.710387214707216E9, 0.0, 2024-03-13 20:33:34.707
10.0, 213.95032671513036, -47.42754128808156, 283.2731122937985, -55.64036159077659, 0.01600000075995922, 0.0, 1.0560000501573086, 0.0, 0.0, 0.0, 0.0, 0.0, 1.7103872147082956E9, 0.0, 2024-03-13 20:33:34.708
10.0, 75.09906106023118, -135.89113483997062, 91.3601460675709, -82.1712118764408, 0.01600000075995922, 0.0, 1.0560000501573086, 0.0, 0.0, 0.0, 0.0, 0.0, 1.7103872147082956E9, 0.0, 2024-03-13 20:33:34.708
11.0, 17.2671180954203, 13.966656384523958, 15.516844916157424, 17.52704114234075, 0.01600000075995922, -0.11200000531971455, 1.0560000501573086, 0.0, 0.0, 0.0, 0.0, 0.0, 1.7103872147214785E9, 0.0, 2024-03-13 20:33:34.721
11.0, -110.24851079378277, 185.1213079066947, -62.86023845523596, 160.16495550237596, 0.01600000075995922, -0.11200000531971455, 1.0560000501573086, 0.0, 0.0, 0.0, 0.0, 0.0, 1.7103872147214785E9, 0.0, 2024-03-13 20:33:34.721
12.0, 30.220261591952294, 234.88254676712677, 75.63012685393915, 281.49665981484577, 0.01600000075995922, -0.11200000531971455, 1.0560000501573086, 0.0, 0.0, 0.0, 0.0, 0.0, 1.710387214737245E9, 0.0, 2024-03-13 20:33:34.737
12.0, -142.78938030824065, 331.7048167199828, -124.76680242177099, 371.59084974741563, 0.01600000075995922, -0.11200000531971455, 1.0560000501573086, 0.0, 0.0, 0.0, 0.0, 0.0, 1.710387214737245E9, 0.0, 2024-03-13 20:33:34.737
13.0, 20.000984963029623, 398.8696800242178, 55.89280483778566, 379.26138455653563, 0.01600000075995922, -0.11200000531971455, 1.0560000501573086, 0.0, 0.0, 0.0, 0.0, 0.0, 1.710387214737955E9, 0.0, 2024-03-13 20:33:34.737
13.0, 101.37559814890847, 268.57904536789283, 142.48831836180761, 285.28143857000396, 0.01600000075995922, -0.11200000531971455, 1.0560000501573086, 0.0, 0.0, 0.0, 0.0, 0.0, 1.710387214737955E9, 0.0, 2024-03-13 20:33:34.737
14.0, 191.80263917753473, 79.12506336253136, 199.58911088528112, 131.8389532379806, 0.01600000075995922, -0.11200000531971455, 1.0560000501573086, 0.0, 0.0, 0.0, 0.0, 0.0, 1.7103872147516801E9, 0.0, 2024-03-13 20:33:34.751
14.0, 54.497822154313326, 24.78992685629055, 73.80318572558463, 15.013828372117132, 0.01600000075995922, -0.11200000531971455, 1.0560000501573086, 0.0, 0.0, 0.0, 0.0, 0.0, 1.7103872147516801E9, 0.0, 2024-03-13 20:33:34.751
15.0, 235.133120064158, -44.89936891803518, 280.28119232924655, -54.768964901100844, 0.01600000075995922, -0.11200000531971455, 1.0560000501573086, 0.0, 0.0, 0.0, 0.0, 0.0, 1.7103872147672653E9, 0.0, 2024-03-13 20:33:34.767
15.0, 62.55917650880292, -138.1238551135175, 86.5394150246866, -86.03078863071278, 0.01600000075995922, -0.11200000531971455, 1.0560000501573086, 0.0, 0.0, 0.0, 0.0, 0.0, 1.7103872147672653E9, 0.0, 2024-03-13 20:33:34.767
16.0, -4.054051551967859, 3.4350981093011796, 2.775005767121911, 11.90597150893882, 0.01600000075995922, -0.11200000531971455, 1.0560000501573086, 0.0, 0.0, 0.0, 0.0, 0.0, 1.7103872147681303E9, 0.0, 2024-03-13 20:33:34.768
16.0, -109.44443230330944, 181.55344334896654, -69.2554673794657, 157.9322352288291, 0.01600000075995922, -0.11200000531971455, 1.0560000501573086, 0.0, 0.0, 0.0, 0.0, 0.0, 1.7103872147681303E9, 0.0, 2024-03-13 20:33:34.768
17.0, 32.11639086948708, 237.69495153380558, 66.27663706475869, 270.8828237405978, 0.01600000075995922, -0.11200000531971455, 1.0560000501573086, 0.0, 0.0, 0.0, 0.0, 0.0, 1.7103872147816029E9, 0.0, 2024-03-13 20:33:34.781
17.0, -130.45519025437534, 334.4648628872819, -139.733882044442, 362.24483975814655, 0.01600000075995922, -0.11200000531971455, 1.0560000501573086, 0.0, 0.0, 0.0, 0.0, 0.0, 1.7103872147816029E9, 0.0, 2024-03-13 20:33:34.781
18.0, 11.421654464676976, 399.7373368139379, 36.867933763191104, 372.5968828354962, 0.01600000075995922, -0.11200000531971455, 1.0560000501573086, 0.0, 0.0, 0.0, 0.0, 0.0, 1.7103872147972145E9, 0.0, 2024-03-13 20:33:34.797
18.0, 104.50215451186523, 273.8560442053713, 140.47999208560213, 286.9307344504632, 0.01600000075995922, -0.11200000531971455, 1.0560000501573086, 0.0, 0.0, 0.0, 0.0, 0.0, 1.7103872147972145E9, 0.0, 2024-03-13 20:33:34.797
19.0, 219.6387145477347, 91.93796061072499, 202.4837934509851, 138.12198516353965, 0.01600000075995922, -0.11200000531971455, 1.0560000501573086, 0.0, 0.0, 0.0, 0.0, 0.0, 1.710387214797946E9, 0.0, 2024-03-13 20:33:34.797
19.0, 38.472350844182074, 34.55106574064121, 75.48988060560077, 18.839746026787907, 0.01600000075995922, -0.11200000531971455, 1.0560000501573086, 0.0, 0.0, 0.0, 0.0, 0.0, 1.710387214797946E9, 0.0, 2024-03-13 20:33:34.797
20.0, 211.3062174464576, -49.69392066122964, 285.28891836991534, -55.23271249560639, 0.01600000075995922, -0.11200000531971455, 1.0560000501573086, 0.0, 0.0, 0.0, 0.0, 0.0, 1.7103872148115506E9, 0.0, 2024-03-13 20:33:34.811
20.0, 67.58186214929447, -141.46358577394858, 85.43614453775808, -89.53133498923853, 0.01600000075995922, -0.11200000531971455, 1.0560000501573086, 0.0, 0.0, 0.0, 0.0, 0.0, 1.7103872148115506E9, 0.0, 2024-03-13 20:33:34.811
21.0, 9.346009989269078, 6.206363976467401, 5.190981138497591, 13.573966889176518, 0.01600000075995922, -0.12800000607967377, 1.0560000501573086, 0.0, 0.0, 0.0, 0.0, 0.0, 1.7103872148271933E9, 0.0, 2024-03-13 20:33:34.827
21.0, -105.95136574469507, 185.87302779778838, -68.05121959373355, 158.71761421952397, 0.01600000075995922, -0.12800000607967377, 1.0560000501573086, 0.0, 0.0, 0.0, 0.0, 0.0, 1.7103872148271933E9, 0.0, 2024-03-13 20:33:34.827
22.0, 26.592558634933084, 229.69530552858487, 60.30401683552191, 268.57156556798145, 0.01600000075995922, -0.12800000607967377, 1.0560000501573086, 0.0, 0.0, 0.0, 0.0, 0.0, 1.7103872148279428E9, 0.0, 2024-03-13 20:33:34.827
22.0, -151.06203901022673, 323.0880872220732, -147.12018445692956, 349.0766520141624, 0.01600000075995922, -0.12800000607967377, 1.0560000501573086, 0.0, 0.0, 0.0, 0.0, 0.0, 1.7103872148279428E9, 0.0, 2024-03-13 20:33:34.827
23.0, -2.8759830659255385, 401.52126909280196, 40.461977620609105, 371.7441856455989, 0.01600000075995922, -0.12800000607967377, 1.0560000501573086, 0.0, 0.0, 0.0, 0.0, 0.0, 1.7103872148579228E9, 0.0, 2024-03-13 20:33:34.857
23.0, 93.97433613659814, 273.8822235050611, 134.8589224522002, 279.5855709374882, 0.01600000075995922, -0.12800000607967377, 1.0560000501573086, 0.0, 0.0, 0.0, 0.0, 0.0, 1.7103872148579228E9, 0.0, 2024-03-13 20:33:34.857
24.0, 190.9200227879919, 83.32871091272682, 190.2618003957905, 129.11630607023835, 0.01600000075995922, -0.12800000607967377, 1.0560000501573086, 0.0, 0.0, 0.0, 0.0, 0.0, 1.710387214858596E9, 0.0, 2024-03-13 20:33:34.858
24.0, 61.18476327508688, 29.835051896516234, 61.95144276600331, 12.938183896709234, 0.01600000075995922, -0.12800000607967377, 1.0560000501573086, 0.0, 0.0, 0.0, 0.0, 0.0, 1.710387214858596E9, 0.0, 2024-03-13 20:33:34.858
25.0, 239.3966060136445, -46.13727580336854, 271.24559403629974, -59.48497874522582, 0.01600000075995922, -0.12800000607967377, 1.0560000501573086, 0.0, 0.0, 0.0, 0.0, 0.0, 1.7103872148593E9, 0.0, 2024-03-13 20:33:34.859
25.0, 49.41716806450859, -142.89222755702212, 79.14189291233197, -88.60009990027174, 0.01600000075995922, -0.12800000607967377, 1.0560000501573086, 0.0, 0.0, 0.0, 0.0, 0.0, 1.7103872148593E9, 0.0, 2024-03-13 20:33:34.859
26.0, -22.761031130328774, 9.733089634682983, -5.23585993796587, 17.403624443802983, 0.01600000075995922, -0.12800000607967377, 1.0560000501573086, 0.0, 0.0, 0.0, 0.0, 0.0, 1.7103872148717997E9, 0.0, 2024-03-13 20:33:34.871
26.0, -111.66593287698925, 206.9137049484998, -65.54548662342131, 177.34979579877108, 0.01600000075995922, -0.12800000607967377, 1.0560000501573086, 0.0, 0.0, 0.0, 0.0, 0.0, 1.7103872148717997E9, 0.0, 2024-03-13 20:33:34.871
27.0, 20.126271611545235, 251.8841319656931, 62.45071941008791, 283.5610845903866, 0.01600000075995922, -0.12800000607967377, 1.0560000501573086, 0.0, 0.0, 0.0, 0.0, 0.0, 1.7103872148871937E9, 0.0, 2024-03-13 20:33:34.887
27.0, -139.4010309483856, 341.615551602561, -150.02234682254493, 365.8314038156532, 0.01600000075995922, -0.12800000607967377, 1.0560000501573086, 0.0, 0.0, 0.0, 0.0, 0.0, 1.7103872148871937E9, 0.0, 2024-03-13 20:33:34.887
28.0, 17.77200458943844, 413.2421155539341, 33.236490906216204, 378.51714446535334, 0.01600000075995922, -0.12800000607967377, 1.0560000501573086, 0.0, 0.0, 0.0, 0.0, 0.0, 1.7103872148879063E9, 0.0, 2024-03-13 20:33:34.887
28.0, 109.69687555031851, 282.5700111021288, 135.73405904183164, 291.3325966983102, 0.01600000075995922, -0.12800000607967377, 1.0560000501573086, 0.0, 0.0, 0.0, 0.0, 0.0, 1.7103872148879063E9, 0.0, 2024-03-13 20:33:34.887
29.0, 197.77151950681582, 89.51824533939362, 187.0754056335427, 131.53228144161403, 0.01600000075995922, -0.12800000607967377, 1.0560000501573086, 0.0, 0.0, 0.0, 0.0, 0.0, 1.7103872149015803E9, 0.0, 2024-03-13 20:33:34.901
29.0, 54.954089948907495, 32.38940356625244, 63.840092243626714, 20.156190811190754, 0.01600000075995922, -0.12800000607967377, 1.0560000501573086, 0.0, 0.0, 0.0, 0.0, 0.0, 1.7103872149015803E9, 0.0, 2024-03-13 20:33:34.901
30.0, 232.4254324962385, -48.20918037882075, 279.6753285364248, -51.571350438985974, 0.01600000075995922, -0.12800000607967377, 1.0560000501573086, 0.0, 0.0, 0.0, 0.0, 0.0, 1.7103872149172387E9, 0.0, 2024-03-13 20:33:34.917
30.0, 68.20642544189468, -146.76676391111687, 76.96527113812044, -96.24445540970191, 0.01600000075995922, -0.12800000607967377, 1.0560000501573086, 0.0, 0.0, 0.0, 0.0, 0.0, 1.7103872149172387E9, 0.0, 2024-03-13 20:33:34.917
31.0, -19.148287773132324, -9.508695637341589, -11.051404369063675, 0.36464024567976594, 0.01600000075995922, -0.12800000607967377, 1.0560000501573086, 0.0, 0.0, 0.0, 0.0, 0.0, 1.7103872149179387E9, 0.0, 2024-03-13 20:33:34.917
31.0, -114.68777204118669, 182.95590583235025, -69.71173517405987, 160.32951110042632, 0.01600000075995922, -0.12800000607967377, 1.0560000501573086, 0.0, 0.0, 0.0, 0.0, 0.0, 1.7103872149179387E9, 0.0, 2024-03-13 20:33:34.917
32.0, 19.262354721780866, 227.76177725149319, 58.781877553556114, 262.1052785445936, 0.01600000075995922, -0.12800000607967377, 1.0560000501573086, 0.0, 0.0, 0.0, 0.0, 0.0, 1.71038721493151E9, 0.0, 2024-03-13 20:33:34.931
32.0, -138.16686396300793, 324.8832392008044, -150.53471311647445, 351.5973445842974, 0.01600000075995922, -0.12800000607967377, 1.0560000501573086, 0.0, 0.0, 0.0, 0.0, 0.0, 1.71038721493151E9, 0.0, 2024-03-13 20:33:34.931
33.0, 16.661254302598536, 398.45081122918054, 31.512397026643157, 367.1216693003662, 0.01600000075995922, -0.12800000607967377, 1.0560000501573086, 0.0, 0.0, 0.0, 0.0, 0.0, 1.7103872149471793E9, 0.0, 2024-03-13 20:33:34.947
33.0, 79.58320110710338, 271.69064213102683, 129.49590591574088, 281.13762941909954, 0.01600000075995922, -0.12800000607967377, 1.0560000501573086, 0.0, 0.0, 0.0, 0.0, 0.0, 1.7103872149471793E9, 0.0, 2024-03-13 20:33:34.947
34.0, 165.81033448548988, 74.59978441614658, 176.68970345659181, 122.06659465376288, 0.01600000075995922, -0.12800000607967377, 1.0560000501573086, 0.0, 0.0, 0.0, 0.0, 0.0, 1.7103872149479237E9, 0.0, 2024-03-13 20:33:34.947
34.0, 45.297668263316154, 23.14811077574268, 55.0251480480656, 6.202624076511711, 0.01600000075995922, -0.12800000607967377, 1.0560000501573086, 0.0, 0.0, 0.0, 0.0, 0.0, 1.7103872149479237E9, 0.0, 2024-03-13 20:33:34.947
35.0, 242.23892997996882, -38.06283179903403, 273.75880680652335, -54.84002300025895, 0.01600000075995922, -0.12800000607967377, 1.0560000501573086, 0.0, 0.0, 0.0, 0.0, 0.0, 1.7103872149617326E9, 0.0, 2024-03-13 20:33:34.961
35.0, 79.684178405907, -135.57324334373698, 78.53228921955451, -92.11560585862026, 0.01600000075995922, -0.12800000607967377, 1.0560000501573086, 0.0, 0.0, 0.0, 0.0, 0.0, 1.7103872149617326E9, 0.0, 2024-03-13 20:33:34.961
36.0, 1.9559676768258214, 6.961823767516762, -9.888295482844114, 4.0858407015912235, 0.01600000075995922, -0.12800000607967377, 1.0560000501573086, 0.0, 0.0, 0.0, 0.0, 0.0, 1.7103872149775205E9, 0.0, 2024-03-13 20:33:34.977
36.0, -99.85906871687621, 195.76506318058819, -71.20021535642445, 163.27655226550996, 0.01600000075995922, -0.12800000607967377, 1.0560000501573086, 0.0, 0.0, 0.0, 0.0, 0.0, 1.7103872149775205E9, 0.0, 2024-03-13 20:33:34.977
37.0, 35.26912653213367, 237.3172216382809, 56.46687948098406, 263.2571677309461, 0.01600000075995922, -0.12800000607967377, 1.0560000501573086, 0.0, 0.0, 0.0, 0.0, 0.0, 1.7103872149780653E9, 0.0, 2024-03-13 20:33:34.978
37.0, -136.75692167971283, 323.9071253123693, -153.60517098009586, 345.95009565120563, 0.01600000075995922, -0.12800000607967377, 1.0560000501573086, 0.0, 0.0, 0.0, 0.0, 0.0, 1.7103872149780653E9, 0.0, 2024-03-13 20:33:34.978
38.0, 14.450973428785801, 400.71345070237294, 30.65595993679017, 365.1283026239835, 0.01600000075995922, -0.12800000607967377, 1.0560000501573086, 0.0, 0.0, 0.0, 0.0, 0.0, 1.7103872150081673E9, 0.0, 2024-03-13 20:33:35.008
38.0, 94.0640937355347, 271.0660788384266, 134.35403595818207, 280.7748591233976, 0.01600000075995922, -0.12800000607967377, 1.0560000501573086, 0.0, 0.0, 0.0, 0.0, 0.0, 1.7103872150081673E9, 0.0, 2024-03-13 20:33:35.008
39.0, 194.2223544488661, 74.52872631698847, 183.68705627368763, 116.11267392430454, 0.01600000075995922, -0.12800000607967377, 1.0560000501573086, 0.0, 0.0, 0.0, 0.0, 0.0, 1.7103872150085893E9, 0.0, 2024-03-13 20:33:35.008
39.0, 30.382947240024805, 26.82817233214155, 60.08149278815836, 8.109973053913563, 0.01600000075995922, -0.12800000607967377, 1.0560000501573086, 0.0, 0.0, 0.0, 0.0, 0.0, 1.7103872150085893E9, 0.0, 2024-03-13 20:33:35.008
40.0, 240.37271990207955, -42.85738354222849, 284.7802919759415, -49.79115806007758, 0.01600000075995922, -0.12800000607967377, 1.0560000501573086, 0.0, 0.0, 0.0, 0.0, 0.0, 1.7103872150093389E9, 0.0, 2024-03-13 20:33:35.009
40.0, 58.98383215116337, -151.59871465386823, 82.68357817037031, -93.24131574528292, 0.01600000075995922, -0.12800000607967377, 1.0560000501573086, 0.0, 0.0, 0.0, 0.0, 0.0, 1.7103872150093389E9, 0.0, 2024-03-13 20:33:35.009
41.0, -12.764278548769653, -6.464417073410004, -5.995059628970921, 6.154005377087742, 0.01600000075995922, -0.11200000531971455, 1.0560000501573086, 0.0, 0.0, 0.0, 0.0, 0.0, 1.710387215021652E9, 0.0, 2024-03-13 20:33:35.021
41.0, -104.41052696295083, 192.19345872290432, -65.35101182572544, 167.2296265186742, 0.01600000075995922, -0.11200000531971455, 1.0560000501573086, 0.0, 0.0, 0.0, 0.0, 0.0, 1.710387215021652E9, 0.0, 2024-03-13 20:33:35.021
42.0, 32.90176986018196, 233.5698418826796, 65.06116957915947, 271.68316233111545, 0.01600000075995922, -0.11200000531971455, 1.0560000501573086, 0.0, 0.0, 0.0, 0.0, 0.0, 1.710387215037227E9, 0.0, 2024-03-13 20:33:35.037
42.0, -148.31695244275033, 316.8461941960268, -147.86442454811186, 354.9333353447728, 0.01600000075995922, -0.11200000531971455, 1.0560000501573086, 0.0, 0.0, 0.0, 0.0, 0.0, 1.710387215037227E9, 0.0, 2024-03-13 20:33:35.037
43.0, 12.218253155238926, 400.9453244996257, 39.624240030534565, 375.80571699747816, 0.01600000075995922, -0.11200000531971455, 1.0560000501573086, 0.0, 0.0, 0.0, 0.0, 0.0, 1.7103872150379603E9, 0.0, 2024-03-13 20:33:35.037
43.0, 90.70940347528085, 273.6316502080299, 139.5674564964138, 292.69018038222566, 0.01600000075995922, -0.11200000531971455, 1.0560000501573086, 0.0, 0.0, 0.0, 0.0, 0.0, 1.7103872150379603E9, 0.0, 2024-03-13 20:33:35.037
44.0, 186.79117323691025, 76.64924959186465, 190.30293929530308, 127.504409189336, 0.01600000075995922, -0.11200000531971455, 1.0560000501573086, 0.0, 0.0, 0.0, 0.0, 0.0, 1.7103872150514774E9, 0.0, 2024-03-13 20:33:35.051
44.0, 58.41349740792066, 25.825879144016653, 58.6565909050405, 17.657937640789896, 0.01600000075995922, -0.11200000531971455, 1.0560000501573086, 0.0, 0.0, 0.0, 0.0, 0.0, 1.7103872150514774E9, 0.0, 2024-03-13 20:33:35.051
45.0, 237.28730243863538, -46.9301345939748, 267.4869945808314, -56.15272788470611, 0.01600000075995922, -0.11200000531971455, 1.0560000501573086, 0.0, 0.0, 0.0, 0.0, 0.0, 1.7103872150672302E9, 0.0, 2024-03-13 20:33:35.067
45.0, 69.66124652465805, -153.32654843339697, 70.33068861672655, -102.55366663495079, 0.01600000075995922, -0.11200000531971455, 1.0560000501573086, 0.0, 0.0, 0.0, 0.0, 0.0, 1.7103872150672302E9, 0.0, 2024-03-13 20:33:35.067
46.0, 0.762939590960741, 2.1859715241007507, -7.62939590960741, 7.85191995697096, 0.01600000075995922, -0.11200000531971455, 1.0560000501573086, 0.0, 0.0, 0.0, 0.0, 0.0, 1.7103872150679383E9, 0.0, 2024-03-13 20:33:35.067
46.0, -108.32620221655816, 187.84769497439265, -68.86277788411826, 162.57345107384026, 0.01600000075995922, -0.11200000531971455, 1.0560000501573086, 0.0, 0.0, 0.0, 0.0, 0.0, 1.7103872150679383E9, 0.0, 2024-03-13 20:33:35.067
47.0, 22.508587883319706, 229.08196193585172, 63.176260001491755, 267.8946436760016, 0.01600000075995922, -0.11200000531971455, 1.0560000501573086, 0.0, 0.0, 0.0, 0.0, 0.0, 1.7103872150815408E9, 0.0, 2024-03-13 20:33:35.081
47.0, -141.57765272259712, 326.15106528578326, -136.94017677754164, 355.8608305337839, 0.01600000075995922, -0.11200000531971455, 1.0560000501573086, 0.0, 0.0, 0.0, 0.0, 0.0, 1.7103872150815408E9, 0.0, 2024-03-13 20:33:35.081
48.0, 12.816637148149312, 401.5100493929349, 47.49298953730613, 378.47600556584075, 0.01600000075995922, -0.11200000531971455, 1.0560000501573086, 0.0, 0.0, 0.0, 0.0, 0.0, 1.7103872150972075E9, 0.0, 2024-03-13 20:33:35.097
48.0, 72.1632395950146, 263.9116502231918, 141.422446874436, 281.0441319202073, 0.01600000075995922, -0.11200000531971455, 1.0560000501573086, 0.0, 0.0, 0.0, 0.0, 0.0, 1.7103872150972075E9, 0.0, 2024-03-13 20:33:35.097
49.0, 179.37869152473286, 66.66745661012828, 191.38751028245315, 121.3522737622261, 0.01600000075995922, -0.11200000531971455, 1.0560000501573086, 0.0, 0.0, 0.0, 0.0, 0.0, 1.7103872150979173E9, 0.0, 2024-03-13 20:33:35.097
49.0, 46.55801454838365, 13.663724488113075, 65.76614072080702, 8.981369743589312, 0.01600000075995922, -0.11200000531971455, 1.0560000501573086, 0.0, 0.0, 0.0, 0.0, 0.0, 1.7103872150979173E9, 0.0, 2024-03-13 20:33:35.097
50.0, 230.72751791635528, -55.165394296403974, 282.06512460811064, -57.36819537030533, 0.01600000075995922, -0.11200000531971455, 1.0560000501573086, 0.0, 0.0, 0.0, 0.0, 0.0, 1.7103872151114962E9, 0.0, 2024-03-13 20:33:35.111
50.0, 57.143801372963935, -163.69729101052508, 82.18243157630786, -102.04130034102127, 0.01600000075995922, -0.11200000531971455, 1.0560000501573086, 0.0, 0.0, 0.0, 0.0, 0.0, 1.7103872151114962E9, 0.0, 2024-03-13 20:33:35.111
51.0, -14.07324353326112, -15.956283160950989, -6.795398219488561, -2.4365448211319745, 0.01600000075995922, -0.12800000607967377, 1.0560000501573086, 0.0, 0.0, 0.0, 0.0, 0.0, 1.7103872151271753E9, 0.0, 2024-03-13 20:33:35.127
51.0, -112.26057696994394, 180.7194456588477, -61.008987977169454, 166.55644452665, 0.01600000075995922, -0.12800000607967377, 1.0560000501573086, 0.0, 0.0, 0.0, 0.0, 0.0, 1.7103872151271753E9, 0.0, 2024-03-13 20:33:35.127
52.0, 11.722716411110014, 217.8585221688263, 66.51225076196715, 261.5181142515503, 0.01600000075995922, -0.12800000607967377, 1.0560000501573086, 0.0, 0.0, 0.0, 0.0, 0.0, 1.7103872151279993E9, 0.0, 2024-03-13 20:33:35.127
52.0, -160.1462560025975, 305.8995070257224, -150.8862637123093, 342.7076023896225, 0.01600000075995922, -0.12800000607967377, 1.0560000501573086, 0.0, 0.0, 0.0, 0.0, 0.0, 1.7103872151279993E9, 0.0, 2024-03-13 20:33:35.127
53.0, 1.2005078857764602, 392.25753690255806, 40.70133121777326, 371.13458195282146, 0.01600000075995922, -0.12800000607967377, 1.0560000501573086, 0.0, 0.0, 0.0, 0.0, 0.0, 1.7103872151415236E9, 0.0, 2024-03-13 20:33:35.141
53.0, 89.42287789052352, 266.72405498987064, 145.46901862649247, 285.932181162294, 0.01600000075995922, -0.12800000607967377, 1.0560000501573086, 0.0, 0.0, 0.0, 0.0, 0.0, 1.7103872151415236E9, 0.0, 2024-03-13 20:33:35.141
54.0, 170.87041912553832, 58.70520960446447, 185.63554415060207, 111.7556904759258, 0.01600000075995922, -0.12800000607967377, 1.0560000501573086, 0.0, 0.0, 0.0, 0.0, 0.0, 1.7103872151572423E9, 0.0, 2024-03-13 20:33:35.157
54.0, 36.826794863678515, 11.909711408894509, 55.82548663858324, 0.6301731425337493, 0.01600000075995922, -0.12800000607967377, 1.0560000501573086, 0.0, 0.0, 0.0, 0.0, 0.0, 1.7103872151572423E9, 0.0, 2024-03-13 20:33:35.157
55.0, 223.36739480355754, -52.667141126003116, 280.4120888276957, -62.409580510575324, 0.01600000075995922, -0.12800000607967377, 1.0560000501573086, 0.0, 0.0, 0.0, 0.0, 0.0, 1.7103872151579814E9, 0.0, 2024-03-13 20:33:35.157
55.0, 68.40464013954625, -159.51982276001945, 82.34698717435822, -108.22335496777669, 0.01600000075995922, -0.12800000607967377, 1.0560000501573086, 0.0, 0.0, 0.0, 0.0, 0.0, 1.7103872151579814E9, 0.0, 2024-03-13 20:33:35.157
56.0, -32.791442811489105, -13.996575584169477, -10.591396674513817, -5.675298182759434, 0.01600000075995922, -0.12800000607967377, 1.0560000501573086, 0.0, 0.0, 0.0, 0.0, 0.0, 1.710387215171602E9, 0.0, 2024-03-13 20:33:35.171
56.0, -118.88019989151508, 184.05917631927878, -60.04409378860146, 160.04901860374957, 0.01600000075995922, -0.12800000607967377, 1.0560000501573086, 0.0, 0.0, 0.0, 0.0, 0.0, 1.710387215171602E9, 0.0, 2024-03-13 20:33:35.171
57.0, 31.56662557600066, 222.52217741357163, 70.46532501513138, 260.34752556541935, 0.01600000075995922, -0.12800000607967377, 1.0560000501573086, 0.0, 0.0, 0.0, 0.0, 0.0, 1.7103872151875412E9, 0.0, 2024-03-13 20:33:35.187
57.0, -151.49212750513107, 304.07443584734574, -153.0703652864322, 334.5022618868388, 0.01600000075995922, -0.12800000607967377, 1.0560000501573086, 0.0, 0.0, 0.0, 0.0, 0.0, 1.7103872151875412E9, 0.0, 2024-03-13 20:33:35.187
58.0, 11.541331263259053, 392.48193089989945, 41.85322040412575, 368.7560055810027, 0.01600000075995922, -0.12800000607967377, 1.0560000501573086, 0.0, 0.0, 0.0, 0.0, 0.0, 1.7103872151879733E9, 0.0, 2024-03-13 20:33:35.187
58.0, 84.20197755238041, 261.34981875354424, 139.72079239459708, 275.898029581178, 0.01600000075995922, -0.12800000607967377, 1.0560000501573086, 0.0, 0.0, 0.0, 0.0, 0.0, 1.7103872151879733E9, 0.0, 2024-03-13 20:33:35.187
59.0, 159.70681775780395, 58.26764130964875, 183.2494879788719, 106.22811834141612, 0.01600000075995922, -0.12800000607967377, 1.0560000501573086, 0.0, 0.0, 0.0, 0.0, 0.0, 1.7103872152015383E9, 0.0, 2024-03-13 20:33:35.201
59.0, 38.57706804294139, 17.91225083777681, 59.400830996222794, 6.318560975138098, 0.01600000075995922, -0.12800000607967377, 1.0560000501573086, 0.0, 0.0, 0.0, 0.0, 0.0, 1.7103872152015383E9, 0.0, 2024-03-13 20:33:35.201
60.0, 222.1968061174266, -52.79055782454088, 275.50534008583054, -54.20797990774736, 0.01600000075995922, -0.12800000607967377, 1.0560000501573086, 0.0, 0.0, 0.0, 0.0, 0.0, 1.7103872152172256E9, 0.0, 2024-03-13 20:33:35.217
60.0, 46.77305879583582, -159.10469386493787, 76.23599064676091, -105.64282399835065, 0.01600000075995922, -0.12800000607967377, 1.0560000501573086, 0.0, 0.0, 0.0, 0.0, 0.0, 1.7103872152172256E9, 0.0, 2024-03-13 20:33:35.217
61.0, -24.20837241318077, -13.659984588157386, -11.6722277617082, -7.309634463395923, 0.01600000075995922, -0.12800000607967377, 1.0560000501573086, 0.0, 0.0, 0.0, 0.0, 0.0, 1.7103872152182145E9, 0.0, 2024-03-13 20:33:35.218
61.0, -113.98467084951699, 185.42797970306128, -62.127218063920736, 161.0064329924062, 0.01600000075995922, -0.12800000607967377, 1.0560000501573086, 0.0, 0.0, 0.0, 0.0, 0.0, 1.7103872152182145E9, 0.0, 2024-03-13 20:33:35.218
62.0, 25.036760253366083, 226.5388299659826, 61.601762120146304, 261.83226584782824, 0.01600000075995922, -0.12800000607967377, 1.0560000501573086, 0.0, 0.0, 0.0, 0.0, 0.0, 1.7103872152317877E9, 0.0, 2024-03-13 20:33:35.231
62.0, -152.86093088891357, 309.8301418791525, -148.5937050394714, 342.93947618687525, 0.01600000075995922, -0.12800000607967377, 1.0560000501573086, 0.0, 0.0, 0.0, 0.0, 0.0, 1.7103872152317877E9, 0.0, 2024-03-13 20:33:35.231
63.0, 13.957306634634733, 401.30061499541625, 44.923678267747164, 376.7107727867551, 0.01600000075995922, -0.12800000607967377, 1.0560000501573086, 0.0, 0.0, 0.0, 0.0, 0.0, 1.7103872152472448E9, 0.0, 2024-03-13 20:33:35.247
63.0, 82.78829536912963, 274.12905690213665, 145.9028470213525, 289.0774370250292, 0.01600000075995922, -0.12800000607967377, 1.0560000501573086, 0.0, 0.0, 0.0, 0.0, 0.0, 1.7103872152472448E9, 0.0, 2024-03-13 20:33:35.247
64.0, 181.26734100235626, 69.25920727942139, 183.4813617761247, 116.22113102301955, 0.01600000075995922, -0.12800000607967377, 1.0560000501573086, 0.0, 0.0, 0.0, 0.0, 0.0, 1.7103872152479253E9, 0.0, 2024-03-13 20:33:35.247
64.0, 48.58130042441189, 26.364424737636, 62.41893026046455, 16.7678414513357, 0.01600000075995922, -0.12800000607967377, 1.0560000501573086, 0.0, 0.0, 0.0, 0.0, 0.0, 1.7103872152479253E9, 0.0, 2024-03-13 20:33:35.247
65.0, 230.7162982164882, -44.278545525390655, 283.145955695305, -49.8210772597231, 0.01600000075995922, -0.12800000607967377, 1.0560000501573086, 0.0, 0.0, 0.0, 0.0, 0.0, 1.7103872152617157E9, 0.0, 2024-03-13 20:33:35.261
65.0, 55.580523191485554, -161.70766423409805, 77.09990753652528, -106.44690248882398, 0.01600000075995922, -0.12800000607967377, 1.0560000501573086, 0.0, 0.0, 0.0, 0.0, 0.0, 1.7103872152617157E9, 0.0, 2024-03-13 20:33:35.261
66.0, -24.735698306933045, -13.49542899010703, -7.25540591403842, -1.9615775267593563, 0.01600000075995922, -0.12800000607967377, 1.0560000501573086, 0.0, 0.0, 0.0, 0.0, 0.0, 1.7103872152772107E9, 0.0, 2024-03-13 20:33:35.277
66.0, -106.70308563578874, 188.70039216428995, -56.44257013127208, 171.0031855739653, 0.01600000075995922, -0.12800000607967377, 1.0560000501573086, 0.0, 0.0, 0.0, 0.0, 0.0, 1.7103872152772107E9, 0.0, 2024-03-13 20:33:35.277
67.0, 18.398437832016498, 216.32890308694914, 64.67595988372341, 258.3653785889037, 0.01600000075995922, -0.12800000607967377, 1.0560000501573086, 0.0, 0.0, 0.0, 0.0, 0.0, 1.7103872152779083E9, 0.0, 2024-03-13 20:33:35.277
67.0, -151.20789510849863, 306.9018002138473, -148.6273641390726, 345.5499263559468, 0.01600000075995922, -0.12800000607967377, 1.0560000501573086, 0.0, 0.0, 0.0, 0.0, 0.0, 1.7103872152779083E9, 0.0, 2024-03-13 20:33:35.277
68.0, 1.7801923789083958, 401.26321599585935, 46.139145753346384, 382.70583241572604, 0.01600000075995922, -0.12800000607967377, 1.0560000501573086, 0.0, 0.0, 0.0, 0.0, 0.0, 1.710387215291505E9, 0.0, 2024-03-13 20:33:35.291
68.0, 84.77418224560097, 265.27297380706295, 141.4561059740372, 287.9031084389426, 0.01600000075995922, -0.12800000607967377, 1.0560000501573086, 0.0, 0.0, 0.0, 0.0, 0.0, 1.710387215291505E9, 0.0, 2024-03-13 20:33:35.291
69.0, 177.01133485278115, 65.27621382661164, 188.00664072250947, 119.96851077862084, 0.01600000075995922, -0.12800000607967377, 1.0560000501573086, 0.0, 0.0, 0.0, 0.0, 0.0, 1.710387215307546E9, 0.0, 2024-03-13 20:33:35.307
69.0, 38.087141148746014, 26.925409730989486, 71.39469015412033, 20.79197380365804, 0.01600000075995922, -0.12800000607967377, 1.0560000501573086, 0.0, 0.0, 0.0, 0.0, 0.0, 1.710387215307546E9, 0.0, 2024-03-13 20:33:35.307
70.0, 206.14515550760552, -50.18384755542502, 287.47301994403824, -49.67896106140688, 0.01600000075995922, -0.12800000607967377, 1.0560000501573086, 0.0, 0.0, 0.0, 0.0, 0.0, 1.7103872153080866E9, 0.0, 2024-03-13 20:33:35.308
70.0, 49.21147356694564, -168.96307014813647, 78.47619072021917, -108.5898651634343, 0.01600000075995922, -0.12800000607967377, 1.0560000501573086, 0.0, 0.0, 0.0, 0.0, 0.0, 1.7103872153080866E9, 0.0, 2024-03-13 20:33:35.308
71.0, -7.045971516519785, -7.03288186667487, -2.4084955714643, 12.130365506280214, 0.01600000075995922, -0.11200000531971455, 1.0560000501573086, 0.0, 0.0, 0.0, 0.0, 0.0, 1.7103872153215468E9, 0.0, 2024-03-13 20:33:35.321
71.0, -103.68872627150267, 197.0964675648138, -52.27258168067783, 182.70907243527472, 0.01600000075995922, -0.11200000531971455, 1.0560000501573086, 0.0, 0.0, 0.0, 0.0, 0.0, 1.7103872153215468E9, 0.0, 2024-03-13 20:33:35.321
72.0, 30.526933388318866, 232.37307389685884, 74.62035386590287, 277.72684065951034, 0.01600000075995922, -0.11200000531971455, 1.0560000501573086, 0.0, 0.0, 0.0, 0.0, 0.0, 1.710387215337463E9, 0.0, 2024-03-13 20:33:35.337
72.0, -136.13235838711262, 327.22441657306626, -130.63470545224845, 368.9617000785656, 0.01600000075995922, -0.11200000531971455, 1.0560000501573086, 0.0, 0.0, 0.0, 0.0, 0.0, 1.710387215337463E9, 0.0, 2024-03-13 20:33:35.337
73.0, 18.87527507636696, 416.2115961187519, 53.93683716095984, 389.88644033065066, 0.01600000075995922, -0.11200000531971455, 1.0560000501573086, 0.0, 0.0, 0.0, 0.0, 0.0, 1.710387215338101E9, 0.0, 2024-03-13 20:33:35.338
73.0, 96.74934190372005, 283.64710228936747, 151.1985453586094, 296.2991838394664, 0.01600000075995922, -0.11200000531971455, 1.0560000501573086, 0.0, 0.0, 0.0, 0.0, 0.0, 1.710387215338101E9, 0.0, 2024-03-13 20:33:35.338
74.0, 176.96271615335718, 76.64550969190896, 194.97407433995977, 129.2434626687318, 0.01600000075995922, -0.11200000531971455, 1.0560000501573086, 0.0, 0.0, 0.0, 0.0, 0.0, 1.7103872153515463E9, 0.0, 2024-03-13 20:33:35.351
74.0, 47.5416082367301, 37.93567520054057, 78.43318187072873, 33.09250475792214, 0.01600000075995922, -0.11200000531971455, 1.0560000501573086, 0.0, 0.0, 0.0, 0.0, 0.0, 1.7103872153515463E9, 0.0, 2024-03-13 20:33:35.351
75.0, 242.94203117163852, -35.32522503146902, 291.21291989972815, -36.278899520169944, 0.01600000075995922, -0.11200000531971455, 1.0560000501573086, 0.0, 0.0, 0.0, 0.0, 0.0, 1.7103872153672426E9, 0.0, 2024-03-13 20:33:35.367
75.0, 66.79648315859959, -144.76217753486708, 86.73388982238248, -92.0632472592406, 0.01600000075995922, -0.11200000531971455, 1.0560000501573086, 0.0, 0.0, 0.0, 0.0, 0.0, 1.7103872153672426E9, 0.0, 2024-03-13 20:33:35.367
76.0, -1.9484878769144416, 20.459122707601637, 7.704193908721209, 30.72888798592612, 0.01600000075995922, -0.11200000531971455, 1.0560000501573086, 0.0, 0.0, 0.0, 0.0, 0.0, 1.7103872153679357E9, 0.0, 2024-03-13 20:33:35.367
76.0, -93.95376668684185, 207.03712164703757, -49.11610611807555, 185.30456300452352, 0.01600000075995922, -0.11200000531971455, 1.0560000501573086, 0.0, 0.0, 0.0, 0.0, 0.0, 1.7103872153679357E9, 0.0, 2024-03-13 20:33:35.367
77.0, 27.306879526469857, 233.14349328773096, 68.15780674247071, 270.09370484994724, 0.01600000075995922, -0.11200000531971455, 1.0560000501573086, 0.0, 0.0, 0.0, 0.0, 0.0, 1.710387215381506E9, 0.0, 2024-03-13 20:33:35.381
77.0, -155.3741436591372, 321.74172323802486, -144.01232759375125, 359.4137354916893, 0.01600000075995922, -0.11200000531971455, 1.0560000501573086, 0.0, 0.0, 0.0, 0.0, 0.0, 1.710387215381506E9, 0.0, 2024-03-13 20:33:35.381
78.0, 20.51709115691483, 408.86269270582125, 48.33446702733636, 387.21615176228806, 0.01600000075995922, -0.11200000531971455, 1.0560000501573086, 0.0, 0.0, 0.0, 0.0, 0.0, 1.7103872153972793E9, 0.0, 2024-03-13 20:33:35.397
78.0, 105.09305870486423, 274.38337009912357, 151.1648862590082, 296.7068329346366, 0.01600000075995922, -0.11200000531971455, 1.0560000501573086, 0.0, 0.0, 0.0, 0.0, 0.0, 1.7103872153972793E9, 0.0, 2024-03-13 20:33:35.397
79.0, 171.93629061290994, 74.04627922270447, 197.78647910663858, 126.51333570107818, 0.01600000075995922, -0.11200000531971455, 1.0560000501573086, 0.0, 0.0, 0.0, 0.0, 0.0, 1.7103872153979263E9, 0.0, 2024-03-13 20:33:35.397
79.0, 63.832612443715334, 39.91408227710053, 81.51485943421721, 30.885963784065098, 0.01600000075995922, -0.11200000531971455, 1.0560000501573086, 0.0, 0.0, 0.0, 0.0, 0.0, 1.7103872153979263E9, 0.0, 2024-03-13 20:33:35.397
80.0, 242.59048057580367, -37.72624080302194, 297.0957825300284, -38.70609459141269, 0.01600000075995922, -0.11200000531971455, 1.0560000501573086, 0.0, 0.0, 0.0, 0.0, 0.0, 1.7103872154118602E9, 0.0, 2024-03-13 20:33:35.411
80.0, 65.82410917012021, -143.8608616455458, 89.04514799499884, -94.9130510254763, 0.01600000075995922, -0.11200000531971455, 1.0560000501573086, 0.0, 0.0, 0.0, 0.0, 0.0, 1.7103872154118602E9, 0.0, 2024-03-13 20:33:35.411
81.0, 1.5894574811682105, 23.260307774413377, 12.524924951605499, 24.606671758461744, 0.01600000075995922, -0.11200000531971455, 1.0560000501573086, 0.0, 0.0, 0.0, 0.0, 0.0, 1.7103872154272184E9, 0.0, 2024-03-13 20:33:35.427
81.0, -98.4192072339356, 203.41315858997405, -50.23059630487114, 178.92055378016084, 0.01600000075995922, -0.11200000531971455, 1.0560000501573086, 0.0, 0.0, 0.0, 0.0, 0.0, 1.7103872154272184E9, 0.0, 2024-03-13 20:33:35.427
82.0, 20.851812202949077, 226.3106960686855, 69.17131963046268, 266.1443704967387, 0.01600000075995922, -0.11200000531971455, 1.0560000501573086, 0.0, 0.0, 0.0, 0.0, 0.0, 1.7103872154279284E9, 0.0, 2024-03-13 20:33:35.427
82.0, -147.81954574864358, 329.27388174878433, -135.71348959207535, 363.47526684356853, 0.01600000075995922, -0.11200000531971455, 1.0560000501573086, 0.0, 0.0, 0.0, 0.0, 0.0, 1.7103872154279284E9, 0.0, 2024-03-13 20:33:35.427
83.0, 18.628441679291427, 418.90432408684865, 60.64621768146753, 399.6961979144253, 0.01600000075995922, -0.11200000531971455, 1.0560000501573086, 0.0, 0.0, 0.0, 0.0, 0.0, 1.7103872154415612E9, 0.0, 2024-03-13 20:33:35.441
83.0, 91.3190071680583, 274.79101919429377, 150.28226986946538, 295.7120195464231, 0.01600000075995922, -0.11200000531971455, 1.0560000501573086, 0.0, 0.0, 0.0, 0.0, 0.0, 1.7103872154415612E9, 0.0, 2024-03-13 20:33:35.441
84.0, 168.52176195336506, 68.01756049413234, 187.54289312800393, 123.09132724162191, 0.01600000075995922, -0.11200000531971455, 1.0560000501573086, 0.0, 0.0, 0.0, 0.0, 0.0, 1.7103872154574432E9, 0.0, 2024-03-13 20:33:35.457
84.0, 48.902931820601225, 41.002393164206296, 77.50568668171763, 35.059692134615034, 0.01600000075995922, -0.11200000531971455, 1.0560000501573086, 0.0, 0.0, 0.0, 0.0, 0.0, 1.7103872154574432E9, 0.0, 2024-03-13 20:33:35.457
85.0, 225.66369337635115, -43.25381293753162, 284.4960595793091, -53.44878021674231, 0.01600000075995922, -0.11200000531971455, 1.0560000501573086, 0.0, 0.0, 0.0, 0.0, 0.0, 1.7103872154579158E9, 0.0, 2024-03-13 20:33:35.457
85.0, 50.79719114815816, -163.7234703102149, 74.39595986856148, -113.13384360959753, 0.01600000075995922, -0.11200000531971455, 1.0560000501573086, 0.0, 0.0, 0.0, 0.0, 0.0, 1.7103872154579158E9, 0.0, 2024-03-13 20:33:35.457
86.0, -26.242877989076078, 4.4486109972931445, 5.957660629414022, 15.630911864805967, 0.01600000075995922, -0.11200000531971455, 1.0560000501573086, 0.0, 0.0, 0.0, 0.0, 0.0, 1.710387215471871E9, 0.0, 2024-03-13 20:33:35.471
86.0, -100.24053851235658, 205.27188886795193, -42.20851089991629, 179.20478617679328, 0.01600000075995922, -0.11200000531971455, 1.0560000501573086, 0.0, 0.0, 0.0, 0.0, 0.0, 1.710387215471871E9, 0.0, 2024-03-13 20:33:35.471
87.0, 35.803932225797325, 229.66538632893935, 77.28690253430977, 266.45478219306096, 0.01600000075995922, -0.11200000531971455, 1.0560000501573086, 0.0, 0.0, 0.0, 0.0, 0.0, 1.710387215487518E9, 0.0, 2024-03-13 20:33:35.487
87.0, -139.9919351413846, 326.93644427647814, -130.42153115477413, 360.6441625771113, 0.01600000075995922, -0.11200000531971455, 1.0560000501573086, 0.0, 0.0, 0.0, 0.0, 0.0, 1.710387215487518E9, 0.0, 2024-03-13 20:33:35.487
88.0, 17.32321659475565, 422.5582063435577, 64.24026153888553, 394.81188857229427, 0.01600000075995922, -0.11200000531971455, 1.0560000501573086, 0.0, 0.0, 0.0, 0.0, 0.0, 1.7103872154881556E9, 0.0, 2024-03-13 20:33:35.488
88.0, 86.64413222344592, 262.34837204171345, 143.74118484696373, 274.42450899863616, 0.01600000075995922, -0.11200000531971455, 1.0560000501573086, 0.0, 0.0, 0.0, 0.0, 0.0, 1.7103872154881556E9, 0.0, 2024-03-13 20:33:35.488
89.0, 174.27746798517182, 63.783993744291365, 193.20510166091844, 115.28615603409708, 0.01600000075995922, -0.11200000531971455, 1.0560000501573086, 0.0, 0.0, 0.0, 0.0, 0.0, 1.710387215501542E9, 0.0, 2024-03-13 20:33:35.501
89.0, 58.996921801008284, 38.8519506896846, 79.40181595925242, 25.1414774521254, 0.01600000075995922, -0.11200000531971455, 1.0560000501573086, 0.0, 0.0, 0.0, 0.0, 0.0, 1.710387215501542E9, 0.0, 2024-03-13 20:33:35.501
90.0, 219.62375494791195, -54.361315805930644, 289.0101188258268, -65.59597527282313, 0.01600000075995922, -0.11200000531971455, 1.0560000501573086, 0.0, 0.0, 0.0, 0.0, 0.0, 1.7103872155172784E9, 0.0, 2024-03-13 20:33:35.517
90.0, 41.38012305973098, -173.55566729372367, 71.29558280529454, -123.03709869226441, 0.01600000075995922, -0.11200000531971455, 1.0560000501573086, 0.0, 0.0, 0.0, 0.0, 0.0, 1.7103872155172784E9, 0.0, 2024-03-13 20:33:35.517
91.0, -27.843555170111358, -19.707402816507965, -10.206186979077756, -9.209503640886396, 0.01600000075995922, -0.11200000531971455, 1.0560000501573086, 0.0, 0.0, 0.0, 0.0, 0.0, 1.710387215517952E9, 0.0, 2024-03-13 20:33:35.517
91.0, -105.31558275222778, 178.33338948711753, -67.30323960259557, 156.72424754314125, 0.01600000075995922, -0.11200000531971455, 1.0560000501573086, 0.0, 0.0, 0.0, 0.0, 0.0, 1.710387215517952E9, 0.0, 2024-03-13 20:33:35.517
92.0, 2.129873024765402, 196.24564032489434, 49.63034236198291, 237.3134817383252, 0.01600000075995922, -0.11200000531971455, 1.0560000501573086, 0.0, 0.0, 0.0, 0.0, 0.0, 1.7103872155316565E9, 0.0, 2024-03-13 20:33:35.531
92.0, -184.5341436136514, 296.0934893419035, -154.0389993749559, 335.0744665800594, 0.01600000075995922, -0.11200000531971455, 1.0560000501573086, 0.0, 0.0, 0.0, 0.0, 0.0, 1.7103872155316565E9, 0.0, 2024-03-13 20:33:35.531
93.0, 4.760892643593252, 401.6147665916942, 51.79013458639383, 380.13652114616707, 0.01600000075995922, -0.11200000531971455, 1.0560000501573086, 0.0, 0.0, 0.0, 0.0, 0.0, 1.710387215547194E9, 0.0, 2024-03-13 20:33:35.547
93.0, 75.48801065562293, 245.1710115452297, 138.21361271245405, 260.8785913591273, 0.01600000075995922, -0.11200000531971455, 1.0560000501573086, 0.0, 0.0, 0.0, 0.0, 0.0, 1.710387215547194E9, 0.0, 2024-03-13 20:33:35.547
94.0, 159.33282776223496, 44.422531673684716, 185.1830162559636, 103.52417067345232, 0.01600000075995922, -0.11200000531971455, 1.0560000501573086, 0.0, 0.0, 0.0, 0.0, 0.0, 1.7103872155479107E9, 0.0, 2024-03-13 20:33:35.547
94.0, 36.56126196682453, 24.27756056236103, 80.6659021442756, 22.531027283053845, 0.01600000075995922, -0.11200000531971455, 1.0560000501573086, 0.0, 0.0, 0.0, 0.0, 0.0, 1.7103872155479107E9, 0.0, 2024-03-13 20:33:35.547
95.0, 221.06361643085256, -55.69272019015625, 286.84097685152665, -56.9343669754453, 0.01600000075995922, -0.11200000531971455, 1.0560000501573086, 0.0, 0.0, 0.0, 0.0, 0.0, 1.71038721556156E9, 0.0, 2024-03-13 20:33:35.561
95.0, 35.52343972912058, -184.01242756983265, 72.61950738960877, -124.91826836997643, 0.01600000075995922, -0.11200000531971455, 1.0560000501573086, 0.0, 0.0, 0.0, 0.0, 0.0, 1.71038721556156E9, 0.0, 2024-03-13 20:33:35.561
96.0, -28.464378562755883, -14.078853383194655, -2.3449172722175717, 2.7656560172326863, 0.01600000075995922, -0.11200000531971455, 1.0560000501573086, 0.0, 0.0, 0.0, 0.0, 0.0, 1.7103872155771625E9, 0.0, 2024-03-13 20:33:35.577
96.0, -122.29846845101565, 177.978098991327, -61.91404376644641, 158.65403592027724, 0.01600000075995922, -0.11200000531971455, 1.0560000501573086, 0.0, 0.0, 0.0, 0.0, 0.0, 1.7103872155771625E9, 0.0, 2024-03-13 20:33:35.577
97.0, 17.92347053764388, 191.68670227890834, 53.2281261193566, 232.97519778972492, 0.01600000075995922, -0.11200000531971455, 1.0560000501573086, 0.0, 0.0, 0.0, 0.0, 0.0, 1.7103872155779507E9, 0.0, 2024-03-13 20:33:35.577
97.0, -169.81015748810023, 294.8294031568803, -148.7021621381864, 332.3667790121399, 0.01600000075995922, -0.11200000531971455, 1.0560000501573086, 0.0, 0.0, 0.0, 0.0, 0.0, 1.7103872155779507E9, 0.0, 2024-03-13 20:33:35.577
98.0, -2.1990611739456654, 404.2513960604556, 52.85600607376546, 379.7961902501993, 0.01600000075995922, -0.11200000531971455, 1.0560000501573086, 0.0, 0.0, 0.0, 0.0, 0.0, 1.7103872155917816E9, 0.0, 2024-03-13 20:33:35.591
98.0, 90.29801448015496, 258.8777448828332, 147.06969580752775, 273.0744051146321, 0.01600000075995922, -0.11200000531971455, 1.0560000501573086, 0.0, 0.0, 0.0, 0.0, 0.0, 1.7103872155917816E9, 0.0, 2024-03-13 20:33:35.591
99.0, 154.15680622356012, 48.37560592684895, 184.37893776549026, 101.48966509755701, 0.01600000075995922, -0.11200000531971455, 1.0560000501573086, 0.0, 0.0, 0.0, 0.0, 0.0, 1.710387215607304E9, 0.0, 2024-03-13 20:33:35.607
99.0, 42.61615999508649, 31.678822574671358, 77.91707567684352, 21.614751793909818, 0.01600000075995922, -0.11200000531971455, 1.0560000501573086, 0.0, 0.0, 0.0, 0.0, 0.0, 1.710387215607304E9, 0.0, 2024-03-13 20:33:35.607
100.0, 228.22926474595442, -49.76871866034344, 289.900215015281, -52.48762592813, 0.01600000075995922, -0.11200000531971455, 1.0560000501573086, 0.0, 0.0, 0.0, 0.0, 0.0, 1.710387215607914E9, 0.0, 2024-03-13 20:33:35.607
100.0, 38.13762979814783, -183.16721017984673, 70.91411300981417, -126.23471315437928, 0.01600000075995922, -0.11200000531971455, 1.0560000501573086, 0.0, 0.0, 0.0, 0.0, 0.0, 1.710387215607914E9, 0.0, 2024-03-13 20:33:35.607
0.0, -179.50397817324847, 352.9829775178805, -23.787633668165654, 178.92429368011653, 0.01600000075995922, -0.11200000531971455, 1.0560000501573086, 0.0, 0.0, 0.0, 0.0, 0.0, 1.7103872156225424E9, 0.0, 2024-03-13 20:33:35.622
1.0, -274.6956517454237, 552.4860707041807, -78.34155432181433, 335.2801610776223, 0.01600000075995922, -0.12800000607967377, 1.0560000501573086, 0.0, 0.0, 0.0, 0.0, 0.0, 1.710387215623074E9, 0.0, 2024-03-13 20:33:35.623
1.0, -138.51654460886493, 572.7955974135548, 43.659592082723975, 421.78217710275203, 0.01600000075995922, -0.12800000607967377, 1.0560000501573086, 0.0, 0.0, 0.0, 0.0, 0.0, 1.710387215623074E9, 0.0, 2024-03-13 20:33:35.623
2.0, -350.4211460482329, 663.1927192425355, -167.74386276258156, 514.419499005191, 0.01600000075995922, -0.12800000607967377, 1.0560000501573086, 0.0, 0.0, 0.0, 0.0, 0.0, 1.7103872156367412E9, 0.0, 2024-03-13 20:33:35.636
2.0, -181.61702164821327, 763.8820457495749, 31.23751437989995, 558.62137658149, 0.01600000075995922, -0.12800000607967377, 1.0560000501573086, 0.0, 0.0, 0.0, 0.0, 0.0, 1.7103872156367412E9, 0.0, 2024-03-13 20:33:35.636
3.0, -93.55920724151656, 613.2912341337651, 121.48691016063094, 444.29637483600527, 0.01600000075995922, -0.12800000607967377, 1.0560000501573086, 0.0, 0.0, 0.0, 0.0, 0.0, 1.7103872156524484E9, 0.0, 2024-03-13 20:33:35.652
3.0, 3.984863402787596, 410.2875945889391, 168.24313940666616, 279.069464743603, 0.01600000075995922, -0.12800000607967377, 1.0560000501573086, 0.0, 0.0, 0.0, 0.0, 0.0, 1.7103872156524484E9, 0.0, 2024-03-13 20:33:35.652
4.0, -109.88200059812516, 392.8091721460223, 62.06176981469616, 203.2822620915249, 0.01600000075995922, -0.12800000607967377, 1.0560000501573086, 0.0, 0.0, 0.0, 0.0, 0.0, 1.71038721565291E9, 0.0, 2024-03-13 20:33:35.652
4.0, 66.25045776506886, 311.0437394147739, 275.07712154090405, 120.74267006944865, 0.01600000075995922, -0.12800000607967377, 1.0560000501573086, 0.0, 0.0, 0.0, 0.0, 0.0, 1.71038721565291E9, 0.0, 2024-03-13 20:33:35.652
5.0, -119.65248923236504, 178.785917381756, 61.30817997362465, 55.683370440267026, 0.01600000075995922, -0.12800000607967377, 1.0560000501573086, 0.0, 0.0, 0.0, 0.0, 0.0, 1.7103872156667879E9, 0.0, 2024-03-13 20:33:35.666
5.0, -175.16569422464818, 356.25538997910917, -8.132412453647703, 188.760230563581, 0.01600000075995922, -0.12800000607967377, 1.0560000501573086, 0.0, 0.0, 0.0, 0.0, 0.0, 1.7103872156667879E9, 0.0, 2024-03-13 20:33:35.666
6.0, -268.3079026211053, 549.6961053372361, -68.47569823870435, 346.87011104030535, 0.01600000075995922, -0.12800000607967377, 1.0560000501573086, 0.0, 0.0, 0.0, 0.0, 0.0, 1.710387215682434E9, 0.0, 2024-03-13 20:33:35.682
6.0, -152.03254304872826, 563.9357744185254, 45.75393605791032, 419.44099973049015, 0.01600000075995922, -0.12800000607967377, 1.0560000501573086, 0.0, 0.0, 0.0, 0.0, 0.0, 1.710387215682434E9, 0.0, 2024-03-13 20:33:35.682
7.0, -327.79849121626467, 655.069656538777, -175.25732177356258, 501.3560284599662, 0.01600000075995922, -0.12800000607967377, 1.0560000501573086, 0.0, 0.0, 0.0, 0.0, 0.0, 1.7103872156829133E9, 0.0, 2024-03-13 20:33:35.682
7.0, -146.93318945914507, 767.7266629040241, 35.28408613195643, 557.8733965903521, 0.01600000075995922, -0.12800000607967377, 1.0560000501573086, 0.0, 0.0, 0.0, 0.0, 0.0, 1.7103872156829133E9, 0.0, 2024-03-13 20:33:35.682
8.0, -74.02570977294818, 619.98565505445, 120.52949577197433, 446.75348910689354, 0.01600000075995922, -0.12800000607967377, 1.0560000501573086, 0.0, 0.0, 0.0, 0.0, 0.0, 1.7103872156964917E9, 0.0, 2024-03-13 20:33:35.696
8.0, 12.122885706368834, 414.27058804174885, 165.66260843724012, 277.98489375645295, 0.01600000075995922, -0.12800000607967377, 1.0560000501573086, 0.0, 0.0, 0.0, 0.0, 0.0, 1.7103872156964917E9, 0.0, 2024-03-13 20:33:35.696
9.0, -120.24526337534189, 397.32323139254004, 58.27325115958229, 202.2799689034, 0.01600000075995922, -0.12800000607967377, 1.0560000501573086, 0.0, 0.0, 0.0, 0.0, 0.0, 1.7103872157125883E9, 0.0, 2024-03-13 20:33:35.712
9.0, 60.60694873193279, 320.823577798903, 266.2808768451214, 122.25358965154737, 0.01600000075995922, -0.12800000607967377, 1.0560000501573086, 0.0, 0.0, 0.0, 0.0, 0.0, 1.7103872157125883E9, 0.0, 2024-03-13 20:33:35.712
10.0, -116.96724106417969, 197.23858376313, 60.49288178328425, 68.178376192227, 0.01600000075995922, -0.12800000607967377, 1.0560000501573086, 0.0, 0.0, 0.0, 0.0, 0.0, 1.7103872157129676E9, 0.0, 2024-03-13 20:33:35.712
10.0, -172.95167345087975, 365.63131916802377, -11.84239320969209, 194.39999969676137, 0.01600000075995922, -0.12800000607967377, 1.0560000501573086, 0.0, 0.0, 0.0, 0.0, 0.0, 1.7103872157129676E9, 0.0, 2024-03-13 20:33:35.712
11.0, -264.4932046663016, 560.2463631122373, -66.53469016170129, 351.9937739796005, 0.01600000075995922, -0.12800000607967377, 1.0560000501573086, 0.0, 0.0, 0.0, 0.0, 0.0, 1.710387215726607E9, 0.0, 2024-03-13 20:33:35.726
11.0, -155.96691780211404, 573.8652088008821, 50.548487801104784, 427.45186543557793, 0.01600000075995922, -0.12800000607967377, 1.0560000501573086, 0.0, 0.0, 0.0, 0.0, 0.0, 1.710387215726607E9, 0.0, 2024-03-13 20:33:35.726
12.0, -319.5146128144115, 670.6126807546243, -164.00396280689165, 521.6524655194953, 0.01600000075995922, -0.12800000607967377, 1.0560000501573086, 0.0, 0.0, 0.0, 0.0, 0.0, 1.7103872157426276E9, 0.0, 2024-03-13 20:33:35.742
12.0, -146.09545186907053, 774.1779903275892, 37.92071560071781, 565.2746586026624, 0.01600000075995922, -0.12800000607967377, 1.0560000501573086, 0.0, 0.0, 0.0, 0.0, 0.0, 1.7103872157426276E9, 0.0, 2024-03-13 20:33:35.742
13.0, -78.21813762327656, 618.1418843762949, 134.1427316106856, 450.71030326001346, 0.01600000075995922, -0.12800000607967377, 1.0560000501573086, 0.0, 0.0, 0.0, 0.0, 0.0, 1.710387215743051E9, 0.0, 2024-03-13 20:33:35.743
13.0, -11.210350117180496, 404.6590451556258, 169.22299319505692, 278.961007644888, 0.01600000075995922, -0.12800000607967377, 1.0560000501573086, 0.0, 0.0, 0.0, 0.0, 0.0, 1.710387215743051E9, 0.0, 2024-03-13 20:33:35.743
14.0, -121.75618295744061, 390.13514367770404, 51.26093874266371, 198.66348564624786, 0.01600000075995922, -0.12800000607967377, 1.0560000501573086, 0.0, 0.0, 0.0, 0.0, 0.0, 1.7103872157567923E9, 0.0, 2024-03-13 20:33:35.756
14.0, 57.0839629736729, 314.4470483744517, 267.3504882324487, 119.42996518500149, 0.01600000075995922, -0.12800000607967377, 1.0560000501573086, 0.0, 0.0, 0.0, 0.0, 0.0, 1.7103872157567923E9, 0.0, 2024-03-13 20:33:35.756
15.0, -121.61593670910224, 186.59482848923653, 50.144578605890274, 52.66153127606958, 0.01600000075995922, -0.12800000607967377, 1.0560000501573086, 0.0, 0.0, 0.0, 0.0, 0.0, 1.7103872157723155E9, 0.0, 2024-03-13 20:33:35.772
15.0, -167.5624776147306, 357.48955696448684, -23.694136169273406, 175.63318171910942, 0.01600000075995922, -0.12800000607967377, 1.0560000501573086, 0.0, 0.0, 0.0, 0.0, 0.0, 1.7103872157723155E9, 0.0, 2024-03-13 20:33:35.772
16.0, -276.43844512477517, 562.9503107802011, -70.55508261406794, 348.044439626392, 0.01600000075995922, -0.12800000607967377, 1.0560000501573086, 0.0, 0.0, 0.0, 0.0, 0.0, 1.7103872157876277E9, 0.0, 2024-03-13 20:33:35.787
16.0, -134.0099651622586, 574.6468478916213, 45.271488963626325, 422.0589296994731, 0.01600000075995922, -0.12800000607967377, 1.0560000501573086, 0.0, 0.0, 0.0, 0.0, 0.0, 1.7103872157876277E9, 0.0, 2024-03-13 20:33:35.787
17.0, -318.35524382814765, 666.5623691026121, -171.41270461911336, 510.5711419507861, 0.01600000075995922, -0.12800000607967377, 1.0560000501573086, 0.0, 0.0, 0.0, 0.0, 0.0, 1.7103872157880764E9, 0.0, 2024-03-13 20:33:35.788
17.0, -147.75596744939685, 773.6431846339256, 29.20300880400464, 557.2563130976632, 0.01600000075995922, -0.12800000607967377, 1.0560000501573086, 0.0, 0.0, 0.0, 0.0, 0.0, 1.7103872157880764E9, 0.0, 2024-03-13 20:33:35.788
18.0, -66.88250085758045, 621.4142968375236, 121.66642535850406, 442.6882178550586, 0.01600000075995922, -0.12800000607967377, 1.0560000501573086, 0.0, 0.0, 0.0, 0.0, 0.0, 1.7103872158024137E9, 0.0, 2024-03-13 20:33:35.802
18.0, 4.007302802521735, 414.6520578372292, 159.25241991318762, 267.41593648167327, 0.01600000075995922, -0.12800000607967377, 1.0560000501573086, 0.0, 0.0, 0.0, 0.0, 0.0, 1.7103872158024137E9, 0.0, 2024-03-13 20:33:35.802
19.0, -92.01649850979447, 406.9684333782643, 58.64724115515128, 203.19624439254403, 0.01600000075995922, -0.12800000607967377, 1.0560000501573086, 0.0, 0.0, 0.0, 0.0, 0.0, 1.7103872158030744E9, 0.0, 2024-03-13 20:33:35.803
19.0, 64.99011148000136, 321.68375478871167, 270.29752939753234, 120.30884167458862, 0.01600000075995922, -0.12800000607967377, 1.0560000501573086, 0.0, 0.0, 0.0, 0.0, 0.0, 1.7103872158030744E9, 0.0, 2024-03-13 20:33:35.803
20.0, -108.9937743586488, 188.00851067248732, 50.84393989760429, 47.75852243416011, 0.01600000075995922, -0.12800000607967377, 1.0560000501573086, 0.0, 0.0, 0.0, 0.0, 0.0, 1.7103872158167715E9, 0.0, 2024-03-13 20:33:35.816
20.0, -182.0097111435607, 357.5045165643096, -27.57615232327953, 174.5972294313833, 0.01600000075995922, -0.12800000607967377, 1.0560000501573086, 0.0, 0.0, 0.0, 0.0, 0.0, 1.7103872158167715E9, 0.0, 2024-03-13 20:33:35.816
21.0, -265.95924544893205, 561.1401992016472, -76.3893265449442, 340.9535893104039, 0.01600000075995922, -0.12800000607967377, 1.0560000501573086, 0.0, 0.0, 0.0, 0.0, 0.0, 1.7103872158323205E9, 0.0, 2024-03-13 20:33:35.832
21.0, -144.32086934009567, 572.3094104193151, 35.06156208459288, 411.4525734251365, 0.01600000075995922, -0.12800000607967377, 1.0560000501573086, 0.0, 0.0, 0.0, 0.0, 0.0, 1.7103872158323205E9, 0.0, 2024-03-13 20:33:35.832
22.0, -316.9939202442765, 675.22397739999, -173.89599818969145, 511.26302344258875, 0.01600000075995922, -0.12800000607967377, 1.0560000501573086, 0.0, 0.0, 0.0, 0.0, 0.0, 1.710387215832902E9, 0.0, 2024-03-13 20:33:35.832
22.0, -138.37255846057087, 777.2746274909005, 29.102031505201012, 557.3946893960238, 0.01600000075995922, -0.12800000607967377, 1.0560000501573086, 0.0, 0.0, 0.0, 0.0, 0.0, 1.710387215832902E9, 0.0, 2024-03-13 20:33:35.832
23.0, -70.14369361894205, 624.8512648968026, 114.52695634309202, 443.611973144114, 0.01600000075995922, -0.12800000607967377, 1.0560000501573086, 0.0, 0.0, 0.0, 0.0, 0.0, 1.710387215846593E9, 0.0, 2024-03-13 20:33:35.846
23.0, -6.434497873764485, 422.4347896450199, 156.11838375031948, 277.0349591677077, 0.01600000075995922, -0.12800000607967377, 1.0560000501573086, 0.0, 0.0, 0.0, 0.0, 0.0, 1.710387215846593E9, 0.0, 2024-03-13 20:33:35.846
24.0, -123.98890323098749, 397.4541278909892, 44.0765909277834, 189.91585964988917, 0.01600000075995922, -0.12800000607967377, 1.0560000501573086, 0.0, 0.0, 0.0, 0.0, 0.0, 1.7103872158623242E9, 0.0, 2024-03-13 20:33:35.862
24.0, 80.64159279456362, 321.65383558906615, 263.535790277645, 114.70273164100945, 0.01600000075995922, -0.12800000607967377, 1.0560000501573086, 0.0, 0.0, 0.0, 0.0, 0.0, 1.7103872158623242E9, 0.0, 2024-03-13 20:33:35.862
25.0, -95.42541731940582, 195.17415898758918, 52.62787217646837, 49.57237391266972, 0.01600000075995922, -0.12800000607967377, 1.0560000501573086, 0.0, 0.0, 0.0, 0.0, 0.0, 1.7103872158629084E9, 0.0, 2024-03-13 20:33:35.862
25.0, -169.4922659918666, 367.01134225167334, -32.34452476678416, 175.24049222376198, 0.01600000075995922, -0.12800000607967377, 1.0560000501573086, 0.0, 0.0, 0.0, 0.0, 0.0, 1.7103872158629084E9, 0.0, 2024-03-13 20:33:35.862
26.0, -255.0873562777415, 567.8383600222878, -83.74196985783055, 345.34423185838386, 0.01600000075995922, -0.12800000607967377, 1.0560000501573086, 0.0, 0.0, 0.0, 0.0, 0.0, 1.7103872158768384E9, 0.0, 2024-03-13 20:33:35.876
26.0, -132.2671717829071, 583.3608147883788, 38.27039624657482, 421.18379310984164, 0.01600000075995922, -0.12800000607967377, 1.0560000501573086, 0.0, 0.0, 0.0, 0.0, 0.0, 1.7103872158768384E9, 0.0, 2024-03-13 20:33:35.876
27.0, -308.05555935017765, 682.9319112086669, -172.5122352060862, 520.7960284296423, 0.01600000075995922, -0.12800000607967377, 1.0560000501573086, 0.0, 0.0, 0.0, 0.0, 0.0, 1.710387215892491E9, 0.0, 2024-03-13 20:33:35.892
27.0, -128.36832607910037, 796.8679633587599, 35.93482872424647, 568.0010456703603, 0.01600000075995922, -0.12800000607967377, 1.0560000501573086, 0.0, 0.0, 0.0, 0.0, 0.0, 1.710387215892491E9, 0.0, 2024-03-13 20:33:35.892
28.0, -52.86909572361037, 639.0741044282913, 120.4995765723288, 452.34463954064995, 0.01600000075995922, -0.12800000607967377, 1.0560000501573086, 0.0, 0.0, 0.0, 0.0, 0.0, 1.7103872158930857E9, 0.0, 2024-03-13 20:33:35.893
28.0, 7.212397064547986, 433.1608227179386, 158.72883391939104, 279.35369714023545, 0.01600000075995922, -0.12800000607967377, 1.0560000501573086, 0.0, 0.0, 0.0, 0.0, 0.0, 1.7103872158930857E9, 0.0, 2024-03-13 20:33:35.893
29.0, -123.17734494060278, 408.2287796633318, 45.38929581223056, 200.40627902559936, 0.01600000075995922, -0.12800000607967377, 1.0560000501573086, 0.0, 0.0, 0.0, 0.0, 0.0, 1.7103872159067352E9, 0.0, 2024-03-13 20:33:35.906
29.0, 68.12040774291381, 323.3779294686392, 261.13851440604776, 118.760523092933, 0.01600000075995922, -0.12800000607967377, 1.0560000501573086, 0.0, 0.0, 0.0, 0.0, 0.0, 1.7103872159067352E9, 0.0, 2024-03-13 20:33:35.906
30.0, -105.87095789564773, 192.59362801816314, 52.05192758329213, 49.59107341244817, 0.01600000075995922, -0.12800000607967377, 1.0560000501573086, 0.0, 0.0, 0.0, 0.0, 0.0, 1.7103872159225256E9, 0.0, 2024-03-13 20:33:35.922
30.0, -158.50070002209395, 361.63336611539125, -27.052566329482943, 181.88255454506725, 0.01600000075995922, -0.12800000607967377, 1.0560000501573086, 0.0, 0.0, 0.0, 0.0, 0.0, 1.7103872159225256E9, 0.0, 2024-03-13 20:33:35.922
31.0, -241.3394840406254, 567.9879560205154, -72.30535579333082, 354.28633265243843, 0.01600000075995922, -0.11200000531971455, 1.0560000501573086, 0.0, 0.0, 0.0, 0.0, 0.0, 1.7103872159231367E9, 0.0, 2024-03-13 20:33:35.923
31.0, -136.63163503119722, 573.8278098013252, 37.42891875654459, 414.8334429850802, 0.01600000075995922, -0.11200000531971455, 1.0560000501573086, 0.0, 0.0, 0.0, 0.0, 0.0, 1.7103872159231367E9, 0.0, 2024-03-13 20:33:35.923
32.0, -323.4938663672656, 663.7761436356232, -183.82917247200385, 504.7256783200428, 0.01600000075995922, -0.11200000531971455, 1.0560000501573086, 0.0, 0.0, 0.0, 0.0, 0.0, 1.7103872159368389E9, 0.0, 2024-03-13 20:33:35.936
32.0, -143.52614059951156, 779.9636155590415, 24.73008845699951, 553.4528348427266, 0.01600000075995922, -0.11200000531971455, 1.0560000501573086, 0.0, 0.0, 0.0, 0.0, 0.0, 1.7103872159368389E9, 0.0, 2024-03-13 20:33:35.936
33.0, -74.33612146927044, 626.9643083717674, 114.35866084508598, 442.55732135660946, 0.01600000075995922, -0.11200000531971455, 1.0560000501573086, 0.0, 0.0, 0.0, 0.0, 0.0, 1.7103872159686568E9, 0.0, 2024-03-13 20:33:35.968
33.0, -5.45090418541804, 408.19325061375275, 146.83969196025282, 263.7321350253187, 0.01600000075995922, -0.11200000531971455, 1.0560000501573086, 0.0, 0.0, 0.0, 0.0, 0.0, 1.7103872159686568E9, 0.0, 2024-03-13 20:33:35.968
34.0, -111.62105407752097, 392.2332275528461, 42.217860649805516, 191.35572113282979, 0.01600000075995922, -0.11200000531971455, 1.0560000501573086, 0.0, 0.0, 0.0, 0.0, 0.0, 1.7103872159693575E9, 0.0, 2024-03-13 20:33:35.969
34.0, 53.142108420375735, 326.21651353500783, 269.52337010670453, 131.05357424728572, 0.01600000075995922, -0.11200000531971455, 1.0560000501573086, 0.0, 0.0, 0.0, 0.0, 0.0, 1.7103872159693575E9, 0.0, 2024-03-13 20:33:35.969
35.0, -105.32493250211701, 187.76541717536747, 45.79507495742291, 46.920784844085574, 0.01600000075995922, -0.11200000531971455, 1.0560000501573086, 0.0, 0.0, 0.0, 0.0, 0.0, 1.7103872159700584E9, 0.0, 2024-03-13 20:33:35.970
35.0, -166.16375503130257, 364.19893748499453, -30.081885293591768, 176.42230060976, 0.01600000075995922, -0.11200000531971455, 1.0560000501573086, 0.0, 0.0, 0.0, 0.0, 0.0, 1.7103872159700584E9, 0.0, 2024-03-13 20:33:35.970
36.0, -271.32600188534707, 562.0489948908798, -86.65909182326868, 340.01861432148144, 0.01600000075995922, -0.11200000531971455, 1.0560000501573086, 0.0, 0.0, 0.0, 0.0, 0.0, 1.710387215970809E9, 0.0, 2024-03-13 20:33:35.970
36.0, -146.69944571191445, 565.85808299575, 29.171219654381275, 408.92440105509013, 0.01600000075995922, -0.11200000531971455, 1.0560000501573086, 0.0, 0.0, 0.0, 0.0, 0.0, 1.710387215970809E9, 0.0, 2024-03-13 20:33:35.970
37.0, -320.98813339695334, 664.7260782243684, -182.04898009309545, 503.2409380376339, 0.01600000075995922, -0.11200000531971455, 1.0560000501573086, 0.0, 0.0, 0.0, 0.0, 0.0, 1.7103872159816747E9, 0.0, 2024-03-13 20:33:35.981
37.0, -144.04224679339677, 781.4932346409187, 31.282393179368228, 567.245585879311, 0.01600000075995922, -0.11200000531971455, 1.0560000501573086, 0.0, 0.0, 0.0, 0.0, 0.0, 1.7103872159816747E9, 0.0, 2024-03-13 20:33:35.981
38.0, -70.37930731615052, 631.9458551127464, 125.1707116169855, 454.4015845162794, 0.01600000075995922, -0.11200000531971455, 1.0560000501573086, 0.0, 0.0, 0.0, 0.0, 0.0, 1.7103872159969342E9, 0.0, 2024-03-13 20:33:35.996
38.0, 5.320007686968893, 415.49727522721514, 156.9299420407042, 275.34826428769156, 0.01600000075995922, -0.11200000531971455, 1.0560000501573086, 0.0, 0.0, 0.0, 0.0, 0.0, 1.7103872159969342E9, 0.0, 2024-03-13 20:33:35.996
39.0, -120.25274317525327, 403.53894511889666, 52.15851473202929, 203.85072688478976, 0.01600000075995922, -0.11200000531971455, 1.0560000501573086, 0.0, 0.0, 0.0, 0.0, 0.0, 1.7103872160122485E9, 0.0, 2024-03-13 20:33:36.012
39.0, 83.74196985783055, 327.64889521803707, 272.7546436684206, 126.29268160369247, 0.01600000075995922, -0.11200000531971455, 1.0560000501573086, 0.0, 0.0, 0.0, 0.0, 0.0, 1.7103872160122485E9, 0.0, 2024-03-13 20:33:36.012
40.0, -113.0702653103508, 185.8692878978327, 57.48226231895387, 49.41155821457505, 0.01600000075995922, -0.11200000531971455, 1.0560000501573086, 0.0, 0.0, 0.0, 0.0, 0.0, 1.7103872160129385E9, 0.0, 2024-03-13 20:33:36.012
40.0, -166.3432702291757, 358.6788451503962, -21.341739097144455, 180.4239935623482, 0.01600000075995922, -0.11200000531971455, 1.0560000501573086, 0.0, 0.0, 0.0, 0.0, 0.0, 1.7103872160129385E9, 0.0, 2024-03-13 20:33:36.012
41.0, -255.7119195703417, 567.9318575211801, -68.902046833653, 356.8855631216429, 0.01600000075995922, -0.11200000531971455, 1.0560000501573086, 0.0, 0.0, 0.0, 0.0, 0.0, 1.7103872160265343E9, 0.0, 2024-03-13 20:33:36.026
41.0, -144.65746033610776, 574.2878174958751, 41.78590220492333, 420.03190392348915, 0.01600000075995922, -0.11200000531971455, 1.0560000501573086, 0.0, 0.0, 0.0, 0.0, 0.0, 1.7103872160265343E9, 0.0, 2024-03-13 20:33:36.026
42.0, -315.23990716505796, 665.8368285112083, -168.61151955230162, 515.6125270910561, 0.01600000075995922, -0.11200000531971455, 1.0560000501573086, 0.0, 0.0, 0.0, 0.0, 0.0, 1.7103872160422204E9, 0.0, 2024-03-13 20:33:36.042
42.0, -137.12717177532613, 788.3372515598312, 40.08985757501796, 572.672180715017, 0.01600000075995922, -0.11200000531971455, 1.0560000501573086, 0.0, 0.0, 0.0, 0.0, 0.0, 1.7103872160422204E9, 0.0, 2024-03-13 20:33:36.042
43.0, -65.76053087087348, 632.5853780051693, 128.51792207732797, 453.93783692177385, 0.01600000075995922, -0.11200000531971455, 1.0560000501573086, 0.0, 0.0, 0.0, 0.0, 0.0, 1.7103872160429392E9, 0.0, 2024-03-13 20:33:36.042
43.0, 5.121792989317328, 414.97368923341855, 154.8168985657394, 275.6736355838366, 0.01600000075995922, -0.11200000531971455, 1.0560000501573086, 0.0, 0.0, 0.0, 0.0, 0.0, 1.7103872160429392E9, 0.0, 2024-03-13 20:33:36.042
44.0, -108.10180821921676, 402.8994222264737, 48.75894567230716, 204.09008048195392, 0.01600000075995922, -0.11200000531971455, 1.0560000501573086, 0.0, 0.0, 0.0, 0.0, 0.0, 1.710387216057212E9, 0.0, 2024-03-13 20:33:36.057
44.0, 80.22272399952635, 327.39084212109447, 265.4281796552241, 122.30220835097134, 0.01600000075995922, -0.11200000531971455, 1.0560000501573086, 0.0, 0.0, 0.0, 0.0, 0.0, 1.710387216057212E9, 0.0, 2024-03-13 20:33:36.057
45.0, -136.6802537306212, 182.73151183500886, 46.00450935494155, 41.213697511702776, 0.01600000075995922, -0.11200000531971455, 1.0560000501573086, 0.0, 0.0, 0.0, 0.0, 0.0, 1.7103872160725756E9, 0.0, 2024-03-13 20:33:36.072
45.0, -187.80281617492437, 364.63650577981025, -27.93892261898145, 180.0462636668235, 0.01600000075995922, -0.11200000531971455, 1.0560000501573086, 0.0, 0.0, 0.0, 0.0, 0.0, 1.7103872160725756E9, 0.0, 2024-03-13 20:33:36.072
46.0, -261.0786760067567, 579.4170902851038, -70.49150431482121, 357.16979551827535, 0.01600000075995922, -0.11200000531971455, 1.0560000501573086, 0.0, 0.0, 0.0, 0.0, 0.0, 1.710387216073148E9, 0.0, 2024-03-13 20:33:36.073
46.0, -148.56191588984802, 575.9202838265337, 38.98471713811159, 416.83802936133, 0.01600000075995922, -0.11200000531971455, 1.0560000501573086, 0.0, 0.0, 0.0, 0.0, 0.0, 1.710387216073148E9, 0.0, 2024-03-13 20:33:36.073
47.0, -314.60786407254636, 667.1962821451016, -178.07720634015277, 507.496944187209, 0.01600000075995922, -0.11200000531971455, 1.0560000501573086, 0.0, 0.0, 0.0, 0.0, 0.0, 1.710387216086528E9, 0.0, 2024-03-13 20:33:36.086
47.0, -122.36578665021807, 791.450718272943, 30.081885293591768, 567.6083561750129, 0.01600000075995922, -0.11200000531971455, 1.0560000501573086, 0.0, 0.0, 0.0, 0.0, 0.0, 1.710387216086528E9, 0.0, 2024-03-13 20:33:36.086
48.0, -51.055244245100766, 641.8621998452581, 128.40946497861296, 456.7652012882754, 0.01600000075995922, -0.11200000531971455, 1.0560000501573086, 0.0, 0.0, 0.0, 0.0, 0.0, 1.7103872161023774E9, 0.0, 2024-03-13 20:33:36.102
48.0, 5.746356281917542, 417.7580447504297, 161.16350879054517, 271.5186067330651, 0.01600000075995922, -0.11200000531971455, 1.0560000501573086, 0.0, 0.0, 0.0, 0.0, 0.0, 1.7103872161023774E9, 0.0, 2024-03-13 20:33:36.102
49.0, -114.47833764366806, 400.89296590024605, 47.19940739078447, 192.36923402082175, 0.01600000075995922, -0.11200000531971455, 1.0560000501573086, 0.0, 0.0, 0.0, 0.0, 0.0, 1.7103872161029737E9, 0.0, 2024-03-13 20:33:36.102
49.0, 82.85935346828774, 333.74680209578946, 269.85622120276093, 121.65520565863699, 0.01600000075995922, -0.11200000531971455, 1.0560000501573086, 0.0, 0.0, 0.0, 0.0, 0.0, 1.7103872161029737E9, 0.0, 2024-03-13 20:33:36.102
50.0, -112.17268932098523, 187.87200432410464, 49.654651711694896, 41.89809920359403, 0.01600000075995922, -0.11200000531971455, 1.0560000501573086, 0.0, 0.0, 0.0, 0.0, 0.0, 1.710387216116779E9, 0.0, 2024-03-13 20:33:36.116
50.0, -177.87712169252336, 353.42989556258544, -30.38107729004696, 168.91258149873465, 0.01600000075995922, -0.11200000531971455, 1.0560000501573086, 0.0, 0.0, 0.0, 0.0, 0.0, 1.710387216116779E9, 0.0, 2024-03-13 20:33:36.116
51.0, -258.32984953932464, 570.3310033427551, -75.70492485305294, 349.8882103045471, 0.01600000075995922, -0.12800000607967377, 1.0560000501573086, 0.0, 0.0, 0.0, 0.0, 0.0, 1.7103872161323576E9, 0.0, 2024-03-13 20:33:36.132
51.0, -146.69944571191445, 572.2514419700019, 38.053482049144804, 411.94998011924326, 0.01600000075995922, -0.12800000607967377, 1.0560000501573086, 0.0, 0.0, 0.0, 0.0, 0.0, 1.7103872161323576E9, 0.0, 2024-03-13 20:33:36.132
52.0, -311.2569137122482, 658.6431309464388, -184.69308936176822, 497.51515120547265, 0.01600000075995922, -0.12800000607967377, 1.0560000501573086, 0.0, 0.0, 0.0, 0.0, 0.0, 1.710387216132996E9, 0.0, 2024-03-13 20:33:36.132
52.0, -133.29377432074398, 784.516943755094, 27.486394724342972, 564.5790372109041, 0.01600000075995922, -0.12800000607967377, 1.0560000501573086, 0.0, 0.0, 0.0, 0.0, 0.0, 1.710387216132996E9, 0.0, 2024-03-13 20:33:36.132
53.0, -87.07048081839457, 637.6847315947525, 125.97105020750314, 451.9968288447708, 0.01600000075995922, -0.12800000607967377, 1.0560000501573086, 0.0, 0.0, 0.0, 0.0, 0.0, 1.710387216146702E9, 0.0, 2024-03-13 20:33:36.146
53.0, -13.947956884745508, 403.7483795164153, 150.28413981944323, 261.30493995407596, 0.01600000075995922, -0.12800000607967377, 1.0560000501573086, 0.0, 0.0, 0.0, 0.0, 0.0, 1.710387216146702E9, 0.0, 2024-03-13 20:33:36.146
54.0, -136.9214772777632, 399.651319114957, 44.693674420472234, 193.40518630854785, 0.01600000075995922, -0.12800000607967377, 1.0560000501573086, 0.0, 0.0, 0.0, 0.0, 0.0, 1.7103872161624064E9, 0.0, 2024-03-13 20:33:36.162
54.0, 64.65352048398927, 331.7758748191409, 267.3841473320499, 127.38473239075392, 0.01600000075995922, -0.12800000607967377, 1.0560000501573086, 0.0, 0.0, 0.0, 0.0, 0.0, 1.7103872161624064E9, 0.0, 2024-03-13 20:33:36.162
55.0, -103.3614850253798, 193.60527095617726, 53.0990995708853, 50.81028079800308, 0.01600000075995922, -0.12800000607967377, 1.0560000501573086, 0.0, 0.0, 0.0, 0.0, 0.0, 1.7103872161630487E9, 0.0, 2024-03-13 20:33:36.163
55.0, -155.56487855687737, 376.6471944875084, -15.08862637123093, 188.02347027231008, 0.01600000075995922, -0.12800000607967377, 1.0560000501573086, 0.0, 0.0, 0.0, 0.0, 0.0, 1.7103872161630487E9, 0.0, 2024-03-13 20:33:36.163
56.0, -243.27301231771708, 581.3375289123505, -62.98552510375157, 361.1939278705977, 0.01600000075995922, -0.12800000607967377, 1.0560000501573086, 0.0, 0.0, 0.0, 0.0, 0.0, 1.7103872161765385E9, 0.0, 2024-03-13 20:33:36.176
56.0, -131.7473256890662, 578.6074019446969, 47.291034939698875, 419.8299493258819, 0.01600000075995922, -0.12800000607967377, 1.0560000501573086, 0.0, 0.0, 0.0, 0.0, 0.0, 1.7103872161765385E9, 0.0, 2024-03-13 20:33:36.176
57.0, -319.72404721193016, 666.3903337046504, -174.66641758056358, 504.9874713169411, 0.01600000075995922, -0.12800000607967377, 1.0560000501573086, 0.0, 0.0, 0.0, 0.0, 0.0, 1.7103872161925445E9, 0.0, 2024-03-13 20:33:36.192
57.0, -131.49488244205713, 792.6269168090075, 37.52428620541468, 568.6704877624288, 0.01600000075995922, -0.12800000607967377, 1.0560000501573086, 0.0, 0.0, 0.0, 0.0, 0.0, 1.7103872161925445E9, 0.0, 2024-03-13 20:33:36.192
58.0, -56.12654858501628, 639.7884253198281, 131.10967274662107, 451.174050854519, 0.01600000075995922, -0.12800000607967377, 1.0560000501573086, 0.0, 0.0, 0.0, 0.0, 0.0, 1.7103872161930575E9, 0.0, 2024-03-13 20:33:36.193
58.0, 2.690858018118888, 404.64408555580303, 154.1885953731835, 260.0969522683881, 0.01600000075995922, -0.12800000607967377, 1.0560000501573086, 0.0, 0.0, 0.0, 0.0, 0.0, 1.7103872161930575E9, 0.0, 2024-03-13 20:33:36.193
59.0, -114.35866084508598, 397.0389989959076, 46.249472802039236, 189.76252375170588, 0.01600000075995922, -0.12800000607967377, 1.0560000501573086, 0.0, 0.0, 0.0, 0.0, 0.0, 1.7103872162066565E9, 0.0, 2024-03-13 20:33:36.206
59.0, 76.35940734529868, 332.42848736140877, 274.56101534701884, 123.70093093439937, 0.01600000075995922, -0.12800000607967377, 1.0560000501573086, 0.0, 0.0, 0.0, 0.0, 0.0, 1.7103872162066565E9, 0.0, 2024-03-13 20:33:36.206
60.0, -125.16510176705196, 181.03359725512564, 52.02948818355799, 40.27498262282461, 0.01600000075995922, -0.12800000607967377, 1.0560000501573086, 0.0, 0.0, 0.0, 0.0, 0.0, 1.7103872162225132E9, 0.0, 2024-03-13 20:33:36.222
60.0, -177.25629829987884, 356.7939355727285, -22.628264681901783, 178.086556090042, 0.01600000075995922, -0.12800000607967377, 1.0560000501573086, 0.0, 0.0, 0.0, 0.0, 0.0, 1.7103872162225132E9, 0.0, 2024-03-13 20:33:36.222
61.0, -253.28846439905465, 578.2764207986183, -63.92050009267405, 365.2330198227428, 0.01600000075995922, -0.11200000531971455, 1.0560000501573086, 0.0, 0.0, 0.0, 0.0, 0.0, 1.7103872162229643E9, 0.0, 2024-03-13 20:33:36.222
61.0, -134.077283361461, 584.9091333700344, 52.553074177354574, 429.175959315151, 0.01600000075995922, -0.11200000531971455, 1.0560000501573086, 0.0, 0.0, 0.0, 0.0, 0.0, 1.7103872162229643E9, 0.0, 2024-03-13 20:33:36.222
62.0, -324.8177909515798, 662.8187292469665, -177.60223904578015, 506.10944130364805, 0.01600000075995922, -0.11200000531971455, 1.0560000501573086, 0.0, 0.0, 0.0, 0.0, 0.0, 1.7103872162366712E9, 0.0, 2024-03-13 20:33:36.236
62.0, -133.71264311578125, 797.4252084521577, 39.809365078341216, 572.5375443166122, 0.01600000075995922, -0.11200000531971455, 1.0560000501573086, 0.0, 0.0, 0.0, 0.0, 0.0, 1.7103872162366712E9, 0.0, 2024-03-13 20:33:36.236
63.0, -57.62250856729224, 645.9929193463176, 135.67235069256276, 458.9904417619109, 0.01600000075995922, -0.11200000531971455, 1.0560000501573086, 0.0, 0.0, 0.0, 0.0, 0.0, 1.7103872162523167E9, 0.0, 2024-03-13 20:33:36.252
63.0, 34.2930126436986, 413.1373983551748, 158.4483414227143, 265.6320042028092, 0.01600000075995922, -0.11200000531971455, 1.0560000501573086, 0.0, 0.0, 0.0, 0.0, 0.0, 1.7103872162523167E9, 0.0, 2024-03-13 20:33:36.252
64.0, -86.62730267364532, 410.7943510329351, 54.739045701455325, 203.79462838545442, 0.01600000075995922, -0.11200000531971455, 1.0560000501573086, 0.0, 0.0, 0.0, 0.0, 0.0, 1.710387216252931E9, 0.0, 2024-03-13 20:33:36.252
64.0, 74.0144900730811, 336.88270820863545, 276.78625582065433, 133.34613292012364, 0.01600000075995922, -0.11200000531971455, 1.0560000501573086, 0.0, 0.0, 0.0, 0.0, 0.0, 1.710387216252931E9, 0.0, 2024-03-13 20:33:36.252
65.0, -115.16460928553715, 187.47744487877935, 61.68964976910502, 48.00909573119134, 0.01600000075995922, -0.11200000531971455, 1.0560000501573086, 0.0, 0.0, 0.0, 0.0, 0.0, 1.7103872162665257E9, 0.0, 2024-03-13 20:33:36.266
65.0, -174.47007283288985, 362.070934410207, -19.86073871469125, 181.7516580466181, 0.01600000075995922, -0.11200000531971455, 1.0560000501573086, 0.0, 0.0, 0.0, 0.0, 0.0, 1.7103872162665257E9, 0.0, 2024-03-13 20:33:36.266
66.0, -256.830149657093, 578.2951202983968, -65.76427077082917, 361.5230390666984, 0.01600000075995922, -0.11200000531971455, 1.0560000501573086, 0.0, 0.0, 0.0, 0.0, 0.0, 1.7103872162823503E9, 0.0, 2024-03-13 20:33:36.282
66.0, -134.91876085149124, 573.7474019522779, 42.60494029521942, 419.06700973492116, 0.01600000075995922, -0.11200000531971455, 1.0560000501573086, 0.0, 0.0, 0.0, 0.0, 0.0, 1.7103872162823503E9, 0.0, 2024-03-13 20:33:36.282
67.0, -317.2332738414407, 656.5188677716069, -184.39015746535733, 499.6431542802602, 0.01600000075995922, -0.11200000531971455, 1.0560000501573086, 0.0, 0.0, 0.0, 0.0, 0.0, 1.7103872162829275E9, 0.0, 2024-03-13 20:33:36.282
67.0, -129.29956116806716, 790.7588367811404, 33.20470175659284, 569.1903338562697, 0.01600000075995922, -0.11200000531971455, 1.0560000501573086, 0.0, 0.0, 0.0, 0.0, 0.0, 1.7103872162829275E9, 0.0, 2024-03-13 20:33:36.282
68.0, -55.65158129064366, 638.9413379798643, 129.62493246421218, 454.0275945207104, 0.01600000075995922, -0.11200000531971455, 1.0560000501573086, 0.0, 0.0, 0.0, 0.0, 0.0, 1.7103872162965653E9, 0.0, 2024-03-13 20:33:36.296
68.0, 3.577214307617396, 407.1853475756943, 148.67598283849657, 256.30843361327425, 0.01600000075995922, -0.11200000531971455, 1.0560000501573086, 0.0, 0.0, 0.0, 0.0, 0.0, 1.7103872162965653E9, 0.0, 2024-03-13 20:33:36.296
69.0, -114.13800674770027, 400.18986470857635, 45.98393990518525, 196.80475536826998, 0.01600000075995922, -0.11200000531971455, 1.0560000501573086, 0.0, 0.0, 0.0, 0.0, 0.0, 1.7103872163124251E9, 0.0, 2024-03-13 20:33:36.312
69.0, 67.00965745607391, 334.78275438351557, 274.51239664759487, 131.81651383824646, 0.01600000075995922, -0.11200000531971455, 1.0560000501573086, 0.0, 0.0, 0.0, 0.0, 0.0, 1.7103872163124251E9, 0.0, 2024-03-13 20:33:36.312
70.0, -126.08511715615168, 180.65025750966743, 50.02864170726389, 37.649572853930295, 0.01600000075995922, -0.11200000531971455, 1.0560000501573086, 0.0, 0.0, 0.0, 0.0, 0.0, 1.7103872163131597E9, 0.0, 2024-03-13 20:33:36.313
70.0, -176.80003050528467, 350.7109882947989, -36.80248551396653, 166.77335872408003, 0.01600000075995922, -0.11200000531971455, 1.0560000501573086, 0.0, 0.0, 0.0, 0.0, 0.0, 1.7103872163131597E9, 0.0, 2024-03-13 20:33:36.313
71.0, -257.10316235385835, 575.0731964865699, -72.03234309656546, 355.93936843285337, 0.01600000075995922, -0.11200000531971455, 1.0560000501573086, 0.0, 0.0, 0.0, 0.0, 0.0, 1.710387216326718E9, 0.0, 2024-03-13 20:33:36.326
71.0, -151.96148494957015, 572.395428118296, 39.15301263611764, 406.381269085221, 0.01600000075995922, -0.11200000531971455, 1.0560000501573086, 0.0, 0.0, 0.0, 0.0, 0.0, 1.710387216326718E9, 0.0, 2024-03-13 20:33:36.326
72.0, -326.77001872844994, 658.9628923926502, -181.42815670045093, 498.66330049186945, 0.01600000075995922, -0.11200000531971455, 1.0560000501573086, 0.0, 0.0, 0.0, 0.0, 0.0, 1.7103872163426287E9, 0.0, 2024-03-13 20:33:36.342
72.0, -124.30305482726544, 792.1182904150337, 37.74494030280039, 570.6002761395648, 0.01600000075995922, -0.11200000531971455, 1.0560000501573086, 0.0, 0.0, 0.0, 0.0, 0.0, 1.7103872163426287E9, 0.0, 2024-03-13 20:33:36.342
73.0, -58.11243546148762, 645.3272171542048, 132.99458232428879, 455.2206226065755, 0.01600000075995922, -0.11200000531971455, 1.0560000501573086, 0.0, 0.0, 0.0, 0.0, 0.0, 1.7103872163429623E9, 0.0, 2024-03-13 20:33:36.342
73.0, -19.385771420318633, 408.4700032104738, 152.7786530898884, 259.85759867122397, 0.01600000075995922, -0.11200000531971455, 1.0560000501573086, 0.0, 0.0, 0.0, 0.0, 0.0, 1.7103872163429623E9, 0.0, 2024-03-13 20:33:36.342
74.0, -112.0885415719822, 410.64662498468533, 52.45770672848448, 202.19395120441914, 0.01600000075995922, -0.11200000531971455, 1.0560000501573086, 0.0, 0.0, 0.0, 0.0, 0.0, 1.7103872163569756E9, 0.0, 2024-03-13 20:33:36.356
74.0, 81.0193226900883, 336.2600148660131, 268.6033547176048, 122.01423605438322, 0.01600000075995922, -0.11200000531971455, 1.0560000501573086, 0.0, 0.0, 0.0, 0.0, 0.0, 1.7103872163569756E9, 0.0, 2024-03-13 20:33:36.356
75.0, -108.78060006117448, 182.45662918826565, 43.210804088041186, 35.633766777813435, 0.01600000075995922, -0.11200000531971455, 1.0560000501573086, 0.0, 0.0, 0.0, 0.0, 0.0, 1.7103872163726633E9, 0.0, 2024-03-13 20:33:36.372
75.0, -169.27535179443657, 358.4114423035644, -33.27201995579526, 173.4939589444548, 0.01600000075995922, -0.11200000531971455, 1.0560000501573086, 0.0, 0.0, 0.0, 0.0, 0.0, 1.7103872163726633E9, 0.0, 2024-03-13 20:33:36.372
76.0, -250.83882992807776, 586.4275327520445, -65.86150816967711, 360.1804149826057, 0.01600000075995922, -0.11200000531971455, 1.0560000501573086, 0.0, 0.0, 0.0, 0.0, 0.0, 1.71038721637293E9, 0.0, 2024-03-13 20:33:36.372
76.0, -139.1934665008448, 579.4339198349044, 44.23179677594453, 416.8679485609755, 0.01600000075995922, -0.11200000531971455, 1.0560000501573086, 0.0, 0.0, 0.0, 0.0, 0.0, 1.71038721637293E9, 0.0, 2024-03-13 20:33:36.372
77.0, -321.38830269221216, 664.3146892292425, -178.67185043310747, 505.5708957100287, 0.01600000075995922, -0.11200000531971455, 1.0560000501573086, 0.0, 0.0, 0.0, 0.0, 0.0, 1.7103872163865614E9, 0.0, 2024-03-13 20:33:36.386
77.0, -133.66776431631297, 795.6936347726732, 36.79126581409946, 576.8272095657885, 0.01600000075995922, -0.11200000531971455, 1.0560000501573086, 0.0, 0.0, 0.0, 0.0, 0.0, 1.7103872163865614E9, 0.0, 2024-03-13 20:33:36.386
78.0, -60.99963822728023, 639.1077635278925, 136.14731798693538, 462.83505891636014, 0.01600000075995922, -0.11200000531971455, 1.0560000501573086, 0.0, 0.0, 0.0, 0.0, 0.0, 1.710387216402278E9, 0.0, 2024-03-13 20:33:36.402
78.0, -3.225663711782545, 409.82384699443355, 156.52603284548968, 265.08597880927846, 0.01600000075995922, -0.11200000531971455, 1.0560000501573086, 0.0, 0.0, 0.0, 0.0, 0.0, 1.710387216402278E9, 0.0, 2024-03-13 20:33:36.402
79.0, -92.46154660452157, 415.2803610297851, 57.64494796702638, 209.49049601797014, 0.01600000075995922, -0.11200000531971455, 1.0560000501573086, 0.0, 0.0, 0.0, 0.0, 0.0, 1.7103872164030328E9, 0.0, 2024-03-13 20:33:36.403
79.0, 73.943431973923, 342.1054784967564, 276.58804112300277, 134.37834530789405, 0.01600000075995922, -0.11200000531971455, 1.0560000501573086, 0.0, 0.0, 0.0, 0.0, 0.0, 1.7103872164030328E9, 0.0, 2024-03-13 20:33:36.403
80.0, -140.83528258139268, 181.67872999748215, 45.301408163271844, 35.659946077503264, 0.01600000075995922, -0.11200000531971455, 1.0560000501573086, 0.0, 0.0, 0.0, 0.0, 0.0, 1.7103872164166524E9, 0.0, 2024-03-13 20:33:36.416
80.0, -185.72343179956079, 356.72474742354825, -32.8494112608023, 172.01669846195728, 0.01600000075995922, -0.11200000531971455, 1.0560000501573086, 0.0, 0.0, 0.0, 0.0, 0.0, 1.7103872164166524E9, 0.0, 2024-03-13 20:33:36.416
81.0, -238.42610197514296, 584.636120673269, -60.92110032821074, 367.570457295049, 0.01600000075995922, -0.11200000531971455, 1.0560000501573086, 0.0, 0.0, 0.0, 0.0, 0.0, 1.7103872164323125E9, 0.0, 2024-03-13 20:33:36.432
81.0, -130.51689860364422, 577.3919344590977, 47.238676340319216, 420.058083223179, 0.01600000075995922, -0.11200000531971455, 1.0560000501573086, 0.0, 0.0, 0.0, 0.0, 0.0, 1.7103872164323125E9, 0.0, 2024-03-13 20:33:36.432
82.0, -323.1198763716966, 660.256897777319, -176.98515555309132, 500.9857783643529, 0.01600000075995922, -0.11200000531971455, 1.0560000501573086, 0.0, 0.0, 0.0, 0.0, 0.0, 1.7103872164328957E9, 0.0, 2024-03-13 20:33:36.432
82.0, -130.20461695734411, 795.9479479696602, 43.66146203270182, 578.0613765511662, 0.01600000075995922, -0.11200000531971455, 1.0560000501573086, 0.0, 0.0, 0.0, 0.0, 0.0, 1.7103872164328957E9, 0.0, 2024-03-13 20:33:36.432
83.0, -56.24248548364267, 646.5875634392723, 137.23562887404114, 462.8425387162715, 0.01600000075995922, -0.11200000531971455, 1.0560000501573086, 0.0, 0.0, 0.0, 0.0, 0.0, 1.7103872164465628E9, 0.0, 2024-03-13 20:33:36.446
83.0, 6.9431242677383125, 409.30400090059265, 162.24433987773955, 261.738768348936, 0.01600000075995922, -0.11200000531971455, 1.0560000501573086, 0.0, 0.0, 0.0, 0.0, 0.0, 1.7103872164465628E9, 0.0, 2024-03-13 20:33:36.446
84.0, -107.85497482214123, 407.4807996721938, 55.83483638847247, 204.34065377898514, 0.01600000075995922, -0.11200000531971455, 1.0560000501573086, 0.0, 0.0, 0.0, 0.0, 0.0, 1.7103872164624677E9, 0.0, 2024-03-13 20:33:36.462
84.0, 86.34868012694642, 341.1985527575016, 285.0626544225961, 139.82363964337856, 0.01600000075995922, -0.11200000531971455, 1.0560000501573086, 0.0, 0.0, 0.0, 0.0, 0.0, 1.7103872164624677E9, 0.0, 2024-03-13 20:33:36.462
85.0, -118.68385514384136, 181.8601151453331, 56.46126963105053, 46.18028465285897, 0.01600000075995922, -0.11200000531971455, 1.0560000501573086, 0.0, 0.0, 0.0, 0.0, 0.0, 1.710387216462921E9, 0.0, 2024-03-13 20:33:36.462
85.0, -202.51932250056416, 349.8975600544363, -27.265740626957268, 176.5606769081205, 0.01600000075995922, -0.11200000531971455, 1.0560000501573086, 0.0, 0.0, 0.0, 0.0, 0.0, 1.710387216462921E9, 0.0, 2024-03-13 20:33:36.462
86.0, -258.2326121404767, 592.0953511348926, -54.59692950313911, 379.40724065480754, 0.01600000075995922, -0.11200000531971455, 1.0560000501573086, 0.0, 0.0, 0.0, 0.0, 0.0, 1.710387216476551E9, 0.0, 2024-03-13 20:33:36.476
86.0, -123.75889938371256, 588.7556204744615, 55.9900422366336, 432.66528597380966, 0.01600000075995922, -0.11200000531971455, 1.0560000501573086, 0.0, 0.0, 0.0, 0.0, 0.0, 1.710387216476551E9, 0.0, 2024-03-13 20:33:36.476
87.0, -307.4085566578433, 669.8703106134199, -166.01228908309713, 514.7897491008043, 0.01600000075995922, -0.11200000531971455, 1.0560000501573086, 0.0, 0.0, 0.0, 0.0, 0.0, 1.7103872164923084E9, 0.0, 2024-03-13 20:33:36.492
87.0, -124.43395132571459, 811.7209760327823, 57.0091649745591, 597.131126425229, 0.01600000075995922, -0.11200000531971455, 1.0560000501573086, 0.0, 0.0, 0.0, 0.0, 0.0, 1.7103872164923084E9, 0.0, 2024-03-13 20:33:36.492
88.0, -55.73759898962453, 661.4592756130733, 153.39947648253292, 482.55181148275733, 0.01600000075995922, -0.11200000531971455, 1.0560000501573086, 0.0, 0.0, 0.0, 0.0, 0.0, 1.7103872164928937E9, 0.0, 2024-03-13 20:33:36.492
88.0, -4.1643786006607115, 902.7875399538316, 174.44763343315572, 278.87125004595146, 0.01600000075995922, -0.11200000531971455, 1.0560000501573086, 0.0, 0.0, 0.0, 0.0, 0.0, 1.7103872164928937E9, 0.0, 2024-03-13 20:33:36.492
89.0, -111.24706408195198, 909.3398446762003, 75.51418995531276, 223.86293154768646, 0.01600000075995922, -0.11200000531971455, 1.0560000501573086, 0.0, 0.0, 0.0, 0.0, 0.0, 1.7103872165070477E9, 0.0, 2024-03-13 20:33:36.507
89.0, 88.79831459792331, 849.7146196826361, 301.23024193104357, 161.35050378832966, 0.01600000075995922, -0.11200000531971455, 1.0560000501573086, 0.0, 0.0, 0.0, 0.0, 0.0, 1.7103872165070477E9, 0.0, 2024-03-13 20:33:36.507
90.0, -102.00016144150868, 685.7050470258109, 70.40735656581819, 54.76335505116731, 0.01600000075995922, -0.11200000531971455, 1.0560000501573086, 0.0, 0.0, 0.0, 0.0, 0.0, 1.7103872165222645E9, 0.0, 2024-03-13 20:33:36.522
90.0, -168.90510169882327, 857.7254853877239, -17.11191224725917, 189.56430905405432, 0.01600000075995922, -0.11200000531971455, 1.0560000501573086, 0.0, 0.0, 0.0, 0.0, 0.0, 1.7103872165222645E9, 0.0, 2024-03-13 20:33:36.522
91.0, -234.4468484222889, 1087.1066393200308, -47.62201608577743, 381.1649936339818, 0.01600000075995922, -0.11200000531971455, 1.0560000501573086, 0.0, 0.0, 0.0, 0.0, 0.0, 1.7103872165229E9, 0.0, 2024-03-13 20:33:36.522
91.0, -140.47251228569075, 1081.3322337884456, 56.27427463326603, 429.84914130717516, 0.01600000075995922, -0.11200000531971455, 1.0560000501573086, 0.0, 0.0, 0.0, 0.0, 0.0, 1.7103872165229E9, 0.0, 2024-03-13 20:33:36.522
92.0, -306.76155396550894, 1163.8793056104332, -175.2461020736955, 513.2788295187056, 0.01600000075995922, -0.11200000531971455, 1.0560000501573086, 0.0, 0.0, 0.0, 0.0, 0.0, 1.7103872165367036E9, 0.0, 2024-03-13 20:33:36.536
92.0, -123.85052693262696, 1295.6397209493443, 39.25211998494342, 579.5909956330433, 0.01600000075995922, -0.11200000531971455, 1.0560000501573086, 0.0, 0.0, 0.0, 0.0, 0.0, 1.7103872165367036E9, 0.0, 2024-03-13 20:33:36.536
93.0, -49.83229695959017, 1137.468132123351, 141.2485415264964, 466.515120472759, 0.01600000075995922, -0.11200000531971455, 1.0560000501573086, 0.0, 0.0, 0.0, 0.0, 0.0, 1.710387216552334E9, 0.0, 2024-03-13 20:33:36.552
93.0, -5.963270479347557, 894.2493483549915, 156.52603284548968, 260.75143476063386, 0.01600000075995922, -0.11200000531971455, 1.0560000501573086, 0.0, 0.0, 0.0, 0.0, 0.0, 1.710387216552334E9, 0.0, 2024-03-13 20:33:36.552
94.0, -115.58160813059658, 896.7775207250379, 55.87597528798506, 207.4672101419419, 0.01600000075995922, -0.11200000531971455, 1.0560000501573086, 0.0, 0.0, 0.0, 0.0, 0.0, 1.7103872165529077E9, 0.0, 2024-03-13 20:33:36.552
94.0, 94.16133113438264, 847.930687403772, 295.9270637938753, 151.4472487056628, 0.01600000075995922, -0.11200000531971455, 1.0560000501573086, 0.0, 0.0, 0.0, 0.0, 0.0, 1.7103872165529077E9, 0.0, 2024-03-13 20:33:36.552
95.0, -111.24519413197413, 675.2333271498792, 59.329772897064686, 42.97893029078841, 0.01600000075995922, -0.11200000531971455, 1.0560000501573086, 0.0, 0.0, 0.0, 0.0, 0.0, 1.7103872165665748E9, 0.0, 2024-03-13 20:33:36.566
95.0, -180.02382426708937, 852.7813376463018, -22.848918779287487, 183.14664073009044, 0.01600000075995922, -0.11200000531971455, 1.0560000501573086, 0.0, 0.0, 0.0, 0.0, 0.0, 1.7103872165665748E9, 0.0, 2024-03-13 20:33:36.566
96.0, -245.70020738895983, 1082.9815296689048, -52.55868402728811, 378.3002302679233, 0.01600000075995922, -0.11200000531971455, 1.0560000501573086, 0.0, 0.0, 0.0, 0.0, 0.0, 1.710387216582337E9, 0.0, 2024-03-13 20:33:36.582
96.0, -137.7461252179928, 1071.1559660090134, 56.6931434283033, 423.0948819871992, 0.01600000075995922, -0.11200000531971455, 1.0560000501573086, 0.0, 0.0, 0.0, 0.0, 0.0, 1.710387216582337E9, 0.0, 2024-03-13 20:33:36.582
97.0, -335.3044704273343, 1134.9923183526844, -179.68910322105512, 493.3489026548341, 0.01600000075995922, -0.11200000531971455, 1.0560000501573086, 0.0, 0.0, 0.0, 0.0, 0.0, 1.710387216582885E9, 0.0, 2024-03-13 20:33:36.582
97.0, -146.09545186907053, 1275.4741803882644, 32.50160056492314, 571.6811072267592, 0.01600000075995922, -0.11200000531971455, 1.0560000501573086, 0.0, 0.0, 0.0, 0.0, 0.0, 1.710387216582885E9, 0.0, 2024-03-13 20:33:36.582
98.0, -61.74013841850683, 1135.3289093486965, 138.33889936096966, 459.2559746587649, 0.01600000075995922, -0.11200000531971455, 1.0560000501573086, 0.0, 0.0, 0.0, 0.0, 0.0, 1.7103872165965362E9, 0.0, 2024-03-13 20:33:36.596
98.0, -11.980769508052617, 1373.8784280223772, 153.68370887916535, 254.9209307297133, 0.01600000075995922, -0.11200000531971455, 1.0560000501573086, 0.0, 0.0, 0.0, 0.0, 0.0, 1.7103872165965362E9, 0.0, 2024-03-13 20:33:36.596
99.0, -100.58086940832436, 1395.1584587702528, 58.45650625741109, 218.49617511127144, 0.01600000075995922, -0.11200000531971455, 1.0560000501573086, 0.0, 0.0, 0.0, 0.0, 0.0, 1.710387216612301E9, 0.0, 2024-03-13 20:33:36.612
99.0, 65.95874556852505, 1330.7947805328295, 291.94033044110984, 144.78648688457906, 0.01600000075995922, -0.11200000531971455, 1.0560000501573086, 0.0, 0.0, 0.0, 0.0, 0.0, 1.710387216612301E9, 0.0, 2024-03-13 20:33:36.612
100.0, -143.8982606451027, 1158.852880069986, 47.2087571406737, 34.63521348964423, 0.01600000075995922, -0.11200000531971455, 1.0560000501573086, 0.0, 0.0, 0.0, 0.0, 0.0, 1.710387216612877E9, 0.0, 2024-03-13 20:33:36.612
100.0, -203.90308548416942, 1335.7725873738527, -31.24125427985564, 173.20972654782236, 0.01600000075995922, -0.11200000531971455, 1.0560000501573086, 0.0, 0.0, 0.0, 0.0, 0.0, 1.710387216612877E9, 0.0, 2024-03-13 20:33:36.612
0.0, -248.23398960893974, 102.80423993198201, -59.22505569830537, -120.30884167458862, 0.01600000075995922, -0.11200000531971455, 1.0560000501573086, 0.0, 0.0, 0.0, 0.0, 0.0, 1.710387216627361E9, 0.0, 2024-03-13 20:33:36.627
1.0, -123.74580973386765, 91.41250466695055, 47.928687882144004, -71.13476710719988, 0.01600000075995922, -0.11200000531971455, 1.0560000501573086, 0.0, 0.0, 0.0, 0.0, 0.0, 1.7103872166279876E9, 0.0, 2024-03-13 20:33:36.627
1.0, -330.48934923438355, 151.69221215276048, -193.59966110624373, -6.737429770175368, 0.01600000075995922, -0.11200000531971455, 1.0560000501573086, 0.0, 0.0, 0.0, 0.0, 0.0, 1.7103872166279876E9, 0.0, 2024-03-13 20:33:36.627
2.0, -134.61208905512467, 306.0827621235512, 33.46462480351329, 77.3130818339996, 0.01600000075995922, -0.11200000531971455, 1.0560000501573086, 0.0, 0.0, 0.0, 0.0, 0.0, 1.7103872166415296E9, 0.0, 2024-03-13 20:33:36.641
2.0, -66.74225460924208, 148.25898399343714, 131.3733356934972, -40.10855707479641, 0.01600000075995922, -0.11200000531971455, 1.0560000501573086, 0.0, 0.0, 0.0, 0.0, 0.0, 1.7103872166415296E9, 0.0, 2024-03-13 20:33:36.641
3.0, -16.635075002908707, 392.14907980384305, 146.33293551625684, -242.65592882502824, 0.01600000075995922, -0.11200000531971455, 1.0560000501573086, 0.0, 0.0, 0.0, 0.0, 0.0, 1.7103872166571975E9, 0.0, 2024-03-13 20:33:36.657
3.0, -115.01127338735387, 404.71514365496114, 52.122985682450235, -285.0084258732386, 0.01600000075995922, -0.11200000531971455, 1.0560000501573086, 0.0, 0.0, 0.0, 0.0, 0.0, 1.7103872166571975E9, 0.0, 2024-03-13 20:33:36.657
4.0, 91.70234691351652, 351.0288797910325, 290.0872100130655, -341.1031853086315, 0.01600000075995922, -0.11200000531971455, 1.0560000501573086, 0.0, 0.0, 0.0, 0.0, 0.0, 1.7103872166581688E9, 0.0, 2024-03-13 20:33:36.658
4.0, -127.8372602853924, 168.29736795602366, 50.78597144829109, -456.21730594476685, 0.01600000075995922, -0.11200000531971455, 1.0560000501573086, 0.0, 0.0, 0.0, 0.0, 0.0, 1.7103872166581688E9, 0.0, 2024-03-13 20:33:36.658
5.0, -192.83859146526083, 344.57755236746743, -33.9059329982847, -316.3600072017871, 0.01600000075995922, -0.11200000531971455, 1.0560000501573086, 0.0, 0.0, 0.0, 0.0, 0.0, 1.7103872166715949E9, 0.0, 2024-03-13 20:33:36.671
5.0, -256.82827970711514, 580.4549125228077, -63.48854164779186, -117.0551287131384, 0.01600000075995922, -0.11200000531971455, 1.0560000501573086, 0.0, 0.0, 0.0, 0.0, 0.0, 1.7103872166715949E9, 0.0, 2024-03-13 20:33:36.671
6.0, -151.53326640464365, 567.522338476032, 49.77993836021051, -73.14309338340536, 0.01600000075995922, -0.11200000531971455, 1.0560000501573086, 0.0, 0.0, 0.0, 0.0, 0.0, 1.7103872166872373E9, 0.0, 2024-03-13 20:33:36.687
6.0, -346.08847194956616, 639.7884253198281, -191.44547873176634, -3.0050096143968403, 0.01600000075995922, -0.11200000531971455, 1.0560000501573086, 0.0, 0.0, 0.0, 0.0, 0.0, 1.7103872166872373E9, 0.0, 2024-03-13 20:33:36.687
7.0, -151.25838375790045, 787.8959433650598, 38.97349743824452, 83.82798755681142, 0.01600000075995922, -0.11200000531971455, 1.0560000501573086, 0.0, 0.0, 0.0, 0.0, 0.0, 1.71038721668797E9, 0.0, 2024-03-13 20:33:36.687
7.0, -74.83165821339935, 624.9896411951631, 131.99789898609743, -38.41812229482457, 0.01600000075995922, -0.11200000531971455, 1.0560000501573086, 0.0, 0.0, 0.0, 0.0, 0.0, 1.71038721668797E9, 0.0, 2024-03-13 20:33:36.687
8.0, -30.697098836302757, 860.5696793040261, 136.6017158315517, -247.57389726676047, 0.01600000075995922, -0.11200000531971455, 1.0560000501573086, 0.0, 0.0, 0.0, 0.0, 0.0, 1.710387216701554E9, 0.0, 2024-03-13 20:33:36.701
8.0, -131.34715639380738, 882.2349197473377, 42.20851089991629, -292.58920308342203, 0.01600000075995922, -0.11200000531971455, 1.0560000501573086, 0.0, 0.0, 0.0, 0.0, 0.0, 1.710387216701554E9, 0.0, 2024-03-13 20:33:36.701
9.0, 50.29417460411787, 820.6686866767704, 271.2194147366099, -363.9689336377196, 0.01600000075995922, -0.11200000531971455, 1.0560000501573086, 0.0, 0.0, 0.0, 0.0, 0.0, 1.710387216717346E9, 0.0, 2024-03-13 20:33:36.717
9.0, -156.2604999486357, 646.0153587460518, 33.57495185220614, -476.74187690159306, 0.01600000075995922, -0.11200000531971455, 1.0560000501573086, 0.0, 0.0, 0.0, 0.0, 0.0, 1.710387216717346E9, 0.0, 2024-03-13 20:33:36.717
10.0, -215.31539019895718, 827.8492945916951, -51.741515886969864, -340.4711422161199, 0.01600000075995922, -0.11200000531971455, 1.0560000501573086, 0.0, 0.0, 0.0, 0.0, 0.0, 1.7103872167181184E9, 0.0, 2024-03-13 20:33:36.718
10.0, -260.3250861656852, 1072.6874550408684, -69.42376287747175, -126.2104038046673, 0.01600000075995922, -0.11200000531971455, 1.0560000501573086, 0.0, 0.0, 0.0, 0.0, 0.0, 1.7103872167181184E9, 0.0, 2024-03-13 20:33:36.718
11.0, -146.54423986375332, 1056.6358044310473, 35.28782603191212, -88.74969589849934, 0.01600000075995922, -0.11200000531971455, 1.0560000501573086, 0.0, 0.0, 0.0, 0.0, 0.0, 1.7103872167315292E9, 0.0, 2024-03-13 20:33:36.731
11.0, -357.65224261255935, 1124.286854729522, -195.42099238466471, -10.888718720991164, 0.01600000075995922, -0.11200000531971455, 1.0560000501573086, 0.0, 0.0, 0.0, 0.0, 0.0, 1.7103872167315292E9, 0.0, 2024-03-13 20:33:36.731
12.0, -158.6147669707425, 1275.479790238198, 31.912566321901977, 82.21235077595338, 0.01600000075995922, -0.11200000531971455, 1.0560000501573086, 0.0, 0.0, 0.0, 0.0, 0.0, 1.7103872167473123E9, 0.0, 2024-03-13 20:33:36.747
12.0, -61.5101345712319, 1118.0898405029438, 129.2976912180893, -38.86317038955167, 0.01600000075995922, -0.11200000531971455, 1.0560000501573086, 0.0, 0.0, 0.0, 0.0, 0.0, 1.7103872167473123E9, 0.0, 2024-03-13 20:33:36.747
13.0, -10.04537128098309, 1356.6318793767132, 138.47166580939665, -251.60924931894988, 0.01600000075995922, -0.11200000531971455, 1.0560000501573086, 0.0, 0.0, 0.0, 0.0, 0.0, 1.7103872167480087E9, 0.0, 2024-03-13 20:33:36.748
13.0, -109.81655234890059, 1370.7350421096198, 41.56150820758194, -296.9648860315792, 0.01600000075995922, -0.11200000531971455, 1.0560000501573086, 0.0, 0.0, 0.0, 0.0, 0.0, 1.7103872167480087E9, 0.0, 2024-03-13 20:33:36.748
14.0, 85.66240848507732, 1324.528578157071, 282.09504380775616, -349.31974551128224, 0.01600000075995922, -0.11200000531971455, 1.0560000501573086, 0.0, 0.0, 0.0, 0.0, 0.0, 1.7103872167619653E9, 0.0, 2024-03-13 20:33:36.761
14.0, -124.10484012961388, 1144.4972740900703, 41.5932973572053, -463.3941739597358, 0.01600000075995922, -0.11200000531971455, 1.0560000501573086, 0.0, 0.0, 0.0, 0.0, 0.0, 1.7103872167619653E9, 0.0, 2024-03-13 20:33:36.761
15.0, -182.82687928387895, 1319.8312638127245, -42.30200839880854, -324.00062281126156, 0.01600000075995922, -0.11200000531971455, 1.0560000501573086, 0.0, 0.0, 0.0, 0.0, 0.0, 1.710387216777302E9, 0.0, 2024-03-13 20:33:36.777
15.0, -226.606148165185, 1086.3979282784276, -54.03033465985209, -110.68607908859849, 0.01600000075995922, -0.11200000531971455, 1.0560000501573086, 0.0, 0.0, 0.0, 0.0, 0.0, 1.710387216777302E9, 0.0, 2024-03-13 20:33:36.777
16.0, -125.16697171702981, 1062.9375358563848, 46.39906880026683, -75.7236243528314, 0.01600000075995922, -0.11200000531971455, 1.0560000501573086, 0.0, 0.0, 0.0, 0.0, 0.0, 1.7103872167779927E9, 0.0, 2024-03-13 20:33:36.777
16.0, -339.00884133344516, 1121.115419567097, -197.29842216242105, -8.68217774713412, 0.01600000075995922, -0.11200000531971455, 1.0560000501573086, 0.0, 0.0, 0.0, 0.0, 0.0, 1.7103872167779927E9, 0.0, 2024-03-13 20:33:36.777
17.0, -143.96557884430513, 1280.8502865745686, 38.16941894777119, 90.02126188343391, 0.01600000075995922, -0.11200000531971455, 1.0560000501573086, 0.0, 0.0, 0.0, 0.0, 0.0, 1.710387216791756E9, 0.0, 2024-03-13 20:33:36.791
17.0, -53.42073096707463, 1131.8825915395282, 137.46189282136038, -27.669649822171777, 0.01600000075995922, -0.11200000531971455, 1.0560000501573086, 0.0, 0.0, 0.0, 0.0, 0.0, 1.710387216791756E9, 0.0, 2024-03-13 20:33:36.791
18.0, -12.244432454928756, 1358.2437762576155, 138.153774313163, -252.2674717111513, 0.01600000075995922, -0.11200000531971455, 1.0560000501573086, 0.0, 0.0, 0.0, 0.0, 0.0, 1.7103872168073308E9, 0.0, 2024-03-13 20:33:36.807
18.0, -109.27052695536986, 1382.3736107717268, 46.902085344307125, -286.17901455936953, 0.01600000075995922, -0.11200000531971455, 1.0560000501573086, 0.0, 0.0, 0.0, 0.0, 0.0, 1.7103872168073308E9, 0.0, 2024-03-13 20:33:36.807
19.0, 79.48783365823328, 1321.319743995089, 279.0769445435144, -352.3789836750366, 0.01600000075995922, -0.11200000531971455, 1.0560000501573086, 0.0, 0.0, 0.0, 0.0, 0.0, 1.710387216807996E9, 0.0, 2024-03-13 20:33:36.807
19.0, -128.4730432778597, 1145.4210293791257, 36.170442421454936, -468.8693874948658, 0.01600000075995922, -0.11200000531971455, 1.0560000501573086, 0.0, 0.0, 0.0, 0.0, 0.0, 1.710387216807996E9, 0.0, 2024-03-13 20:33:36.807
20.0, -181.59645219845697, 1321.2673853957094, -42.859253492206335, -329.11680595064536, 0.01600000075995922, -0.11200000531971455, 1.0560000501573086, 0.0, 0.0, 0.0, 0.0, 0.0, 1.7103872168215115E9, 0.0, 2024-03-13 20:33:36.821
20.0, -244.78580184979364, 1087.056150670629, -56.24435543362051, -111.89032687433064, 0.01600000075995922, -0.11200000531971455, 1.0560000501573086, 0.0, 0.0, 0.0, 0.0, 0.0, 1.7103872168215115E9, 0.0, 2024-03-13 20:33:36.821
21.0, -137.90133106615394, 1062.3840306629427, 47.64071558555588, -72.44373209169134, 0.01600000075995922, -0.11200000531971455, 1.0560000501573086, 0.0, 0.0, 0.0, 0.0, 0.0, 1.7103872168374777E9, 0.0, 2024-03-13 20:33:36.837
21.0, -330.93065742915496, 1128.2249693828635, -195.3910731850192, -5.222770288120955, 0.01600000075995922, -0.11200000531971455, 1.0560000501573086, 0.0, 0.0, 0.0, 0.0, 0.0, 1.7103872168374777E9, 0.0, 2024-03-13 20:33:36.837
22.0, -132.72717947745696, 1291.1798902521841, 43.15844548866153, 98.86612527864054, 0.01600000075995922, -0.11200000531971455, 1.0560000501573086, 0.0, 0.0, 0.0, 0.0, 0.0, 1.7103872168380215E9, 0.0, 2024-03-13 20:33:36.838
22.0, -82.04966512788087, 1134.6014988073148, 140.2742975880392, -21.88402459071949, 0.01600000075995922, -0.11200000531971455, 1.0560000501573086, 0.0, 0.0, 0.0, 0.0, 0.0, 1.7103872168380215E9, 0.0, 2024-03-13 20:33:36.838
23.0, -46.475736749358475, 1351.545615436975, 128.9648401220329, -253.96538629103452, 0.01600000075995922, -0.11200000531971455, 1.0560000501573086, 0.0, 0.0, 0.0, 0.0, 0.0, 1.7103872168515837E9, 0.0, 2024-03-13 20:33:36.851
23.0, -125.04916486842558, 1374.0560732702725, 41.273535910993814, -290.9698264026083, 0.01600000075995922, -0.11200000531971455, 1.0560000501573086, 0.0, 0.0, 0.0, 0.0, 0.0, 1.7103872168515837E9, 0.0, 2024-03-13 20:33:36.851
24.0, 93.1160290967673, 1322.3070775833912, 285.1505420715548, -347.6180910314433, 0.01600000075995922, -0.11200000531971455, 1.0560000501573086, 0.0, 0.0, 0.0, 0.0, 0.0, 1.7103872168673184E9, 0.0, 2024-03-13 20:33:36.867
24.0, -119.64313948247582, 1143.8390516978689, 49.23765286663547, -459.95346600050107, 0.01600000075995922, -0.11200000531971455, 1.0560000501573086, 0.0, 0.0, 0.0, 0.0, 0.0, 1.7103872168673184E9, 0.0, 2024-03-13 20:33:36.867
25.0, -192.78623286588117, 1322.7857847777195, -35.10270098410547, -320.74316994985566, 0.01600000075995922, -0.11200000531971455, 1.0560000501573086, 0.0, 0.0, 0.0, 0.0, 0.0, 1.710387216867981E9, 0.0, 2024-03-13 20:33:36.867
25.0, -245.00271604722366, 1085.0964430938475, -48.00535583123565, -104.48906486202031, 0.01600000075995922, -0.11200000531971455, 1.0560000501573086, 0.0, 0.0, 0.0, 0.0, 0.0, 1.710387216867981E9, 0.0, 2024-03-13 20:33:36.867
26.0, -142.69214290939271, 1061.2508409763686, 49.38724886486307, -74.06310877250507, 0.01600000075995922, -0.11200000531971455, 1.0560000501573086, 0.0, 0.0, 0.0, 0.0, 0.0, 1.7103872168817368E9, 0.0, 2024-03-13 20:33:36.881
26.0, -330.399591635447, 1125.5696404143237, -191.83816822711378, -3.2742824112065136, 0.01600000075995922, -0.11200000531971455, 1.0560000501573086, 0.0, 0.0, 0.0, 0.0, 0.0, 1.7103872168817368E9, 0.0, 2024-03-13 20:33:36.881
27.0, -155.33487470960245, 1286.7032300052233, 38.92861863877624, 91.48730266606435, 0.01600000075995922, -0.11200000531971455, 1.0560000501573086, 0.0, 0.0, 0.0, 0.0, 0.0, 1.7103872168973043E9, 0.0, 2024-03-13 20:33:36.897
27.0, -66.15883021615446, 1129.2235226710327, 138.41182741010562, -32.11265096953139, 0.01600000075995922, -0.11200000531971455, 1.0560000501573086, 0.0, 0.0, 0.0, 0.0, 0.0, 1.7103872168973043E9, 0.0, 2024-03-13 20:33:36.897
28.0, -5.609849933534861, 1355.5622679893859, 137.32725642295554, -252.03933781385422, 0.01600000075995922, -0.11200000531971455, 1.0560000501573086, 0.0, 0.0, 0.0, 0.0, 0.0, 1.7103872168979878E9, 0.0, 2024-03-13 20:33:36.897
28.0, -110.00354734668508, 1377.8146727257408, 48.19983062893152, -294.0477640661411, 0.01600000075995922, -0.11200000531971455, 1.0560000501573086, 0.0, 0.0, 0.0, 0.0, 0.0, 1.7103872168979878E9, 0.0, 2024-03-13 20:33:36.897
29.0, 83.97197370510548, 1322.3407366829924, 283.47132699145004, -352.79037267016247, 0.01600000075995922, -0.11200000531971455, 1.0560000501573086, 0.0, 0.0, 0.0, 0.0, 0.0, 1.7103872169118533E9, 0.0, 2024-03-13 20:33:36.911
29.0, -125.19689091667533, 1144.452395290602, 46.62346279760823, -464.5311035462655, 0.01600000075995922, -0.11200000531971455, 1.0560000501573086, 0.0, 0.0, 0.0, 0.0, 0.0, 1.7103872169118533E9, 0.0, 2024-03-13 20:33:36.911
30.0, -191.50718708103523, 1320.8522565006278, -36.16857247147709, -324.5728275044821, 0.01600000075995922, -0.11200000531971455, 1.0560000501573086, 0.0, 0.0, 0.0, 0.0, 0.0, 1.7103872169276493E9, 0.0, 2024-03-13 20:33:36.927
30.0, -232.41047289641574, 1078.14396907622, -52.74380907509476, -109.29483630508184, 0.01600000075995922, -0.11200000531971455, 1.0560000501573086, 0.0, 0.0, 0.0, 0.0, 0.0, 1.7103872169276493E9, 0.0, 2024-03-13 20:33:36.927
31.0, -115.47689093183726, 1056.759221129585, 53.987325810361654, -75.54410915495828, 0.01600000075995922, -0.11200000531971455, 1.0560000501573086, 0.0, 0.0, 0.0, 0.0, 0.0, 1.7103872169280524E9, 0.0, 2024-03-13 20:33:36.928
31.0, -354.39852965110913, 1117.884146005381, 295.80177714535967, -11.603039612527937, 0.01600000075995922, -0.11200000531971455, 1.0560000501573086, 0.0, 0.0, 0.0, 0.0, 0.0, 1.7103872169280524E9, 0.0, 2024-03-13 20:33:36.928
32.0, -135.19925334816799, 1292.2495016395114, 536.1801068973728, 98.3986377841793, 0.01600000075995922, -0.11200000531971455, 1.0560000501573086, 0.0, 0.0, 0.0, 0.0, 0.0, 1.710387216941692E9, 0.0, 2024-03-13 20:33:36.941
32.0, -48.60373982414603, 1139.0519797545858, 641.706993997097, -22.815259679686278, 0.01600000075995922, -0.11200000531971455, 1.0560000501573086, 0.0, 0.0, 0.0, 0.0, 0.0, 1.710387216941692E9, 0.0, 2024-03-13 20:33:36.941
33.0, -8.43347440008074, 1366.5987127586268, 639.4069555243477, -241.83315083477646, 0.01600000075995922, -0.11200000531971455, 1.0560000501573086, 0.0, 0.0, 0.0, 0.0, 0.0, 1.7103872169572835E9, 0.0, 2024-03-13 20:33:36.957
33.0, -100.54160045878962, 1391.0090397694148, 547.2801299658604, -279.9670407329686, 0.01600000075995922, -0.11200000531971455, 1.0560000501573086, 0.0, 0.0, 0.0, 0.0, 0.0, 1.7103872169572835E9, 0.0, 2024-03-13 20:33:36.957
34.0, 102.81732958182693, 1342.6147343427874, 303.37133465567604, -328.469803258311, 0.01600000075995922, -0.11200000531971455, 1.0560000501573086, 0.0, 0.0, 0.0, 0.0, 0.0, 1.7103872169579616E9, 0.0, 2024-03-13 20:33:36.957
34.0, -114.02954964898527, 1157.7514795330353, 548.1795759052038, -451.897721495945, 0.01600000075995922, -0.11200000531971455, 1.0560000501573086, 0.0, 0.0, 0.0, 0.0, 0.0, 1.7103872169579616E9, 0.0, 2024-03-13 20:33:36.957
35.0, -191.89613667642698, 1327.1240687263198, 455.87697504879907, -318.7273638737388, 0.01600000075995922, -0.11200000531971455, 1.0560000501573086, 0.0, 0.0, 0.0, 0.0, 0.0, 1.7103872169716887E9, 0.0, 2024-03-13 20:33:36.971
35.0, -251.55128086963668, 1087.7255927626975, 437.1251166709699, -105.16972665395588, 0.01600000075995922, -0.11200000531971455, 1.0560000501573086, 0.0, 0.0, 0.0, 0.0, 0.0, 1.7103872169716887E9, 0.0, 2024-03-13 20:33:36.971
36.0, -134.15395131055266, 1062.6907024593093, 539.577806007117, -75.28231615805998, 0.01600000075995922, -0.11200000531971455, 1.0560000501573086, 0.0, 0.0, 0.0, 0.0, 0.0, 1.710387216987471E9, 0.0, 2024-03-13 20:33:36.987
36.0, -328.8475331538357, 1124.660844725091, 302.92628656094894, -1.9802770265378058, 0.01600000075995922, -0.11200000531971455, 1.0560000501573086, 0.0, 0.0, 0.0, 0.0, 0.0, 1.710387216987471E9, 0.0, 2024-03-13 20:33:36.987
37.0, -128.91248152265325, 1290.4506097608246, 540.7689641430043, 102.08991904044524, 0.01600000075995922, -0.11200000531971455, 1.0560000501573086, 0.0, 0.0, 0.0, 0.0, 0.0, 1.7103872169879706E9, 0.0, 2024-03-13 20:33:36.987
37.0, -56.42013073153794, 1139.1866161529906, 646.8381367363036, -15.645871464628726, 0.01600000075995922, -0.11200000531971455, 1.0560000501573086, 0.0, 0.0, 0.0, 0.0, 0.0, 1.7103872169879706E9, 0.0, 2024-03-13 20:33:36.987
38.0, -4.757152743637562, 1366.3481394615956, 645.8882021475583, -239.2264405656606, 0.01600000075995922, -0.11200000531971455, 1.0560000501573086, 0.0, 0.0, 0.0, 0.0, 0.0, 1.7103872170015574E9, 0.0, 2024-03-13 20:33:37.001
38.0, -110.13444384513423, 1387.7889859075658, 545.9449856816791, -282.88042279845104, 0.01600000075995922, -0.11200000531971455, 1.0560000501573086, 0.0, 0.0, 0.0, 0.0, 0.0, 1.7103872170015574E9, 0.0, 2024-03-13 20:33:37.001
39.0, 98.3406693348661, 1333.8970275460742, 783.8718110127375, -335.12682517943904, 0.01600000075995922, -0.11200000531971455, 1.0560000501573086, 0.0, 0.0, 0.0, 0.0, 0.0, 1.7103872170172837E9, 0.0, 2024-03-13 20:33:37.017
39.0, -118.79418219253421, 1157.2428531390615, 547.4465555138886, -454.25011856807396, 0.01600000075995922, -0.11200000531971455, 1.0560000501573086, 0.0, 0.0, 0.0, 0.0, 0.0, 1.7103872170172837E9, 0.0, 2024-03-13 20:33:37.017
40.0, -192.82363186543807, 1328.0179048157297, 455.4880254534073, -321.17325844476, 0.01600000075995922, -0.11200000531971455, 1.0560000501573086, 0.0, 0.0, 0.0, 0.0, 0.0, 1.7103872170179913E9, 0.0, 2024-03-13 20:33:37.017
40.0, -239.7668561092578, 1096.2301252619363, 442.35723670898005, -106.09348194301128, 0.01600000075995922, -0.11200000531971455, 1.0560000501573086, 0.0, 0.0, 0.0, 0.0, 0.0, 1.7103872170179913E9, 0.0, 2024-03-13 20:33:37.017
41.0, -135.5414541941136, 1073.8094250275753, 549.8064323859289, -70.59996141353622, 0.01600000075995922, -0.11200000531971455, 1.0560000501573086, 0.0, 0.0, 0.0, 0.0, 0.0, 1.710387217031763E9, 0.0, 2024-03-13 20:33:37.031
41.0, -334.427463887725, 1133.7151425178163, 793.767586295493, -2.4851635205559433, 0.01600000075995922, -0.11200000531971455, 1.0560000501573086, 0.0, 0.0, 0.0, 0.0, 0.0, 1.710387217031763E9, 0.0, 2024-03-13 20:33:37.031
42.0, -133.73321256553754, 1300.4997209417634, 1027.1336036305875, 101.86926494305953, 0.01600000075995922, -0.11200000531971455, 1.0560000501573086, 0.0, 0.0, 0.0, 0.0, 0.0, 1.7103872170474987E9, 0.0, 2024-03-13 20:33:37.047
42.0, -46.834767145104706, 1140.1552502415143, 1127.7574818884023, -19.49796841898933, 0.01600000075995922, -0.11200000531971455, 1.0560000501573086, 0.0, 0.0, 0.0, 0.0, 0.0, 1.7103872170474987E9, 0.0, 2024-03-13 20:33:37.047
43.0, 0.5161061938852072, 1361.0861002239399, 1125.262968617957, -250.449880332686, 0.01600000075995922, -0.11200000531971455, 1.0560000501573086, 0.0, 0.0, 0.0, 0.0, 0.0, 1.710387217048184E9, 0.0, 2024-03-13 20:33:37.048
43.0, -117.91343575296924, 1382.781259866897, 1025.8433381458744, -293.1277486770414, 0.01600000075995922, -0.11200000531971455, 1.0560000501573086, 0.0, 0.0, 0.0, 0.0, 0.0, 1.710387217048184E9, 0.0, 2024-03-13 20:33:37.048
44.0, 84.65263549704105, 1330.8265696824528, 1266.7172046420164, -349.57031880831346, 0.01600000075995922, -0.11200000531971455, 1.0560000501573086, 0.0, 0.0, 0.0, 0.0, 0.0, 1.7103872170615957E9, 0.0, 2024-03-13 20:33:37.061
44.0, -128.52540187723935, 1140.121591141913, 1511.2337336950004, -477.0186294983141, 0.01600000075995922, -0.11200000531971455, 1.0560000501573086, 0.0, 0.0, 0.0, 0.0, 0.0, 1.7103872170615957E9, 0.0, 2024-03-13 20:33:37.061
45.0, -202.7418465479277, 1315.2274469672702, 1420.6253075185232, -337.2510883542709, 0.01600000075995922, -0.11200000531971455, 1.0560000501573086, 0.0, 0.0, 0.0, 0.0, 0.0, 1.7103872170773034E9, 0.0, 2024-03-13 20:33:37.077
45.0, -224.66140018822625, 1085.863122584764, 1416.2645841701888, -109.99045769684017, 0.01600000075995922, -0.11200000531971455, 1.0560000501573086, 0.0, 0.0, 0.0, 0.0, 0.0, 1.7103872170773034E9, 0.0, 2024-03-13 20:33:37.077
46.0, -152.27376659587026, 1058.0906255138107, 1524.5851765368134, -77.22706413501874, 0.01600000075995922, -0.11200000531971455, 1.0560000501573086, 0.0, 0.0, 0.0, 0.0, 0.0, 1.7103872170779517E9, 0.0, 2024-03-13 20:33:37.077
46.0, -348.960715115536, 1120.1093864790164, 1767.985345453024, -11.217829917091876, 0.01600000075995922, -0.11200000531971455, 1.0560000501573086, 0.0, 0.0, 0.0, 0.0, 0.0, 1.7103872170779517E9, 0.0, 2024-03-13 20:33:37.077
47.0, -130.84974969970062, 1291.4379433491267, 2006.1982731306925, 98.85864547872916, 0.01600000075995922, -0.11200000531971455, 1.0560000501573086, 0.0, 0.0, 0.0, 0.0, 0.0, 1.7103872170916E9, 0.0, 2024-03-13 20:33:37.091
47.0, -48.42422462627292, 1133.2401752234437, 2109.297965159174, -22.609565182123333, 0.01600000075995922, -0.11200000531971455, 1.0560000501573086, 0.0, 0.0, 0.0, 0.0, 0.0, 1.7103872170916E9, 0.0, 2024-03-13 20:33:37.091
48.0, -17.379315094090998, 1354.896565797273, 2105.2551333070733, -255.1958133764565, 0.01600000075995922, -0.11200000531971455, 1.0560000501573086, 0.0, 0.0, 0.0, 0.0, 0.0, 1.7103872171075804E9, 0.0, 2024-03-13 20:33:37.107
48.0, -126.01405905699357, 1379.235834708903, 2008.1056221080944, -283.8303573871963, 0.01600000075995922, -0.11200000531971455, 1.0560000501573086, 0.0, 0.0, 0.0, 0.0, 0.0, 1.7103872171075804E9, 0.0, 2024-03-13 20:33:37.107
49.0, 97.47301254514605, 1337.8538416991942, 1770.5209976229817, -333.18955700239167, 0.01600000075995922, -0.11200000531971455, 1.0560000501573086, 0.0, 0.0, 0.0, 0.0, 0.0, 1.7103872171081676E9, 0.0, 2024-03-13 20:33:37.108
49.0, -128.90313177276403, 1137.2456080759875, 2010.979735224042, -465.9073867299594, 0.01600000075995922, -0.11200000531971455, 1.0560000501573086, 0.0, 0.0, 0.0, 0.0, 0.0, 1.7103872171081676E9, 0.0, 2024-03-13 20:33:37.108
50.0, -205.23635981837288, 1317.3330106423236, 1919.7691851546988, -326.00520918751135, 0.01600000075995922, -0.11200000531971455, 1.0560000501573086, 0.0, 0.0, 0.0, 0.0, 0.0, 1.710387217121562E9, 0.0, 2024-03-13 20:33:37.121
50.0, -247.7291031149216, 1097.295996749308, 1909.334864278324, -105.02387055568397, 0.01600000075995922, -0.11200000531971455, 1.0560000501573086, 0.0, 0.0, 0.0, 0.0, 0.0, 1.710387217121562E9, 0.0, 2024-03-13 20:33:37.121
51.0, -122.32090785074979, 1068.0312795960344, 2015.90144356573, -67.86983444588259, 0.01600000075995922, -0.11200000531971455, 1.0560000501573086, 0.0, 0.0, 0.0, 0.0, 0.0, 1.7103872171372998E9, 0.0, 2024-03-13 20:33:37.137
51.0, -348.5942049198784, 1116.1002137265168, 2252.4987344625406, -14.587479777168483, 0.01600000075995922, -0.11200000531971455, 1.0560000501573086, 0.0, 0.0, 0.0, 0.0, 0.0, 1.7103872171372998E9, 0.0, 2024-03-13 20:33:37.137
52.0, -144.28347034053877, 1294.6729568107985, 2497.5968179586343, 100.01053466508165, 0.01600000075995922, -0.11200000531971455, 1.0560000501573086, 0.0, 0.0, 0.0, 0.0, 0.0, 1.7103872171379695E9, 0.0, 2024-03-13 20:33:37.137
52.0, -48.67853782325983, 1145.7127415756695, 2600.139264893718, -18.64527122909203, 0.01600000075995922, -0.11200000531971455, 1.0560000501573086, 0.0, 0.0, 0.0, 0.0, 0.0, 1.7103872171379695E9, 0.0, 2024-03-13 20:33:37.137
53.0, -14.604309326969087, 1354.1897247056477, 2586.043581960723, -258.8646552329883, 0.01600000075995922, -0.11200000531971455, 1.0560000501573086, 0.0, 0.0, 0.0, 0.0, 0.0, 1.7103872171515627E9, 0.0, 2024-03-13 20:33:37.151
53.0, -111.33869163086638, 1382.2726334729232, 2496.4000499728136, -289.4476871206425, 0.01600000075995922, -0.11200000531971455, 1.0560000501573086, 0.0, 0.0, 0.0, 0.0, 0.0, 1.7103872171515627E9, 0.0, 2024-03-13 20:33:37.151
54.0, 92.06511720921844, 1337.3339956053533, 2739.68241204042, -343.08533228514716, 0.01600000075995922, -0.11200000531971455, 1.0560000501573086, 0.0, 0.0, 0.0, 0.0, 0.0, 1.710387217167326E9, 0.0, 2024-03-13 20:33:37.167
54.0, -120.06574817746878, 1137.7205753703602, 2981.2145009287633, -474.2735429308377, 0.01600000075995922, -0.11200000531971455, 1.0560000501573086, 0.0, 0.0, 0.0, 0.0, 0.0, 1.710387217167326E9, 0.0, 2024-03-13 20:33:37.167
55.0, -197.154436014127, 1320.2875316073187, 2898.4860439589247, -328.6941972556524, 0.01600000075995922, -0.11200000531971455, 1.0560000501573086, 0.0, 0.0, 0.0, 0.0, 0.0, 1.710387217168011E9, 0.0, 2024-03-13 20:33:37.168
55.0, -230.21141172247007, 1091.3944346192293, 2889.072715770453, -106.58340883720666, 0.01600000075995922, -0.11200000531971455, 1.0560000501573086, 0.0, 0.0, 0.0, 0.0, 0.0, 1.710387217168011E9, 0.0, 2024-03-13 20:33:37.168
56.0, -135.40681779570878, 1063.3190056518652, 2992.894208490383, -72.78032308770344, 0.01600000075995922, -0.11200000531971455, 1.0560000501573086, 0.0, 0.0, 0.0, 0.0, 0.0, 1.7103872171815789E9, 0.0, 2024-03-13 20:33:37.181
56.0, -350.3369982992299, 1121.6203060611151, 3234.7385790250264, -17.48590224282816, 0.01600000075995922, -0.11200000531971455, 1.0560000501573086, 0.0, 0.0, 0.0, 0.0, 0.0, 1.7103872171815789E9, 0.0, 2024-03-13 20:33:37.181
57.0, -129.81005751201883, 1294.388724414166, 3477.5777629478835, 102.04504024097696, 0.01600000075995922, -0.11200000531971455, 1.0560000501573086, 0.0, 0.0, 0.0, 0.0, 0.0, 1.7103872171973588E9, 0.0, 2024-03-13 20:33:37.197
57.0, -49.684570911340415, 1145.9408754729666, 3583.919948237948, -19.85699881473556, 0.01600000075995922, -0.11200000531971455, 1.0560000501573086, 0.0, 0.0, 0.0, 0.0, 0.0, 1.7103872171973588E9, 0.0, 2024-03-13 20:33:37.197
58.0, -21.33986914716661, 1355.9362579849549, 3571.5408793846145, -255.7530584698543, 0.01600000075995922, -0.11200000531971455, 1.0560000501573086, 0.0, 0.0, 0.0, 0.0, 0.0, 1.7103872171979113E9, 0.0, 2024-03-13 20:33:37.197
58.0, -141.32520947558805, 1382.2314945734106, 3483.251191180665, -278.36262365197763, 0.01600000075995922, -0.11200000531971455, 1.0560000501573086, 0.0, 0.0, 0.0, 0.0, 0.0, 1.7103872171979113E9, 0.0, 2024-03-13 20:33:37.197
59.0, 97.03170435037464, 1342.427739345003, 3239.9146005637012, -330.74366243137047, 0.01600000075995922, -0.11200000531971455, 1.0560000501573086, 0.0, 0.0, 0.0, 0.0, 0.0, 1.7103872172115877E9, 0.0, 2024-03-13 20:33:37.211
59.0, -122.3171679507941, 1141.8793441210873, 3479.3635651767254, -466.2028388264589, 0.01600000075995922, -0.11200000531971455, 1.0560000501573086, 0.0, 0.0, 0.0, 0.0, 0.0, 1.7103872172115877E9, 0.0, 2024-03-13 20:33:37.211
60.0, -203.57958413800225, 1314.7524796728976, 3391.2608719705604, -323.92582481214777, 0.01600000075995922, -0.11200000531971455, 1.0560000501573086, 0.0, 0.0, 0.0, 0.0, 0.0, 1.7103872172273004E9, 0.0, 2024-03-13 20:33:37.227
60.0, -236.3934663492255, 1089.6179821402766, 3385.0937769436277, -98.67352043092251, 0.01600000075995922, -0.11200000531971455, 1.0560000501573086, 0.0, 0.0, 0.0, 0.0, 0.0, 1.7103872172273004E9, 0.0, 2024-03-13 20:33:37.227
61.0, -141.17000362742692, 1053.9916951623745, 3480.7735074600205, -80.64159279456362, 0.01600000075995922, -0.11200000531971455, 1.0560000501573086, 0.0, 0.0, 0.0, 0.0, 0.0, 1.7103872172279186E9, 0.0, 2024-03-13 20:33:37.227
61.0, -350.46415489772335, 1109.0804215096869, 3721.0471200132743, -17.616798741277307, 0.01600000075995922, -0.11200000531971455, 1.0560000501573086, 0.0, 0.0, 0.0, 0.0, 0.0, 1.7103872172279186E9, 0.0, 2024-03-13 20:33:37.227
62.0, -134.06606366159394, 1296.5690860883333, 3477.0354774543084, 105.7363214972429, 0.01600000075995922, -0.11200000531971455, 1.0560000501573086, 0.0, 0.0, 0.0, 0.0, 0.0, 1.7103872172418463E9, 0.0, 2024-03-13 20:33:37.241
62.0, -37.95250475034118, 1142.9601752082817, 3583.8638497386128, -16.928657149430364, 0.01600000075995922, -0.11200000531971455, 1.0560000501573086, 0.0, 0.0, 0.0, 0.0, 0.0, 1.7103872172418463E9, 0.0, 2024-03-13 20:33:37.241
63.0, -19.30910347122699, 1346.515449996572, 3575.228420740925, -254.634828383103, 0.01600000075995922, -0.11200000531971455, 1.0560000501573086, 0.0, 0.0, 0.0, 0.0, 0.0, 1.7103872172573023E9, 0.0, 2024-03-13 20:33:37.257
63.0, -119.95542112877592, 1385.7208212320693, 3477.9966317429207, -280.27371252933517, 0.01600000075995922, -0.11200000531971455, 1.0560000501573086, 0.0, 0.0, 0.0, 0.0, 0.0, 1.7103872172573023E9, 0.0, 2024-03-13 20:33:37.257
64.0, 105.61851464863867, 1349.2567966640927, 3243.718078818638, -329.1018463508226, 0.01600000075995922, -0.11200000531971455, 1.0560000501573086, 0.0, 0.0, 0.0, 0.0, 0.0, 1.7103872172579167E9, 0.0, 2024-03-13 20:33:37.257
64.0, -125.82893400918692, 1136.3405522867106, 3480.4855351634324, -471.4012997648679, 0.01600000075995922, -0.11200000531971455, 1.0560000501573086, 0.0, 0.0, 0.0, 0.0, 0.0, 1.7103872172579167E9, 0.0, 2024-03-13 20:33:37.257
65.0, -205.06058452045545, 1317.3442303421907, 3390.7073667771183, -329.93958394089714, 0.01600000075995922, -0.11200000531971455, 1.0560000501573086, 0.0, 0.0, 0.0, 0.0, 0.0, 1.7103872172719283E9, 0.0, 2024-03-13 20:33:37.271
65.0, -245.95639053592458, 1096.3647616603412, 3383.332284064498, -96.6764138545841, 0.01600000075995922, -0.11200000531971455, 1.0560000501573086, 0.0, 0.0, 0.0, 0.0, 0.0, 1.7103872172719283E9, 0.0, 2024-03-13 20:33:37.271
66.0, -128.0990532822907, 1071.3261314569972, 3492.539232720621, -64.57872248487547, 0.01600000075995922, -0.11200000531971455, 1.0560000501573086, 0.0, 0.0, 0.0, 0.0, 0.0, 1.7103872172872922E9, 0.0, 2024-03-13 20:33:37.287
66.0, -336.3647320647724, 1127.8397596874274, 3734.9034493491054, -4.710403994191438, 0.01600000075995922, -0.11200000531971455, 1.0560000501573086, 0.0, 0.0, 0.0, 0.0, 0.0, 1.7103872172872922E9, 0.0, 2024-03-13 20:33:37.287
67.0, -129.23411291884258, 1305.918835977558, 3977.4995397748426, 113.39563660649583, 0.01600000075995922, -0.11200000531971455, 1.0560000501573086, 0.0, 0.0, 0.0, 0.0, 0.0, 1.7103872172879057E9, 0.0, 2024-03-13 20:33:37.287
67.0, -45.1705116648227, 1146.9506484610029, 4081.6576234907843, -8.850473245140165, 0.01600000075995922, -0.11200000531971455, 1.0560000501573086, 0.0, 0.0, 0.0, 0.0, 0.0, 1.7103872172879057E9, 0.0, 2024-03-13 20:33:37.287
68.0, -23.617468220181763, 1342.704491941724, 4063.9753765002824, 234.71425126912072, 0.01600000075995922, -0.11200000531971455, 1.0560000501573086, 0.0, 0.0, 0.0, 0.0, 0.0, 1.7103872173015769E9, 0.0, 2024-03-13 20:33:37.301
