%OpenBCI Raw EXG Data
%Number of channels = 4
%Sample Rate = 200 Hz
%Board = OpenBCI_GUI$BoardGanglionBLE
Sample Index, EXG Channel 0, EXG Channel 1, EXG Channel 2, EXG Channel 3, Accel Channel 0, Accel Channel 1, Accel Channel 2, Other, Other, Other, Other, Other, Timestamp, Other, Timestamp (Formatted)
2.0, -18.587302779778838, 154.0315195750445, -70.52329346444458, 201.43475151341408, 0.01600000075995922, 0.0, 0.0, 0.0, 0.0, 0.0, 0.0, 0.0, 1.7103874781004424E9, 0.0, 2024-03-13 20:37:58.100
2.0, 178.83827598113567, 223.41788345295936, 157.9322352288291, 196.04929557722062, 0.01600000075995922, 0.0, 0.0, 0.0, 0.0, 0.0, 0.0, 0.0, 1.7103874781004424E9, 0.0, 2024-03-13 20:37:58.100
3.0, 399.7223772141151, 467.37342751258984, 360.50952617870644, 8.904701794497669, 0.01600000075995922, 0.0, 0.0, 0.0, 0.0, 0.0, 0.0, 0.0, 1.710387478115091E9, 0.0, 2024-03-13 20:37:58.115
3.0, 289.0643473751843, 623.2711571655236, 231.6980219548568, 142.9202768066898, 0.01600000075995922, 0.0, 0.0, 0.0, 0.0, 0.0, 0.0, 0.0, 1.710387478115091E9, 0.0, 2024-03-13 20:37:58.115
4.0, 316.0028467560187, 457.8703417251818, 281.74162326194346, -71.38347045425326, 0.01600000075995922, 0.0, 0.0, 0.0, 0.0, 0.0, 0.0, 0.0, 1.7103874781156905E9, 0.0, 2024-03-13 20:37:58.115
4.0, 420.00759457377717, 415.49727522721514, 390.55588242271915, -62.95560590410605, 0.01600000075995922, 0.0, 0.0, 0.0, 0.0, 0.0, 0.0, 0.0, 1.7103874781156905E9, 0.0, 2024-03-13 20:37:58.115
5.0, 648.8445930625312, 410.6335353348404, 562.2920883879997, -50.38954205298796, 0.01600000075995922, 0.0, 0.0, 0.0, 0.0, 0.0, 0.0, 0.0, 1.7103874781296709E9, 0.0, 2024-03-13 20:37:58.129
5.0, 883.7963279788382, 638.221407238394, 354.9875638941303, 118.32482474809512, 0.01600000075995922, 0.0, 0.0, 0.0, 0.0, 0.0, 0.0, 0.0, 1.7103874781296709E9, 0.0, 2024-03-13 20:37:58.129
6.0, 979.909886890091, 496.8195298137143, 491.4434236274101, -2.9115121155045927, 0.01600000075995922, 0.0, 0.0, 0.0, 0.0, 0.0, 0.0, 0.0, 1.7103874781449947E9, 0.0, 2024-03-13 20:37:58.144
6.0, 973.2229457693174, 644.4109416650608, 418.5116345915012, 198.86357029387727, 0.01600000075995922, 0.0, 0.0, 0.0, 0.0, 0.0, 0.0, 0.0, 1.7103874781449947E9, 0.0, 2024-03-13 20:37:58.144
7.0, 887.8690790305845, 705.3825306426734, 335.76447812188417, 207.080130496528, 0.01600000075995922, 0.0, 0.0, 0.0, 0.0, 0.0, 0.0, 0.0, 1.7103874781459365E9, 0.0, 2024-03-13 20:37:58.145
7.0, 650.9464168376289, 711.0765283252113, 148.7358212377876, 195.42286233464256, 0.01600000075995922, 0.0, 0.0, 0.0, 0.0, 0.0, 0.0, 0.0, 1.7103874781459365E9, 0.0, 2024-03-13 20:37:58.145
8.0, 895.9379131849855, 950.675088936463, 359.3389374925755, 7.537768360693008, 0.01600000075995922, 0.0, 0.0, 0.0, 0.0, 0.0, 0.0, 0.0, 1.7103874781594162E9, 0.0, 2024-03-13 20:37:58.159
8.0, 790.8411145801656, 1118.2300867512822, 240.95801424514502, 151.7894495516084, 0.01600000075995922, 0.0, 0.0, 0.0, 0.0, 0.0, 0.0, 0.0, 1.7103874781594162E9, 0.0, 2024-03-13 20:37:58.159
9.0, 771.6030692080967, 948.7266010595486, 289.8833854654804, -63.4193534986116, 0.01600000075995922, 0.0, 0.0, 0.0, 0.0, 0.0, 0.0, 0.0, 1.710387478174942E9, 0.0, 2024-03-13 20:37:58.174
9.0, 879.0447850851342, 893.4060009149835, 388.7644703439437, -62.48998835962266, 0.01600000075995922, 0.0, 0.0, 0.0, 0.0, 0.0, 0.0, 0.0, 1.710387478174942E9, 0.0, 2024-03-13 20:37:58.174
10.0, 642.3259474397637, 900.9194599259645, 569.1435851068236, -41.72606380563229, 0.01600000075995922, 0.0, 1.0400000493973494, 0.0, 0.0, 0.0, 0.0, 0.0, 1.7103874781757054E9, 0.0, 2024-03-13 20:37:58.175
10.0, 406.8300570799038, 1132.0714564872906, 365.9492106642574, 127.98685628362, 0.01600000075995922, 0.0, 1.0400000493973494, 0.0, 0.0, 0.0, 0.0, 0.0, 1.7103874781757054E9, 0.0, 2024-03-13 20:37:58.175
11.0, 504.46575527312234, 997.5435151811689, 501.2905802107416, 13.31030394230038, 0.01600000075995922, -0.17600000835955143, 1.0400000493973494, 0.0, 0.0, 0.0, 0.0, 0.0, 1.710387478189394E9, 0.0, 2024-03-13 20:37:58.189
11.0, 482.4751435336657, 1133.683353368193, 420.6321578663774, 201.70776421017945, 0.01600000075995922, -0.17600000835955143, 1.0400000493973494, 0.0, 0.0, 0.0, 0.0, 0.0, 1.710387478189394E9, 0.0, 2024-03-13 20:37:58.189
12.0, 403.052758124657, 1194.0004598535597, 335.87667512055486, 207.0595610467717, 0.01600000075995922, -0.17600000835955143, 1.0400000493973494, 0.0, 0.0, 0.0, 0.0, 0.0, 1.7103874782049828E9, 0.0, 2024-03-13 20:37:58.204
12.0, 645.976089796517, 1208.6103790304624, 157.90605592913926, 200.48107702471316, 0.01600000075995922, -0.17600000835955143, 1.0400000493973494, 0.0, 0.0, 0.0, 0.0, 0.0, 1.7103874782049828E9, 0.0, 2024-03-13 20:37:58.204
13.0, 401.40907209413126, 1436.753626077436, 349.8508113049902, 0.29171219654381275, 0.01600000075995922, -0.17600000835955143, 1.0400000493973494, 0.0, 0.0, 0.0, 0.0, 0.0, 1.7103874782056975E9, 0.0, 2024-03-13 20:37:58.205
13.0, 288.1742511857301, 1587.7558266883716, 217.90153101831675, 127.53806828893721, 0.01600000075995922, -0.17600000835955143, 1.0400000493973494, 0.0, 0.0, 0.0, 0.0, 0.0, 1.7103874782056975E9, 0.0, 2024-03-13 20:37:58.205
14.0, 299.2967136539519, 1419.8642378775403, 275.7615232327953, -83.62416300922632, 0.01600000075995922, -0.17600000835955143, 1.0400000493973494, 0.0, 0.0, 0.0, 0.0, 0.0, 1.71038747821938E9, 0.0, 2024-03-13 20:37:58.219
14.0, 401.0949204978533, 1373.5268774265423, 384.1943125980906, -74.73629076452926, 0.01600000075995922, -0.17600000835955143, 1.0400000493973494, 0.0, 0.0, 0.0, 0.0, 0.0, 1.71038747821938E9, 0.0, 2024-03-13 20:37:58.219
15.0, 627.5309032150544, 1380.1315407482907, 563.4402376743965, -52.970073022414, 0.01600000075995922, -0.17600000835955143, 1.0400000493973494, 0.0, 0.0, 0.0, 0.0, 0.0, 1.7103874782351856E9, 0.0, 2024-03-13 20:37:58.235
15.0, 395.1578293181956, 1616.9569655423984, 364.9095184765756, 121.148449214641, 0.01600000075995922, -0.17600000835955143, 1.0400000493973494, 0.0, 0.0, 0.0, 0.0, 0.0, 1.7103874782351856E9, 0.0, 2024-03-13 20:37:58.235
16.0, 495.2095028827898, 1474.8295475263149, 495.774227776099, -0.6152135427109897, 0.01600000075995922, -0.17600000835955143, 1.0400000493973494, 0.0, 0.0, 0.0, 0.0, 0.0, 1.7103874782357235E9, 0.0, 2024-03-13 20:37:58.235
16.0, 480.9604840516113, 1620.4388124011457, 417.0343741090037, 190.35903779463843, 0.01600000075995922, -0.17600000835955143, 1.0400000493973494, 0.0, 0.0, 0.0, 0.0, 0.0, 1.7103874782357235E9, 0.0, 2024-03-13 20:37:58.235
17.0, 383.13405096065253, 1669.6970347175375, 331.2279794756323, 196.12596352631226, 0.01600000075995922, -0.17600000835955143, 1.0400000493973494, 0.0, 0.0, 0.0, 0.0, 0.0, 1.7103874782495055E9, 0.0, 2024-03-13 20:37:58.249
17.0, 150.57959191594273, 1675.1815980025567, 147.63255075085908, 183.87405127147213, 0.01600000075995922, -0.17600000835955143, 1.0400000493973494, 0.0, 0.0, 0.0, 0.0, 0.0, 1.7103874782495055E9, 0.0, 2024-03-13 20:37:58.249
18.0, 364.3391837333329, 1910.527892364189, 344.450395768974, -11.88727200916037, 0.01600000075995922, -0.17600000835955143, 1.0400000493973494, 0.0, 0.0, 0.0, 0.0, 0.0, 1.7103874782650237E9, 0.0, 2024-03-13 20:37:58.265
18.0, 299.633304649964, 2079.735925959423, 222.32209276594222, 132.47286628047004, 0.01600000075995922, -0.17600000835955143, 1.0400000493973494, 0.0, 0.0, 0.0, 0.0, 0.0, 1.7103874782650237E9, 0.0, 2024-03-13 20:37:58.265
19.0, 301.82488602399826, 1912.831670736894, 276.70771792158484, -78.59212761884555, 0.01600000075995922, -0.17600000835955143, 1.0400000493973494, 0.0, 0.0, 0.0, 0.0, 0.0, 1.7103874782656963E9, 0.0, 2024-03-13 20:37:58.265
19.0, 381.838175626006, 1861.561382244341, 379.95326604833826, -77.7413003789261, 0.01600000075995922, -0.17600000835955143, 1.0400000493973494, 0.0, 0.0, 0.0, 0.0, 0.0, 1.7103874782656963E9, 0.0, 2024-03-13 20:37:58.265
20.0, 624.7820767476223, 1868.267022864893, 558.1108802375384, -54.59505955316126, 0.01600000075995922, -0.17600000835955143, 1.0400000493973494, 0.0, 0.0, 0.0, 0.0, 0.0, 1.7103874782797766E9, 0.0, 2024-03-13 20:37:58.279
20.0, 392.39030335098505, 2103.7834826745093, 352.421992524527, 117.33188130985945, 0.01600000075995922, -0.17600000835955143, 1.0400000493973494, 0.0, 0.0, 0.0, 0.0, 0.0, 1.7103874782797766E9, 0.0, 2024-03-13 20:37:58.279
21.0, 483.2455629245378, 1949.5163494022563, 491.6640777247958, -5.755706031806767, 0.01600000075995922, -0.17600000835955143, 1.0400000493973494, 0.0, 0.0, 0.0, 0.0, 0.0, 1.7103874782953942E9, 0.0, 2024-03-13 20:37:58.295
21.0, 448.8983217314817, 2087.9337866622955, 416.5855861143209, 185.96652529668063, 0.01600000075995922, -0.17600000835955143, 1.0400000493973494, 0.0, 0.0, 0.0, 0.0, 0.0, 1.7103874782953942E9, 0.0, 2024-03-13 20:37:58.295
22.0, 387.2479409119114, 2152.402182098478, 328.50533230789006, 189.1304806591943, 0.01600000075995922, -0.17600000835955143, 1.0400000493973494, 0.0, 0.0, 0.0, 0.0, 0.0, 1.7103874782959144E9, 0.0, 2024-03-13 20:37:58.295
22.0, 631.9701644624583, 2146.250046671368, 140.51926103513688, 170.68529407773167, 0.01600000075995922, -0.17600000835955143, 1.0400000493973494, 0.0, 0.0, 0.0, 0.0, 0.0, 1.7103874782959144E9, 0.0, 2024-03-13 20:37:58.295
23.0, 858.086385733448, 2381.4018662353046, 347.87614412838593, -13.635675238445401, 0.01600000075995922, -0.17600000835955143, 1.0400000493973494, 0.0, 0.0, 0.0, 0.0, 0.0, 1.710387478309435E9, 0.0, 2024-03-13 20:37:58.309
23.0, 767.6649545547552, 2551.6121930186637, 221.23752177879214, 121.50934956036508, 0.01600000075995922, -0.17600000835955143, 1.0400000493973494, 0.0, 0.0, 0.0, 0.0, 0.0, 1.710387478309435E9, 0.0, 2024-03-13 20:37:58.309
24.0, 776.6818533479236, 2394.1025664848275, 277.93440510705113, -79.36441695969552, 0.01600000075995922, -0.17600000835955143, 1.0400000493973494, 0.0, 0.0, 0.0, 0.0, 0.0, 1.710387478325025E9, 0.0, 2024-03-13 20:37:58.325
24.0, 886.5694637959823, 2351.2657523923554, 383.1920194099657, -81.12964973878115, 0.01600000075995922, -0.17600000835955143, 1.0400000493973494, 0.0, 0.0, 0.0, 0.0, 0.0, 1.710387478325025E9, 0.0, 2024-03-13 20:37:58.325
25.0, 1114.5014064954594, 2358.805390703026, 562.3818459869362, -55.717029539868236, 0.01600000075995922, -0.17600000835955143, 1.0400000493973494, 0.0, 0.0, 0.0, 0.0, 0.0, 1.7103874783257053E9, 0.0, 2024-03-13 20:37:58.325
25.0, 870.6917185341008, 2588.453947482165, 345.7574908034876, 111.17974588274956, 0.01600000075995922, -0.17600000835955143, 1.0400000493973494, 0.0, 0.0, 0.0, 0.0, 0.0, 1.7103874783257053E9, 0.0, 2024-03-13 20:37:58.325
26.0, 981.9780515655875, 2452.142073897179, 492.07920661987737, -3.493066558614373, 0.01600000075995922, -0.17600000835955143, 1.0400000493973494, 0.0, 0.0, 0.0, 0.0, 0.0, 1.7103874783394492E9, 0.0, 2024-03-13 20:37:58.339
26.0, 961.2440462112427, 2592.1377489385195, 420.6695568659343, 191.33702163305134, 0.01600000075995922, -0.17600000835955143, 1.0400000493973494, 0.0, 0.0, 0.0, 0.0, 0.0, 1.7103874783394492E9, 0.0, 2024-03-13 20:37:58.339
27.0, 879.3421071316116, 2655.9404421825893, 336.5012384131551, 202.89331249613315, 0.01600000075995922, -0.17600000835955143, 1.0400000493973494, 0.0, 0.0, 0.0, 0.0, 0.0, 1.7103874783549995E9, 0.0, 2024-03-13 20:37:58.354
27.0, 646.1481251944788, 2660.0861212834716, 153.19004208501428, 194.80764879193157, 0.01600000075995922, -0.17600000835955143, 1.0400000493973494, 0.0, 0.0, 0.0, 0.0, 0.0, 1.7103874783549995E9, 0.0, 2024-03-13 20:37:58.354
28.0, 879.5795907787979, 2895.8587642400526, 353.628110260237, -1.7427933793514967, 0.01600000075995922, -0.17600000835955143, 1.0400000493973494, 0.0, 0.0, 0.0, 0.0, 0.0, 1.7103874783557303E9, 0.0, 2024-03-13 20:37:58.355
28.0, 793.2870091511868, 3061.192261481192, 226.91095001157373, 138.67923025693744, 0.01600000075995922, -0.17600000835955143, 1.0400000493973494, 0.0, 0.0, 0.0, 0.0, 0.0, 1.7103874783557303E9, 0.0, 2024-03-13 20:37:58.355
29.0, 805.1574516105466, 2905.1337161301635, 286.42023810651153, -65.30987292621285, 0.01600000075995922, -0.17600000835955143, 1.0400000493973494, 0.0, 0.0, 0.0, 0.0, 0.0, 1.7103874783696244E9, 0.0, 2024-03-13 20:37:58.369
29.0, 887.1117492895573, 2847.647713911254, 386.32605557283387, -72.63633693940938, 0.01600000075995922, -0.17600000835955143, 1.0400000493973494, 0.0, 0.0, 0.0, 0.0, 0.0, 1.7103874783696244E9, 0.0, 2024-03-13 20:37:58.369
30.0, 1109.2692864574492, 2850.5087373773567, 563.1410456779413, -53.14023847039789, 0.01600000075995922, -0.17600000835955143, 1.0400000493973494, 0.0, 0.0, 0.0, 0.0, 0.0, 1.7103874783855023E9, 0.0, 2024-03-13 20:37:58.385
30.0, 880.6435923161916, 3089.4808647460304, 360.33562083076686, 128.18133108131588, 0.01600000075995922, -0.17600000835955143, 1.0400000493973494, 0.0, 0.0, 0.0, 0.0, 0.0, 1.7103874783855023E9, 0.0, 2024-03-13 20:37:58.385
31.0, 983.7133651450276, 2942.1250665918924, 494.34558599302545, 1.0322123877704144, 0.01600000075995922, -0.17600000835955143, 1.0400000493973494, 0.0, 0.0, 0.0, 0.0, 0.0, 1.710387478385752E9, 0.0, 2024-03-13 20:37:58.385
31.0, 961.5806372072548, 3086.481464981567, 421.12582466052845, 189.77748335152864, 0.01600000075995922, -0.17600000835955143, 1.0400000493973494, 0.0, 0.0, 0.0, 0.0, 0.0, 1.710387478385752E9, 0.0, 2024-03-13 20:37:58.385
32.0, 881.4888097061776, 3147.3221574607305, 333.4606997491792, 199.3927661376074, 0.01600000075995922, -0.17600000835955143, 1.0400000493973494, 0.0, 0.0, 0.0, 0.0, 0.0, 1.7103874784159007E9, 0.0, 2024-03-13 20:37:58.415
32.0, 1112.9904869133607, 3157.7172093875706, 151.37993050646037, 191.33328173309565, 0.01600000075995922, -0.17600000835955143, 1.0400000493973494, 0.0, 0.0, 0.0, 0.0, 0.0, 1.7103874784159007E9, 0.0, 2024-03-13 20:37:58.415
33.0, 874.6429228372872, 3396.2424187115394, 354.42470895079896, -3.668841856531799, 0.01600000075995922, -0.17600000835955143, 1.0400000493973494, 0.0, 0.0, 0.0, 0.0, 0.0, 1.710387478416494E9, 0.0, 2024-03-13 20:37:58.416
33.0, 792.2248775637709, 3555.6182553232647, 226.50330091640353, 138.6904499568045, 0.01600000075995922, -0.17600000835955143, 1.0400000493973494, 0.0, 0.0, 0.0, 0.0, 0.0, 1.710387478416494E9, 0.0, 2024-03-13 20:37:58.416
34.0, 798.8108413857408, 3394.5183248319663, 282.37740625441074, -69.57709877565503, 0.01600000075995922, -0.17600000835955143, 1.0400000493973494, 0.0, 0.0, 0.0, 0.0, 0.0, 1.7103874784171736E9, 0.0, 2024-03-13 20:37:58.417
34.0, 894.7561047989875, 3337.256716610398, 383.3154361085035, -77.48698718193918, 0.01600000075995922, -0.17600000835955143, 1.0400000493973494, 0.0, 0.0, 0.0, 0.0, 0.0, 1.7103874784171736E9, 0.0, 2024-03-13 20:37:58.417
35.0, 1121.042491517961, 3341.6810182579793, 556.2072711600922, -59.15025769919157, 0.01600000075995922, -0.17600000835955143, 1.0400000493973494, 0.0, 0.0, 0.0, 0.0, 0.0, 1.7103874784298284E9, 0.0, 2024-03-13 20:37:58.429
35.0, 878.3697331431322, 3096.869037108496, 357.96826415881515, 126.07202750630677, 0.01600000075995922, -0.17600000835955143, 1.0400000493973494, 0.0, 0.0, 0.0, 0.0, 0.0, 1.7103874784298284E9, 0.0, 2024-03-13 20:37:58.429
36.0, 984.1658930396661, 2950.163981546648, 487.8157206703909, -1.088310887105763, 0.01600000075995922, -0.17600000835955143, 1.0400000493973494, 0.0, 0.0, 0.0, 0.0, 0.0, 1.7103874784451163E9, 0.0, 2024-03-13 20:37:58.445
36.0, 976.2859238330275, 3091.5808185711503, 427.2256014882587, 196.65515937004238, 0.01600000075995922, -0.17600000835955143, 1.0400000493973494, 0.0, 0.0, 0.0, 0.0, 0.0, 1.7103874784451163E9, 0.0, 2024-03-13 20:37:58.445
37.0, 891.2686480903067, 3159.205689569935, 339.50811797752976, 208.88463222514838, 0.01600000075995922, -0.17600000835955143, 1.0400000493973494, 0.0, 0.0, 0.0, 0.0, 0.0, 1.710387478445786E9, 0.0, 2024-03-13 20:37:58.445
37.0, 656.7806607685052, 3166.6088215322234, 157.84621752984822, 194.3139819977805, 0.01600000075995922, -0.17600000835955143, 1.0400000493973494, 0.0, 0.0, 0.0, 0.0, 0.0, 1.710387478445786E9, 0.0, 2024-03-13 20:37:58.445
38.0, 891.2555584404618, 3386.068020882085, 349.2187682124786, -4.903008841909468, 0.01600000075995922, -0.17600000835955143, 1.0400000493973494, 0.0, 0.0, 0.0, 0.0, 0.0, 1.710387478459446E9, 0.0, 2024-03-13 20:37:58.459
38.0, 762.6086098146625, 3548.1814642613754, 223.41040365304798, 130.75812215078622, 0.01600000075995922, -0.17600000835955143, 1.0400000493973494, 0.0, 0.0, 0.0, 0.0, 0.0, 1.710387478459446E9, 0.0, 2024-03-13 20:37:58.459
39.0, 772.8185366936959, 3390.7428958266973, 288.320107284002, -65.59410532284528, 0.01600000075995922, -0.17600000835955143, 1.0400000493973494, 0.0, 0.0, 0.0, 0.0, 0.0, 1.7103874784751065E9, 0.0, 2024-03-13 20:37:58.475
39.0, 886.9060547919944, 3341.9222418051213, 386.40459347190335, -68.33171209041029, 0.01600000075995922, -0.17600000835955143, 1.0400000493973494, 0.0, 0.0, 0.0, 0.0, 0.0, 1.7103874784751065E9, 0.0, 2024-03-13 20:37:58.475
40.0, 643.504015925806, 3344.6598485726863, 559.3151280232705, -52.29876098036766, 0.01600000075995922, -0.17600000835955143, 1.0560000501573086, 0.0, 0.0, 0.0, 0.0, 0.0, 1.7103874784757123E9, 0.0, 2024-03-13 20:37:58.475
40.0, 409.33205015026033, 3100.158279119525, 363.9184449883178, 136.90651767794043, 0.01600000075995922, -0.17600000835955143, 1.0560000501573086, 0.0, 0.0, 0.0, 0.0, 0.0, 1.7103874784757123E9, 0.0, 2024-03-13 20:37:58.475
41.0, 511.5528656891547, 2964.4709688271396, 511.0778983947821, 16.16384760849178, 0.01600000075995922, -0.17600000835955143, 1.0560000501573086, 0.0, 0.0, 0.0, 0.0, 0.0, 1.7103874784896395E9, 0.0, 2024-03-13 20:37:58.489
41.0, 484.461030410137, 3093.51621679822, 428.47098817350343, 197.2460635630414, 0.01600000075995922, -0.17600000835955143, 1.0560000501573086, 0.0, 0.0, 0.0, 0.0, 0.0, 1.7103874784896395E9, 0.0, 2024-03-13 20:37:58.489
42.0, 386.79915291722864, 3150.430014323909, 329.29071129858494, 200.55213512387127, 0.01600000075995922, -0.17600000835955143, 1.0560000501573086, 0.0, 0.0, 0.0, 0.0, 0.0, 1.710387478504996E9, 0.0, 2024-03-13 20:37:58.504
42.0, 165.27739874180406, 3165.5111608952284, 152.93572888802737, 196.30360877420753, 0.01600000075995922, -0.17600000835955143, 1.0560000501573086, 0.0, 0.0, 0.0, 0.0, 0.0, 1.710387478504996E9, 0.0, 2024-03-13 20:37:58.504
43.0, 381.28841033251956, 3393.145781548228, 354.76503984676674, 0.40390919521450996, 0.01600000075995922, -0.17600000835955143, 1.0560000501573086, 0.0, 0.0, 0.0, 0.0, 0.0, 1.7103874785057123E9, 0.0, 2024-03-13 20:37:58.505
43.0, 303.35450510587543, 3555.1881668283604, 228.85569798853248, 140.55666003469378, 0.01600000075995922, -0.17600000835955143, 1.0560000501573086, 0.0, 0.0, 0.0, 0.0, 0.0, 1.7103874785057123E9, 0.0, 2024-03-13 20:37:58.505
44.0, 310.1386836254969, 3389.33482349338, 282.579360852018, -70.54199296422303, 0.01600000075995922, -0.17600000835955143, 1.0560000501573086, 0.0, 0.0, 0.0, 0.0, 0.0, 1.7103874785193386E9, 0.0, 2024-03-13 20:37:58.519
44.0, 393.70861808536574, 3330.854007886257, 382.0850090230815, -80.66216224431992, 0.01600000075995922, -0.17600000835955143, 1.0560000501573086, 0.0, 0.0, 0.0, 0.0, 0.0, 1.7103874785193386E9, 0.0, 2024-03-13 20:37:58.519
45.0, 628.5556358029135, 3336.231984022539, 556.9440314513631, -58.66033080499619, 0.01600000075995922, -0.17600000835955143, 1.0560000501573086, 0.0, 0.0, 0.0, 0.0, 0.0, 1.7103874785350196E9, 0.0, 2024-03-13 20:37:58.535
45.0, 385.2919732350856, 3574.2691364022903, 352.2499571265653, 115.48437073174864, 0.01600000075995922, -0.17600000835955143, 1.0560000501573086, 0.0, 0.0, 0.0, 0.0, 0.0, 1.7103874785350196E9, 0.0, 2024-03-13 20:37:58.535
46.0, 494.1885101948865, 3438.2452351138927, 495.5049549792893, 3.1676952624693513, 0.01600000075995922, -0.17600000835955143, 1.0560000501573086, 0.0, 0.0, 0.0, 0.0, 0.0, 1.7103874785357459E9, 0.0, 2024-03-13 20:37:58.535
46.0, 479.67769836680964, 3574.9759774939157, 423.1191913369112, 191.70727172866464, 0.01600000075995922, -0.17600000835955143, 1.0560000501573086, 0.0, 0.0, 0.0, 0.0, 0.0, 1.7103874785357459E9, 0.0, 2024-03-13 20:37:58.535
47.0, 384.98530143871903, 3638.771190938074, 337.0547436065972, 205.8403536612168, 0.01600000075995922, -0.17600000835955143, 1.0560000501573086, 0.0, 0.0, 0.0, 0.0, 0.0, 1.710387478549737E9, 0.0, 2024-03-13 20:37:58.549
47.0, 154.79445916600525, 3642.1165314484388, 153.62013057991862, 195.78376268036664, 0.01600000075995922, -0.17600000835955143, 1.0560000501573086, 0.0, 0.0, 0.0, 0.0, 0.0, 1.710387478549737E9, 0.0, 2024-03-13 20:37:58.549
48.0, 387.66867965692654, 3872.642094767187, 357.4128890153952, -4.199907650239766, 0.01600000075995922, -0.17600000835955143, 1.0560000501573086, 0.0, 0.0, 0.0, 0.0, 0.0, 1.7103874785651324E9, 0.0, 2024-03-13 20:37:58.565
48.0, 286.00510921142995, 4038.1513673062436, 232.57689844444394, 139.00460155308247, 0.01600000075995922, -0.17600000835955143, 1.0560000501573086, 0.0, 0.0, 0.0, 0.0, 0.0, 1.7103874785651324E9, 0.0, 2024-03-13 20:37:58.565
49.0, 312.5509190969169, 3888.559108978603, 291.59999954514205, -61.745748268440366, 0.01600000075995922, -0.17600000835955143, 1.0560000501573086, 0.0, 0.0, 0.0, 0.0, 0.0, 1.7103874785660524E9, 0.0, 2024-03-13 20:37:58.566
49.0, 401.41655189404264, 3835.097239112016, 387.11143456352875, -74.67084251530468, 0.01600000075995922, -0.17600000835955143, 1.0560000501573086, 0.0, 0.0, 0.0, 0.0, 0.0, 1.7103874785660524E9, 0.0, 2024-03-13 20:37:58.566
50.0, 635.0780213256367, 3821.7962849196047, 547.3137890654616, -63.331465849652886, 0.01600000075995922, -0.17600000835955143, 1.0400000493973494, 0.0, 0.0, 0.0, 0.0, 0.0, 1.7103874785795825E9, 0.0, 2024-03-13 20:37:58.579
50.0, 874.4540578895248, 4060.9142683865502, 350.7203380446881, 114.87476703897119, 0.01600000075995922, -0.17600000835955143, 1.0400000493973494, 0.0, 0.0, 0.0, 0.0, 0.0, 1.7103874785795825E9, 0.0, 2024-03-13 20:37:58.579
51.0, 972.2468318808824, 3918.3305825758725, 491.08813313161954, -4.069011151790619, 0.01600000075995922, -0.17600000835955143, 1.0400000493973494, 0.0, 0.0, 0.0, 0.0, 0.0, 1.7103874785950065E9, 0.0, 2024-03-13 20:37:58.595
51.0, 957.6238230541348, 4058.288858617656, 423.7811536290683, 186.80052298679948, 0.01600000075995922, -0.17600000835955143, 1.0400000493973494, 0.0, 0.0, 0.0, 0.0, 0.0, 1.7103874785950065E9, 0.0, 2024-03-13 20:37:58.595
52.0, 873.3620071024634, 4123.153683449142, 338.3786681909114, 199.81163493264467, 0.01600000075995922, -0.17600000835955143, 1.0400000493973494, 0.0, 0.0, 0.0, 0.0, 0.0, 1.7103874785959675E9, 0.0, 2024-03-13 20:37:58.595
52.0, 667.7348277387209, 4145.864225930069, 165.05674464441836, 204.9296880220063, 0.01600000075995922, -0.17600000835955143, 1.0400000493973494, 0.0, 0.0, 0.0, 0.0, 0.0, 1.7103874785959675E9, 0.0, 2024-03-13 20:37:58.595
53.0, 882.388255645521, 4368.9025095375255, 359.76528608752415, -3.098507113289088, 0.01600000075995922, -0.17600000835955143, 1.0400000493973494, 0.0, 0.0, 0.0, 0.0, 0.0, 1.7103874786093757E9, 0.0, 2024-03-13 20:37:58.609
53.0, 789.4685712964274, 4536.910035246983, 228.65374339092523, 139.93022679211572, 0.01600000075995922, -0.17600000835955143, 1.0400000493973494, 0.0, 0.0, 0.0, 0.0, 0.0, 1.7103874786093757E9, 0.0, 2024-03-13 20:37:58.609
54.0, 797.3522804030217, 4387.018584922887, 288.18921078555286, -62.88828770490363, 0.01600000075995922, -0.17600000835955143, 1.0400000493973494, 0.0, 0.0, 0.0, 0.0, 0.0, 1.7103874786252434E9, 0.0, 2024-03-13 20:37:58.625
54.0, 906.5741886589676, 4323.619800874032, 388.55503594642505, -71.44891870347783, 0.01600000075995922, -0.17600000835955143, 1.0400000493973494, 0.0, 0.0, 0.0, 0.0, 0.0, 1.7103874786252434E9, 0.0, 2024-03-13 20:37:58.625
55.0, 1111.4272087318823, 4319.952828967478, 562.0415150909685, -56.06297028576955, 0.01600000075995922, -0.17600000835955143, 1.0400000493973494, 0.0, 0.0, 0.0, 0.0, 0.0, 1.7103874786259944E9, 0.0, 2024-03-13 20:37:58.625
55.0, 905.1735961255617, 4080.492644654587, 364.37471278291196, 134.47745265671983, 0.01600000075995922, -0.17600000835955143, 1.0400000493973494, 0.0, 0.0, 0.0, 0.0, 0.0, 1.7103874786259944E9, 0.0, 2024-03-13 20:37:58.625
56.0, 999.7799753546715, 3935.706157770008, 509.76145361037925, 15.417737567331642, 0.01600000075995922, -0.17600000835955143, 1.0400000493973494, 0.0, 0.0, 0.0, 0.0, 0.0, 1.7103874786397643E9, 0.0, 2024-03-13 20:37:58.639
56.0, 966.5509642483667, 4071.8048570575193, 432.0725118308328, 205.35229671699926, 0.01600000075995922, -0.17600000835955143, 1.0400000493973494, 0.0, 0.0, 0.0, 0.0, 0.0, 1.7103874786397643E9, 0.0, 2024-03-13 20:37:58.639
57.0, 879.3757662312128, 4140.087950448506, 348.5063172709197, 218.63268145965412, 0.01600000075995922, -0.17600000835955143, 1.0400000493973494, 0.0, 0.0, 0.0, 0.0, 0.0, 1.7103874786552286E9, 0.0, 2024-03-13 20:37:58.655
57.0, 661.6126115112565, 4148.268981601577, 164.95950724557042, 208.88276227517053, 0.01600000075995922, -0.17600000835955143, 1.0400000493973494, 0.0, 0.0, 0.0, 0.0, 0.0, 1.7103874786552286E9, 0.0, 2024-03-13 20:37:58.655
58.0, 432.42032252671197, 4379.751959308982, 367.03191170142964, 10.436190826352686, 0.01600000075995922, -0.17600000835955143, 1.0400000493973494, 0.0, 0.0, 0.0, 0.0, 0.0, 1.710387478655962E9, 0.0, 2024-03-13 20:37:58.655
58.0, 303.30588640645146, 4542.878915576264, 231.00614046305418, 147.71295859990641, 0.01600000075995922, -0.17600000835955143, 1.0400000493973494, 0.0, 0.0, 0.0, 0.0, 0.0, 1.710387478655962E9, 0.0, 2024-03-13 20:37:58.655
59.0, 322.4504342796281, 4391.704679567367, 289.0942665748298, -46.51874559884891, 0.01600000075995922, -0.17600000835955143, 1.0400000493973494, 0.0, 0.0, 0.0, 0.0, 0.0, 1.7103874786693676E9, 0.0, 2024-03-13 20:37:58.669
59.0, 418.1152051961981, 4337.764102506451, 393.6562594859861, -58.011458162683994, 0.01600000075995922, -0.17600000835955143, 1.0400000493973494, 0.0, 0.0, 0.0, 0.0, 0.0, 1.7103874786693676E9, 0.0, 2024-03-13 20:37:58.669
60.0, 650.3966515441425, 4346.466849703342, 574.7983138398267, -34.00130044715479, 0.01600000075995922, -0.17600000835955143, 1.0400000493973494, 0.0, 0.0, 0.0, 0.0, 0.0, 1.7103874786854057E9, 0.0, 2024-03-13 20:37:58.685
60.0, 412.14819481689483, 4581.246549221687, 364.5841471804306, 141.51594437332824, 0.01600000075995922, -0.17600000835955143, 1.0400000493973494, 0.0, 0.0, 0.0, 0.0, 0.0, 1.7103874786854057E9, 0.0, 2024-03-13 20:37:58.685
61.0, 515.4461015430279, 4435.599885347299, 508.6357437237166, 21.207102698739618, 0.01600000075995922, -0.17600000835955143, 1.0400000493973494, 0.0, 0.0, 0.0, 0.0, 0.0, 1.7103874786857564E9, 0.0, 2024-03-13 20:37:58.685
61.0, 478.70532437833026, 4563.841054827906, 426.8553513926454, 197.41996891098097, 0.01600000075995922, -0.17600000835955143, 1.0400000493973494, 0.0, 0.0, 0.0, 0.0, 0.0, 1.7103874786857564E9, 0.0, 2024-03-13 20:37:58.685
62.0, 399.3091182690114, 4629.408980851062, 341.96149234846234, 215.3453093986027, 0.01600000075995922, -0.17600000835955143, 1.0400000493973494, 0.0, 0.0, 0.0, 0.0, 0.0, 1.7103874786993618E9, 0.0, 2024-03-13 20:37:58.699
62.0, 642.2960282401182, 4637.990181299392, 158.68769501987845, 205.44205431593582, 0.01600000075995922, -0.17600000835955143, 1.0400000493973494, 0.0, 0.0, 0.0, 0.0, 0.0, 1.7103874786993618E9, 0.0, 2024-03-13 20:37:58.699
63.0, 886.5956430956721, 4862.356129391119, 359.91488208575174, 7.074020766187459, 0.01600000075995922, -0.17600000835955143, 1.0400000493973494, 0.0, 0.0, 0.0, 0.0, 0.0, 1.7103874787150402E9, 0.0, 2024-03-13 20:37:58.715
63.0, 794.719390834216, 5029.009811316617, 232.03087305091321, 146.95375890890136, 0.01600000075995922, -0.17600000835955143, 1.0400000493973494, 0.0, 0.0, 0.0, 0.0, 0.0, 1.7103874787150402E9, 0.0, 2024-03-13 20:37:58.715
64.0, 808.6841772687621, 4876.029203629121, 295.6278717974201, -50.56531735090539, 0.01600000075995922, -0.17600000835955143, 1.0400000493973494, 0.0, 0.0, 0.0, 0.0, 0.0, 1.7103874787157536E9, 0.0, 2024-03-13 20:37:58.715
64.0, 907.7335576452315, 4818.000915916637, 396.8089951486327, -60.61816843179986, 0.01600000075995922, -0.17600000835955143, 1.0400000493973494, 0.0, 0.0, 0.0, 0.0, 0.0, 1.7103874787157536E9, 0.0, 2024-03-13 20:37:58.715
65.0, 1129.1992133213207, 4815.979499990586, 566.2451626411639, -45.019045716617256, 0.01600000075995922, -0.17600000835955143, 1.0400000493973494, 0.0, 0.0, 0.0, 0.0, 0.0, 1.7103874787299461E9, 0.0, 2024-03-13 20:37:58.729
65.0, 893.194696567487, 4575.782555386424, 366.81686745397747, 146.95001900894567, 0.01600000075995922, -0.17600000835955143, 1.0400000493973494, 0.0, 0.0, 0.0, 0.0, 0.0, 1.7103874787299461E9, 0.0, 2024-03-13 20:37:58.729
66.0, 1007.6823839610443, 4441.131197381765, 514.1221769587137, 23.57819927064702, 0.01600000075995922, -0.17600000835955143, 1.0400000493973494, 0.0, 0.0, 0.0, 0.0, 0.0, 1.7103874787452695E9, 0.0, 2024-03-13 20:37:58.745
66.0, 970.1599677056074, 4564.940585414879, 428.6729427711107, 197.88371650548652, 0.01600000075995922, -0.17600000835955143, 1.0400000493973494, 0.0, 0.0, 0.0, 0.0, 0.0, 1.7103874787452695E9, 0.0, 2024-03-13 20:37:58.745
67.0, 884.7425226676278, 4625.186633801088, 337.29783710371703, 210.49465915607288, 0.01600000075995922, -0.17600000835955143, 1.0400000493973494, 0.0, 0.0, 0.0, 0.0, 0.0, 1.7103874787459936E9, 0.0, 2024-03-13 20:37:58.745
67.0, 649.6224922533147, 4641.318692259956, 162.28547877725214, 209.67936096573249, 0.01600000075995922, -0.17600000835955143, 1.0400000493973494, 0.0, 0.0, 0.0, 0.0, 0.0, 1.7103874787459936E9, 0.0, 2024-03-13 20:37:58.745
68.0, 883.727139829658, 4862.161654593423, 363.0339586487971, 6.9842631672509015, 0.01600000075995922, -0.17600000835955143, 1.0400000493973494, 0.0, 0.0, 0.0, 0.0, 0.0, 1.71038747875937E9, 0.0, 2024-03-13 20:37:58.759
68.0, 785.5454162429087, 5027.106202239171, 231.06223896238953, 145.1997458296828, 0.01600000075995922, -0.17600000835955143, 1.0400000493973494, 0.0, 0.0, 0.0, 0.0, 0.0, 1.71038747875937E9, 0.0, 2024-03-13 20:37:58.759
69.0, 808.13067207532, 4885.659446015023, 293.60084602143615, -47.64071558555588, 0.01600000075995922, -0.17600000835955143, 1.0400000493973494, 0.0, 0.0, 0.0, 0.0, 0.0, 1.7103874787749395E9, 0.0, 2024-03-13 20:37:58.774
69.0, 898.3651082562283, 4822.51871506311, 389.7892029318027, -65.17710647778586, 0.01600000075995922, -0.17600000835955143, 1.0400000493973494, 0.0, 0.0, 0.0, 0.0, 0.0, 1.7103874787749395E9, 0.0, 2024-03-13 20:37:58.774
70.0, 1124.9693864714354, 4814.53589860769, 558.9486178276129, -53.67691411403939, 0.01600000075995922, -0.17600000835955143, 1.0400000493973494, 0.0, 0.0, 0.0, 0.0, 0.0, 1.7103874787758384E9, 0.0, 2024-03-13 20:37:58.775
70.0, 904.6238308320753, 4574.454890902154, 351.9919040296227, 130.65901480196044, 0.01600000075995922, -0.17600000835955143, 1.0400000493973494, 0.0, 0.0, 0.0, 0.0, 0.0, 1.7103874787758384E9, 0.0, 2024-03-13 20:37:58.775
71.0, 1030.5855312896892, 4428.998961925507, 493.8070403994061, 7.83322045719251, 0.01600000075995922, -0.17600000835955143, 1.0400000493973494, 0.0, 0.0, 0.0, 0.0, 0.0, 1.7103874787895322E9, 0.0, 2024-03-13 20:37:58.789
71.0, 975.5603832416236, 4558.089088696055, 417.64397780178115, 193.0742051624693, 0.01600000075995922, -0.17600000835955143, 1.0400000493973494, 0.0, 0.0, 0.0, 0.0, 0.0, 1.7103874787895322E9, 0.0, 2024-03-13 20:37:58.789
72.0, 871.738890521694, 4625.325010099448, 329.4477870967239, 204.7875718236901, 0.01600000075995922, -0.17600000835955143, 1.0400000493973494, 0.0, 0.0, 0.0, 0.0, 0.0, 1.7103874788050475E9, 0.0, 2024-03-13 20:37:58.805
72.0, 631.166085971985, 4632.974975458812, 156.32407824788243, 199.54797198576853, 0.01600000075995922, -0.17600000835955143, 1.0400000493973494, 0.0, 0.0, 0.0, 0.0, 0.0, 1.7103874788050475E9, 0.0, 2024-03-13 20:37:58.805
73.0, 861.7215684903786, 4853.728180193342, 354.28633265243843, -4.381292798090726, 0.01600000075995922, -0.17600000835955143, 1.0400000493973494, 0.0, 0.0, 0.0, 0.0, 0.0, 1.7103874788056965E9, 0.0, 2024-03-13 20:37:58.805
73.0, 786.5290099312551, 5012.584170711227, 214.9170908536762, 128.2318197307177, 0.01600000075995922, -0.17600000835955143, 1.0400000493973494, 0.0, 0.0, 0.0, 0.0, 0.0, 1.7103874788056965E9, 0.0, 2024-03-13 20:37:58.805
74.0, 810.4082711483352, 4875.139107439667, 292.27318153716624, -52.18469403171912, 0.01600000075995922, -0.17600000835955143, 1.0400000493973494, 0.0, 0.0, 0.0, 0.0, 0.0, 1.7103874788193269E9, 0.0, 2024-03-13 20:37:58.819
74.0, 883.2222533356398, 4805.229157567956, 386.3410151726566, -73.7938359756954, 0.01600000075995922, -0.17600000835955143, 1.0400000493973494, 0.0, 0.0, 0.0, 0.0, 0.0, 1.7103874788193269E9, 0.0, 2024-03-13 20:37:58.819
75.0, 1115.735573480837, 4806.156652756967, 558.271695935633, -58.348049158696085, 0.01600000075995922, -0.17600000835955143, 1.0400000493973494, 0.0, 0.0, 0.0, 0.0, 0.0, 1.7103874788349233E9, 0.0, 2024-03-13 20:37:58.834
75.0, 886.6162125454284, 4570.140916303266, 357.6952514620498, 131.94180048676208, 0.01600000075995922, -0.17600000835955143, 1.0400000493973494, 0.0, 0.0, 0.0, 0.0, 0.0, 1.7103874788349233E9, 0.0, 2024-03-13 20:37:58.834
76.0, 1005.6291788853705, 4434.345148912165, 503.8112727808766, 15.829126562457532, 0.01600000075995922, -0.17600000835955143, 1.0400000493973494, 0.0, 0.0, 0.0, 0.0, 0.0, 1.7103874788358827E9, 0.0, 2024-03-13 20:37:58.835
76.0, 960.3950889213011, 4550.0501737413, 414.1509112431668, 184.6257711625658, 0.01600000075995922, -0.17600000835955143, 1.0400000493973494, 0.0, 0.0, 0.0, 0.0, 0.0, 1.7103874788358827E9, 0.0, 2024-03-13 20:37:58.835
77.0, 880.2957816203125, 4620.087280211505, 331.074643577449, 207.28956489404663, 0.01600000075995922, -0.17600000835955143, 1.0400000493973494, 0.0, 0.0, 0.0, 0.0, 0.0, 1.7103874788493233E9, 0.0, 2024-03-13 20:37:58.849
77.0, 652.9098643143661, 4637.509604155086, 163.20175426639616, 207.32135404367, 0.01600000075995922, -0.17600000835955143, 1.0400000493973494, 0.0, 0.0, 0.0, 0.0, 0.0, 1.7103874788493233E9, 0.0, 2024-03-13 20:37:58.849
78.0, 879.5870705787092, 4852.761416054796, 353.80014565819874, -7.330203913152218, 0.01600000075995922, -0.17600000835955143, 1.0400000493973494, 0.0, 0.0, 0.0, 0.0, 0.0, 1.7103874788652623E9, 0.0, 2024-03-13 20:37:58.865
78.0, 773.6637540836819, 5015.884632422123, 214.22146946191788, 124.92761811986566, 0.01600000075995922, -0.17600000835955143, 1.0400000493973494, 0.0, 0.0, 0.0, 0.0, 0.0, 1.7103874788652623E9, 0.0, 2024-03-13 20:37:58.865
79.0, 789.4087328971364, 4884.457068179268, 283.5479949405417, -62.77422075625509, 0.01600000075995922, -0.17600000835955143, 1.0400000493973494, 0.0, 0.0, 0.0, 0.0, 0.0, 1.710387478865755E9, 0.0, 2024-03-13 20:37:58.865
79.0, 909.3716338258237, 4825.516244877595, 390.473604623694, -69.25920727942139, 0.01600000075995922, -0.17600000835955143, 1.0400000493973494, 0.0, 0.0, 0.0, 0.0, 0.0, 1.710387478865755E9, 0.0, 2024-03-13 20:37:58.865
80.0, 1120.6273626228794, 4805.569488463923, 549.5427694390528, -67.76698719710112, 0.01600000075995922, -0.17600000835955143, 1.0400000493973494, 0.0, 0.0, 0.0, 0.0, 0.0, 1.7103874788796475E9, 0.0, 2024-03-13 20:37:58.879
80.0, 886.2160432501696, 4576.99241302209, 356.60320067498833, 133.510688518174, 0.01600000075995922, -0.17600000835955143, 1.0400000493973494, 0.0, 0.0, 0.0, 0.0, 0.0, 1.7103874788796475E9, 0.0, 2024-03-13 20:37:58.879
81.0, 1001.3769126357511, 4437.079015779775, 495.8191065755673, 8.328757201321423, 0.01600000075995922, -0.17600000835955143, 1.0400000493973494, 0.0, 0.0, 0.0, 0.0, 0.0, 1.710387478895326E9, 0.0, 2024-03-13 20:37:58.895
81.0, 963.8507564803585, 4562.687295691576, 413.49268885096535, 186.03758339583874, 0.01600000075995922, -0.17600000835955143, 1.0400000493973494, 0.0, 0.0, 0.0, 0.0, 0.0, 1.710387478895326E9, 0.0, 2024-03-13 20:37:58.895
82.0, 864.6929190051742, 4616.923324848991, 320.3299110047519, 194.99464378971606, 0.01600000075995922, -0.17600000835955143, 1.0400000493973494, 0.0, 0.0, 0.0, 0.0, 0.0, 1.7103874788959851E9, 0.0, 2024-03-13 20:37:58.895
82.0, 656.0439004772343, 4647.678392134607, 153.20874158479273, 200.99157336866483, 0.01600000075995922, -0.17600000835955143, 1.0400000493973494, 0.0, 0.0, 0.0, 0.0, 0.0, 1.7103874788959851E9, 0.0, 2024-03-13 20:37:58.895
83.0, 888.2299793763086, 4860.824640359264, 346.5858786436729, -8.038914954755455, 0.01600000075995922, -0.17600000835955143, 1.0400000493973494, 0.0, 0.0, 0.0, 0.0, 0.0, 1.7103874789097395E9, 0.0, 2024-03-13 20:37:58.909
83.0, 788.0586290131323, 5021.890911750961, 213.57072686962783, 134.09598286123946, 0.01600000075995922, -0.17600000835955143, 1.0400000493973494, 0.0, 0.0, 0.0, 0.0, 0.0, 1.7103874789097395E9, 0.0, 2024-03-13 20:37:58.909
84.0, 801.9710568482988, 4891.91816859087, 292.3554593361914, -44.35334352450445, 0.01600000075995922, -0.17600000835955143, 1.0400000493973494, 0.0, 0.0, 0.0, 0.0, 0.0, 1.7103874789251325E9, 0.0, 2024-03-13 20:37:58.925
84.0, 917.7190905269235, 4836.025363753084, 397.92348533542827, -52.45396682852879, 0.01600000075995922, -0.17600000835955143, 1.0400000493973494, 0.0, 0.0, 0.0, 0.0, 0.0, 1.7103874789251325E9, 0.0, 2024-03-13 20:37:58.925
85.0, 1139.798089795746, 4820.573967086151, 564.3826924632303, -47.65567518537864, 0.01600000075995922, -0.17600000835955143, 1.0400000493973494, 0.0, 0.0, 0.0, 0.0, 0.0, 1.7103874789257612E9, 0.0, 2024-03-13 20:37:58.925
85.0, 896.1679170322604, 4588.316830087919, 358.0991606572643, 141.9796919678338, 0.01600000075995922, -0.17600000835955143, 1.0400000493973494, 0.0, 0.0, 0.0, 0.0, 0.0, 1.7103874789257612E9, 0.0, 2024-03-13 20:37:58.925
86.0, 1007.4467702638358, 4446.709258165676, 502.0759592014365, 19.94301651371643, 0.01600000075995922, -0.17600000835955143, 1.0400000493973494, 0.0, 0.0, 0.0, 0.0, 0.0, 1.71038747893975E9, 0.0, 2024-03-13 20:37:58.939
86.0, 974.2962970566005, 4556.860531560611, 413.90033794613555, 186.41344334138557, 0.01600000075995922, -0.17600000835955143, 1.0400000493973494, 0.0, 0.0, 0.0, 0.0, 0.0, 1.71038747893975E9, 0.0, 2024-03-13 20:37:58.939
87.0, 873.2385904039256, 4625.846726143267, 323.99127306137234, 198.09689080296084, 0.01600000075995922, -0.17600000835955143, 1.0400000493973494, 0.0, 0.0, 0.0, 0.0, 0.0, 1.710387478971328E9, 0.0, 2024-03-13 20:37:58.971
87.0, 668.5987446284853, 4646.231050851755, 150.0709655219689, 202.34354720264673, 0.01600000075995922, -0.17600000835955143, 1.0400000493973494, 0.0, 0.0, 0.0, 0.0, 0.0, 1.710387478971328E9, 0.0, 2024-03-13 20:37:58.971
88.0, 877.5263857031241, 4853.685171343852, 341.7464481010102, -18.12355518527329, 0.01600000075995922, -0.17600000835955143, 1.0400000493973494, 0.0, 0.0, 0.0, 0.0, 0.0, 1.710387478972139E9, 0.0, 2024-03-13 20:37:58.972
88.0, 785.0704489485361, 5019.68811067706, 217.1423313273117, 134.41200440749526, 0.01600000075995922, -0.17600000835955143, 1.0400000493973494, 0.0, 0.0, 0.0, 0.0, 0.0, 1.710387478972139E9, 0.0, 2024-03-13 20:37:58.972
89.0, 811.399344636593, 4885.500500266906, 295.44835659954697, -45.80629465728998, 0.01600000075995922, -0.17600000835955143, 1.0400000493973494, 0.0, 0.0, 0.0, 0.0, 0.0, 1.7103874789730651E9, 0.0, 2024-03-13 20:37:58.973
89.0, 900.5641694301739, 4820.7516123340465, 397.0670482455753, -59.89075789041817, 0.01600000075995922, -0.17600000835955143, 1.0400000493973494, 0.0, 0.0, 0.0, 0.0, 0.0, 1.7103874789730651E9, 0.0, 2024-03-13 20:37:58.973
90.0, 1113.1326031116769, 4802.499030600302, 559.0832542260177, -58.125525111332536, 0.01600000075995922, -0.17600000835955143, 1.0400000493973494, 0.0, 0.0, 0.0, 0.0, 0.0, 1.7103874789735482E9, 0.0, 2024-03-13 20:37:58.973
90.0, 889.2827612138353, 4576.450127528515, 364.44577088207006, 143.88891089521348, 0.01600000075995922, -0.17600000835955143, 1.0400000493973494, 0.0, 0.0, 0.0, 0.0, 0.0, 1.7103874789735482E9, 0.0, 2024-03-13 20:37:58.973
91.0, 992.7078245384619, 4439.562309350353, 511.3770903912373, 21.145394349470735, 0.01600000075995922, -0.17600000835955143, 1.0400000493973494, 0.0, 0.0, 0.0, 0.0, 0.0, 1.7103874789844222E9, 0.0, 2024-03-13 20:37:58.984
91.0, 961.4534806087613, 4554.493174888659, 422.4123502452858, 188.54331636615098, 0.01600000075995922, -0.17600000835955143, 1.0400000493973494, 0.0, 0.0, 0.0, 0.0, 0.0, 1.7103874789844222E9, 0.0, 2024-03-13 20:37:58.984
92.0, 888.7105565206148, 4625.304440649692, 329.784378092736, 205.874012760818, 0.01600000075995922, -0.17600000835955143, 1.0400000493973494, 0.0, 0.0, 0.0, 0.0, 0.0, 1.7103874789992964E9, 0.0, 2024-03-13 20:37:58.999
92.0, 667.5740120406263, 4647.083748041652, 164.64161574933678, 213.3781220219098, 0.01600000075995922, -0.17600000835955143, 1.0400000493973494, 0.0, 0.0, 0.0, 0.0, 0.0, 1.7103874789992964E9, 0.0, 2024-03-13 20:37:58.999
93.0, 873.3040386531502, 4855.371866223868, 353.01850656745955, -8.390465550590307, 0.01600000075995922, -0.17600000835955143, 1.0400000493973494, 0.0, 0.0, 0.0, 0.0, 0.0, 1.7103874790150611E9, 0.0, 2024-03-13 20:37:59.015
93.0, 786.349494733382, 5023.001662037801, 224.76050753705204, 140.03868389083073, 0.01600000075995922, -0.17600000835955143, 1.0400000493973494, 0.0, 0.0, 0.0, 0.0, 0.0, 1.7103874790150611E9, 0.0, 2024-03-13 20:37:59.015
94.0, 813.160837515723, 4900.950026983861, 306.46610186900944, -32.74095416208729, 0.01600000075995922, -0.17600000835955143, 1.0400000493973494, 0.0, 0.0, 0.0, 0.0, 0.0, 1.710387479015738E9, 0.0, 2024-03-13 20:37:59.015
94.0, 900.2126188343391, 4829.974205624778, 403.2565826722421, -49.555544362869114, 0.01600000075995922, -0.17600000835955143, 1.0400000493973494, 0.0, 0.0, 0.0, 0.0, 0.0, 1.710387479015738E9, 0.0, 2024-03-13 20:37:59.015
95.0, 1093.8085400406271, 4808.580107928254, 564.5322884614579, -50.74296259880066, 0.01600000075995922, -0.17600000835955143, 1.0400000493973494, 0.0, 0.0, 0.0, 0.0, 0.0, 1.7103874790294096E9, 0.0, 2024-03-13 20:37:59.029
95.0, 868.9264857550152, 4572.343717377167, 359.2136508440599, 140.9605692299083, 0.01600000075995922, -0.17600000835955143, 1.0400000493973494, 0.0, 0.0, 0.0, 0.0, 0.0, 1.7103874790294096E9, 0.0, 2024-03-13 20:37:59.029
96.0, 1001.9378976291046, 4438.350581764709, 506.8181523452513, 23.32575602363795, 0.01600000075995922, -0.17600000835955143, 1.0400000493973494, 0.0, 0.0, 0.0, 0.0, 0.0, 1.7103874790450091E9, 0.0, 2024-03-13 20:37:59.045
96.0, 977.340575620532, 4557.64217065135, 414.19952994259074, 188.1992455702275, 0.01600000075995922, -0.17600000835955143, 1.0400000493973494, 0.0, 0.0, 0.0, 0.0, 0.0, 1.7103874790450091E9, 0.0, 2024-03-13 20:37:59.045
97.0, 870.82261503255, 4625.1286653517745, 326.7849783282727, 207.85615973733366, 0.01600000075995922, -0.17600000835955143, 1.0400000493973494, 0.0, 0.0, 0.0, 0.0, 0.0, 1.7103874790457091E9, 0.0, 2024-03-13 20:37:59.045
97.0, 661.9417227073573, 4656.055768035352, 170.28886468242854, 222.98966490803286, 0.01600000075995922, -0.17600000835955143, 1.0400000493973494, 0.0, 0.0, 0.0, 0.0, 0.0, 1.7103874790457091E9, 0.0, 2024-03-13 20:37:59.045
98.0, 877.1972745070234, 4861.075213656295, 360.0794376838021, -2.0251558260060847, 0.01600000075995922, -0.17600000835955143, 1.0400000493973494, 0.0, 0.0, 0.0, 0.0, 0.0, 1.710387479059362E9, 0.0, 2024-03-13 20:37:59.059
98.0, 772.8372361934744, 5015.267548929434, 221.81720627192408, 136.21276623615995, 0.01600000075995922, -0.17600000835955143, 1.0400000493973494, 0.0, 0.0, 0.0, 0.0, 0.0, 1.710387479059362E9, 0.0, 2024-03-13 20:37:59.059
99.0, 810.9991753413342, 4881.330511816312, 291.5775601454079, -50.15766825573519, 0.01600000075995922, -0.17600000835955143, 1.0400000493973494, 0.0, 0.0, 0.0, 0.0, 0.0, 1.710387479075141E9, 0.0, 2024-03-13 20:37:59.075
99.0, 903.7879631919786, 4819.420207949821, 393.88439338328317, -67.18917265394703, 0.01600000075995922, -0.17600000835955143, 1.0400000493973494, 0.0, 0.0, 0.0, 0.0, 0.0, 1.710387479075141E9, 0.0, 2024-03-13 20:37:59.075
100.0, 1103.5846385248005, 4795.935506178066, 552.579568203073, -66.56460936134681, 0.01600000075995922, -0.17600000835955143, 1.0400000493973494, 0.0, 0.0, 0.0, 0.0, 0.0, 1.7103874790758572E9, 0.0, 2024-03-13 20:37:59.075
100.0, 886.8518262426369, 4564.153336474206, 357.1342664686963, 135.18803364830092, 0.01600000075995922, -0.17600000835955143, 1.0400000493973494, 0.0, 0.0, 0.0, 0.0, 0.0, 1.7103874790758572E9, 0.0, 2024-03-13 20:37:59.075
0.0, -558.8289410290308, -315.5503188613802, -320.5281257024035, -487.32392382621765, 0.01600000075995922, -0.17600000835955143, 1.0400000493973494, 0.0, 0.0, 0.0, 0.0, 0.0, 1.7103874790902903E9, 0.0, 2024-03-13 20:37:59.090
1.0, -594.1074173110537, -203.14014589320868, -406.5533044831827, -323.826717463322, 0.01600000075995922, -0.17600000835955143, 1.0400000493973494, 0.0, 0.0, 0.0, 0.0, 0.0, 1.7103874790907478E9, 0.0, 2024-03-13 20:37:59.090
1.0, -661.4798450628296, -129.74086936283857, -493.71354290051386, -299.37525155302137, 0.01600000075995922, -0.17600000835955143, 1.0400000493973494, 0.0, 0.0, 0.0, 0.0, 0.0, 1.7103874790907478E9, 0.0, 2024-03-13 20:37:59.090
2.0, -892.5458239251748, -100.45184285985306, -654.1066323001869, -293.43816037336364, 0.01600000075995922, -0.17600000835955143, 1.0400000493973494, 0.0, 0.0, 0.0, 0.0, 0.0, 1.7103874791043367E9, 0.0, 2024-03-13 20:37:59.104
2.0, -669.2644468205981, 104.4591456623748, -471.79211931023747, -517.7536198156886, 0.01600000075995922, -0.17600000835955143, 1.0400000493973494, 0.0, 0.0, 0.0, 0.0, 0.0, 1.7103874791043367E9, 0.0, 2024-03-13 20:37:59.104
3.0, -777.2147890916094, 260.06142321880907, -613.2519651842304, -381.6025619287975, 0.01600000075995922, -0.17600000835955143, 1.0400000493973494, 0.0, 0.0, 0.0, 0.0, 0.0, 1.7103874791199632E9, 0.0, 2024-03-13 20:37:59.119
3.0, -736.8612685697153, 145.56064617540687, -527.4437006008811, -548.394620152656, 0.01600000075995922, -0.17600000835955143, 1.0400000493973494, 0.0, 0.0, 0.0, 0.0, 0.0, 1.7103874791199632E9, 0.0, 2024-03-13 20:37:59.119
4.0, -646.5408146898262, 74.35669091902673, -435.92647873517126, -572.4421768677421, 0.01600000075995922, -0.17600000835955143, 1.0400000493973494, 0.0, 0.0, 0.0, 0.0, 0.0, 1.7103874791206925E9, 0.0, 2024-03-13 20:37:59.120
4.0, -424.1065249252133, 55.81987678864971, -288.6492184801027, -575.9520729761571, 0.01600000075995922, -0.17600000835955143, 1.0400000493973494, 0.0, 0.0, 0.0, 0.0, 0.0, 1.7103874791206925E9, 0.0, 2024-03-13 20:37:59.120
5.0, -656.5693564210087, -170.02333178557456, -481.1362593495287, -375.0334276566282, 0.01600000075995922, -0.17600000835955143, 1.0400000493973494, 0.0, 0.0, 0.0, 0.0, 0.0, 1.7103874791343317E9, 0.0, 2024-03-13 20:37:59.134
5.0, -544.5200837985612, -311.705701706931, -330.9325273791328, -493.5246779527515, 0.01600000075995922, -0.17600000835955143, 1.0400000493973494, 0.0, 0.0, 0.0, 0.0, 0.0, 1.7103874791343317E9, 0.0, 2024-03-13 20:37:59.134
6.0, -585.299952915404, -193.47250450775027, -409.4068481493741, -320.6440626010299, 0.01600000075995922, -0.17600000835955143, 1.0400000493973494, 0.0, 0.0, 0.0, 0.0, 0.0, 1.7103874791503158E9, 0.0, 2024-03-13 20:37:59.150
6.0, -667.938652286306, -117.47025760821998, -485.38478569919243, -289.6178525686264, 0.01600000075995922, -0.17600000835955143, 1.0400000493973494, 0.0, 0.0, 0.0, 0.0, 0.0, 1.7103874791503158E9, 0.0, 2024-03-13 20:37:59.150
7.0, -864.0328266629949, -89.37799909105524, -642.5017227376811, -281.58267751382664, 0.01600000075995922, -0.17600000835955143, 1.0400000493973494, 0.0, 0.0, 0.0, 0.0, 0.0, 1.710387479151E9, 0.0, 2024-03-13 20:37:59.151
7.0, -656.7993602682836, 113.70791825279593, -459.86183845158666, -504.05810617795214, 0.01600000075995922, -0.17600000835955143, 1.0400000493973494, 0.0, 0.0, 0.0, 0.0, 0.0, 1.710387479151E9, 0.0, 2024-03-13 20:37:59.151
8.0, -770.6811838690192, 272.1599995754659, -604.6875942857005, -366.6392222060822, 0.01600000075995922, -0.17600000835955143, 1.0400000493973494, 0.0, 0.0, 0.0, 0.0, 0.0, 1.71038747916464E9, 0.0, 2024-03-13 20:37:59.164
8.0, -732.8707953169942, 146.07675236929208, -528.4123346894048, -546.838821771089, 0.01600000075995922, -0.17600000835955143, 1.0400000493973494, 0.0, 0.0, 0.0, 0.0, 0.0, 1.71038747916464E9, 0.0, 2024-03-13 20:37:59.164
9.0, -636.5515419081785, 80.75565974321216, -421.70737910363823, -560.3436005110852, 0.01600000075995922, -0.17600000835955143, 1.0400000493973494, 0.0, 0.0, 0.0, 0.0, 0.0, 1.7103874791803827E9, 0.0, 2024-03-13 20:37:59.180
9.0, -439.09230404766276, 54.22293950757012, -273.2483104625717, -573.696913302876, 0.01600000075995922, -0.17600000835955143, 1.0400000493973494, 0.0, 0.0, 0.0, 0.0, 0.0, 1.7103874791803827E9, 0.0, 2024-03-13 20:37:59.180
10.0, -661.6257011611015, -169.18559419550002, -465.6381139331497, -368.5521810334176, 0.01600000075995922, -0.17600000835955143, 1.0400000493973494, 0.0, 0.0, 0.0, 0.0, 0.0, 1.7103874791809232E9, 0.0, 2024-03-13 20:37:59.180
10.0, -534.5233312170021, -300.42616344057024, -309.9890876272693, -479.05500502418727, 0.01600000075995922, -0.17600000835955143, 1.0400000493973494, 0.0, 0.0, 0.0, 0.0, 0.0, 1.7103874791809232E9, 0.0, 2024-03-13 20:37:59.180
11.0, -579.0318805896677, -192.69460531696677, -396.39199630357325, -311.5523658087477, 0.01600000075995922, -0.17600000835955143, 1.0400000493973494, 0.0, 0.0, 0.0, 0.0, 0.0, 1.7103874791944015E9, 0.0, 2024-03-13 20:37:59.194
11.0, -670.9492717506364, -103.29603677615523, -482.6471789316274, -280.9076255718246, 0.01600000075995922, -0.17600000835955143, 1.0400000493973494, 0.0, 0.0, 0.0, 0.0, 0.0, 1.7103874791944015E9, 0.0, 2024-03-13 20:37:59.194
12.0, -863.3222456714138, -74.87466706288978, -644.7905415105633, -270.13110384950414, 0.01600000075995922, -0.17600000835955143, 1.0400000493973494, 0.0, 0.0, 0.0, 0.0, 0.0, 1.710387479210018E9, 0.0, 2024-03-13 20:37:59.210
12.0, -645.059814307373, 127.11545959394425, -458.79222706425935, -500.23966832319275, 0.01600000075995922, -0.17600000835955143, 1.0400000493973494, 0.0, 0.0, 0.0, 0.0, 0.0, 1.710387479210018E9, 0.0, 2024-03-13 20:37:59.210
13.0, -763.1976440576836, 276.947071518749, -606.9090948593803, -371.66564774652943, 0.01600000075995922, -0.17600000835955143, 1.0400000493973494, 0.0, 0.0, 0.0, 0.0, 0.0, 1.7103874792106922E9, 0.0, 2024-03-13 20:37:59.210
13.0, -738.8808145457879, 146.54423986375332, -533.4798991293646, -547.4035466643982, 0.01600000075995922, -0.17600000835955143, 1.0400000493973494, 0.0, 0.0, 0.0, 0.0, 0.0, 1.7103874792106922E9, 0.0, 2024-03-13 20:37:59.210
14.0, -627.6169209140353, 86.38420917652547, -428.8805072186515, -561.3010148997419, 0.01600000075995922, -0.17600000835955143, 1.0400000493973494, 0.0, 0.0, 0.0, 0.0, 0.0, 1.710387479224344E9, 0.0, 2024-03-13 20:37:59.224
14.0, -421.5110343559645, 64.54880328522995, -272.5302496710792, -561.4001222485676, 0.01600000075995922, -0.17600000835955143, 1.0400000493973494, 0.0, 0.0, 0.0, 0.0, 0.0, 1.710387479224344E9, 0.0, 2024-03-13 20:37:59.224
15.0, -644.9906261581928, -160.25471310131252, -475.0514421216212, -365.0291952751577, 0.01600000075995922, -0.17600000835955143, 1.0400000493973494, 0.0, 0.0, 0.0, 0.0, 0.0, 1.710387479240003E9, 0.0, 2024-03-13 20:37:59.240
15.0, -545.1409071912058, -297.27716767787933, -318.5310191260651, -478.3032851330936, 0.01600000075995922, -0.17600000835955143, 1.0400000493973494, 0.0, 0.0, 0.0, 0.0, 0.0, 1.710387479240003E9, 0.0, 2024-03-13 20:37:59.240
16.0, -566.2863015406765, -192.3093956215307, -411.8340432206169, -323.718260364607, 0.01600000075995922, -0.17600000835955143, 1.0400000493973494, 0.0, 0.0, 0.0, 0.0, 0.0, 1.7103874792406912E9, 0.0, 2024-03-13 20:37:59.240
16.0, -659.0115110920742, -124.23573662806302, -502.2255551996641, -301.79870672430843, 0.01600000075995922, -0.17600000835955143, 1.0400000493973494, 0.0, 0.0, 0.0, 0.0, 0.0, 1.7103874792406912E9, 0.0, 2024-03-13 20:37:59.240
17.0, -871.400429575704, -86.06444773031399, -655.3707184852101, -284.2941049817018, 0.01600000075995922, -0.17600000835955143, 1.0400000493973494, 0.0, 0.0, 0.0, 0.0, 0.0, 1.710387479254353E9, 0.0, 2024-03-13 20:37:59.254
17.0, -663.7892332854681, 108.4234396154061, -464.6638699946925, -513.1984216696583, 0.01600000075995922, -0.17600000835955143, 1.0400000493973494, 0.0, 0.0, 0.0, 0.0, 0.0, 1.710387479254353E9, 0.0, 2024-03-13 20:37:59.254
18.0, -767.2516956096515, 275.67176563385874, -599.2310802503489, -370.7456323574297, 0.01600000075995922, -0.17600000835955143, 1.0400000493973494, 0.0, 0.0, 0.0, 0.0, 0.0, 1.710387479270022E9, 0.0, 2024-03-13 20:37:59.270
18.0, -738.9780519446358, 147.57271235156804, -531.3481561546214, -552.9348586988635, 0.01600000075995922, -0.17600000835955143, 1.0400000493973494, 0.0, 0.0, 0.0, 0.0, 0.0, 1.710387479270022E9, 0.0, 2024-03-13 20:37:59.270
19.0, -637.8567669927143, 86.48144657537341, -425.44727905932814, -565.3849856513552, 0.01600000075995922, -0.17600000835955143, 1.0400000493973494, 0.0, 0.0, 0.0, 0.0, 0.0, 1.7103874792707157E9, 0.0, 2024-03-13 20:37:59.270
19.0, -420.93508976278827, 58.07877636188641, -270.8622542908415, -571.4567132294178, 0.01600000075995922, -0.17600000835955143, 1.0400000493973494, 0.0, 0.0, 0.0, 0.0, 0.0, 1.7103874792707157E9, 0.0, 2024-03-13 20:37:59.270
20.0, -643.8574364716187, -157.31889163609594, -458.2368519208394, -358.4731506528333, 0.01600000075995922, -0.17600000835955143, 1.0400000493973494, 0.0, 0.0, 0.0, 0.0, 0.0, 1.7103874792845376E9, 0.0, 2024-03-13 20:37:59.284
20.0, -524.3807225371711, -290.67998415604234, -305.1421772846952, -472.2334275050089, 0.01600000075995922, -0.17600000835955143, 1.0400000493973494, 0.0, 0.0, 0.0, 0.0, 0.0, 1.7103874792845376E9, 0.0, 2024-03-13 20:37:59.284
21.0, -583.646917134989, -194.4635779960081, -407.77251186873764, -323.1946743708104, 0.01600000075995922, -0.17600000835955143, 1.0400000493973494, 0.0, 0.0, 0.0, 0.0, 0.0, 1.71038747930005E9, 0.0, 2024-03-13 20:37:59.300
21.0, -675.7887022932991, -118.94003829080611, -501.23448171140626, -300.3738048411906, 0.01600000075995922, -0.17600000835955143, 1.0400000493973494, 0.0, 0.0, 0.0, 0.0, 0.0, 1.71038747930005E9, 0.0, 2024-03-13 20:37:59.300
22.0, -866.4039232349023, -77.38040003320202, -656.2047161753289, -282.5176525027491, 0.01600000075995922, -0.17600000835955143, 1.0400000493973494, 0.0, 0.0, 0.0, 0.0, 0.0, 1.7103874793008711E9, 0.0, 2024-03-13 20:37:59.300
22.0, -651.1408916353248, 126.43853770196438, -467.02374686673284, -504.7873866693117, 0.01600000075995922, -0.17600000835955143, 1.0400000493973494, 0.0, 0.0, 0.0, 0.0, 0.0, 1.7103874793008711E9, 0.0, 2024-03-13 20:37:59.300
23.0, -759.9925497956574, 275.0509422412142, -613.1584676853381, -377.1296415817924, 0.01600000075995922, -0.17600000835955143, 1.0400000493973494, 0.0, 0.0, 0.0, 0.0, 0.0, 1.710387479314608E9, 0.0, 2024-03-13 20:37:59.314
23.0, -726.1240157969296, 151.97457459941506, -540.7764439429156, -548.237544354517, 0.01600000075995922, -0.17600000835955143, 1.0400000493973494, 0.0, 0.0, 0.0, 0.0, 0.0, 1.710387479314608E9, 0.0, 2024-03-13 20:37:59.314
24.0, -636.8432541047223, 82.06462472770363, -434.0527888573706, -574.9703492377885, 0.01600000075995922, -0.17600000835955143, 1.0400000493973494, 0.0, 0.0, 0.0, 0.0, 0.0, 1.7103874793300064E9, 0.0, 2024-03-13 20:37:59.330
24.0, -427.9249627799727, 52.6372219263576, -277.055528617464, -577.6836466556415, 0.01600000075995922, -0.17600000835955143, 1.0400000493973494, 0.0, 0.0, 0.0, 0.0, 0.0, 1.7103874793300064E9, 0.0, 2024-03-13 20:37:59.330
25.0, -650.6416149912402, -167.88036911096424, -472.1305802562274, -370.2874946128577, 0.01600000075995922, -0.17600000835955143, 1.0400000493973494, 0.0, 0.0, 0.0, 0.0, 0.0, 1.7103874793306785E9, 0.0, 2024-03-13 20:37:59.330
25.0, -528.9022615836002, -293.1819772263989, -309.97786792740226, -475.57689806539565, 0.01600000075995922, -0.17600000835955143, 1.0400000493973494, 0.0, 0.0, 0.0, 0.0, 0.0, 1.7103874793306785E9, 0.0, 2024-03-13 20:37:59.330
26.0, -583.1495104408823, -199.44886463694274, -406.5570443831384, -321.3845627922565, 0.01600000075995922, -0.17600000835955143, 1.0400000493973494, 0.0, 0.0, 0.0, 0.0, 0.0, 1.710387479344767E9, 0.0, 2024-03-13 20:37:59.344
26.0, -669.4233925687149, -120.58559427130967, -497.98076874995604, -296.9293569820002, 0.01600000075995922, -0.17600000835955143, 1.0400000493973494, 0.0, 0.0, 0.0, 0.0, 0.0, 1.710387479344767E9, 0.0, 2024-03-13 20:37:59.344
27.0, -874.3212914410979, -81.79348198091611, -648.279868169222, -275.307125388179, 0.01600000075995922, -0.17600000835955143, 1.0400000493973494, 0.0, 0.0, 0.0, 0.0, 0.0, 1.7103874793604279E9, 0.0, 2024-03-13 20:37:59.360
27.0, -663.8154125851579, 112.47749116737396, -465.72600158210844, -517.132796423044, 0.01600000075995922, -0.17600000835955143, 1.0400000493973494, 0.0, 0.0, 0.0, 0.0, 0.0, 1.7103874793604279E9, 0.0, 2024-03-13 20:37:59.360
28.0, -774.0470938291401, 266.2359980456531, -605.0054857819341, -378.3189297677018, 0.01600000075995922, -0.17600000835955143, 1.0400000493973494, 0.0, 0.0, 0.0, 0.0, 0.0, 1.7103874793608897E9, 0.0, 2024-03-13 20:37:59.360
28.0, -740.0401835320517, 142.2171756150201, -527.9710264946334, -544.8230156949721, 0.01600000075995922, -0.17600000835955143, 1.0400000493973494, 0.0, 0.0, 0.0, 0.0, 0.0, 1.7103874793608897E9, 0.0, 2024-03-13 20:37:59.360
29.0, -667.9704414359294, 74.90645621251315, -428.3606611248106, -565.7664554468356, 0.01600000075995922, -0.17600000835955143, 1.0400000493973494, 0.0, 0.0, 0.0, 0.0, 0.0, 1.7103874793744605E9, 0.0, 2024-03-13 20:37:59.374
29.0, -430.01556685520336, 54.772704801056534, -266.6847860403359, -567.6756743742153, 0.01600000075995922, -0.17600000835955143, 1.0400000493973494, 0.0, 0.0, 0.0, 0.0, 0.0, 1.7103874793744605E9, 0.0, 2024-03-13 20:37:59.374
30.0, -645.0130655579269, -167.54751801490784, -462.5676560695283, -364.1802379852161, 0.01600000075995922, -0.17600000835955143, 1.0400000493973494, 0.0, 0.0, 0.0, 0.0, 0.0, 1.7103874793903089E9, 0.0, 2024-03-13 20:37:59.390
30.0, -527.8027309966274, -304.01272749807686, -309.76469362992793, -481.0895106000826, 0.01600000075995922, -0.17600000835955143, 1.0400000493973494, 0.0, 0.0, 0.0, 0.0, 0.0, 1.7103874793903089E9, 0.0, 2024-03-13 20:37:59.390
31.0, -588.9650548719801, -213.9933355646208, -419.55693662911654, -335.13617492932826, 0.01600000075995922, -0.17600000835955143, 1.0400000493973494, 0.0, 0.0, 0.0, 0.0, 0.0, 1.7103874793906896E9, 0.0, 2024-03-13 20:37:59.390
31.0, -677.3594602746889, -130.18591745756567, -508.9947741194628, -307.5880718557164, 0.01600000075995922, -0.17600000835955143, 1.0400000493973494, 0.0, 0.0, 0.0, 0.0, 0.0, 1.7103874793906896E9, 0.0, 2024-03-13 20:37:59.390
32.0, -877.1262164078653, -88.73473629867658, -664.6568900751881, -287.98912613792345, 0.01600000075995922, -0.17600000835955143, 1.0400000493973494, 0.0, 0.0, 0.0, 0.0, 0.0, 1.7103874794045112E9, 0.0, 2024-03-13 20:37:59.404
32.0, -673.2175210737623, 104.30580976419151, -480.58836400602013, -525.225939927157, 0.01600000075995922, -0.17600000835955143, 1.0400000493973494, 0.0, 0.0, 0.0, 0.0, 0.0, 1.7103874794045112E9, 0.0, 2024-03-13 20:37:59.404
33.0, -777.3120264904574, 251.24647902324796, -624.1425538551994, -391.84614790743217, 0.01600000075995922, -0.17600000835955143, 1.0400000493973494, 0.0, 0.0, 0.0, 0.0, 0.0, 1.7103874794200366E9, 0.0, 2024-03-13 20:37:59.420
33.0, -750.7063782056794, 140.9530894299969, -528.6068094871007, -548.3048625537194, 0.01600000075995922, -0.17600000835955143, 1.0400000493973494, 0.0, 0.0, 0.0, 0.0, 0.0, 1.7103874794200366E9, 0.0, 2024-03-13 20:37:59.420
34.0, -640.874866256956, 67.01152740605175, -427.3957669362426, -573.2836543577723, 0.01600000075995922, -0.17600000835955143, 1.0400000493973494, 0.0, 0.0, 0.0, 0.0, 0.0, 1.7103874794206946E9, 0.0, 2024-03-13 20:37:59.420
34.0, -444.2384063866921, 40.688241567928344, -274.78166944440454, -577.8556820536032, 0.01600000075995922, -0.17600000835955143, 1.0400000493973494, 0.0, 0.0, 0.0, 0.0, 0.0, 1.7103874794206946E9, 0.0, 2024-03-13 20:37:59.420
35.0, -665.0140505209565, -181.18319325335324, -465.99714432889596, -369.692850519903, 0.01600000075995922, -0.17600000835955143, 1.0400000493973494, 0.0, 0.0, 0.0, 0.0, 0.0, 1.710387479434388E9, 0.0, 2024-03-13 20:37:59.434
35.0, -536.3297028956003, -303.2497879071161, -308.0293800504878, -475.65543596446514, 0.01600000075995922, -0.17600000835955143, 1.0400000493973494, 0.0, 0.0, 0.0, 0.0, 0.0, 1.710387479434388E9, 0.0, 2024-03-13 20:37:59.434
36.0, -595.5472787939943, -211.45768339466304, -411.92006091959774, -334.2722580395639, 0.01600000075995922, -0.17600000835955143, 1.0400000493973494, 0.0, 0.0, 0.0, 0.0, 0.0, 1.7103874794499905E9, 0.0, 2024-03-13 20:37:59.449
36.0, -661.7865168591961, -131.0273949475959, -497.0270942612551, -301.94082292262465, 0.01600000075995922, -0.17600000835955143, 1.0400000493973494, 0.0, 0.0, 0.0, 0.0, 0.0, 1.7103874794499905E9, 0.0, 2024-03-13 20:37:59.449
37.0, -883.6598216304556, -93.29367434466258, -655.5838927826844, -283.1983142946847, 0.01600000075995922, -0.17600000835955143, 1.0400000493973494, 0.0, 0.0, 0.0, 0.0, 0.0, 1.7103874794506843E9, 0.0, 2024-03-13 20:37:59.450
37.0, -675.4951201467775, 101.32884939946234, -465.8045394811779, -514.2044547577389, 0.01600000075995922, -0.17600000835955143, 1.0400000493973494, 0.0, 0.0, 0.0, 0.0, 0.0, 1.7103874794506843E9, 0.0, 2024-03-13 20:37:59.450
38.0, -775.7300488092005, 256.43372026178986, -610.0506108221598, -382.2458247211762, 0.01600000075995922, -0.17600000835955143, 1.0400000493973494, 0.0, 0.0, 0.0, 0.0, 0.0, 1.7103874794647098E9, 0.0, 2024-03-13 20:37:59.464
38.0, -727.1225690850988, 154.84307786542922, -519.208440898452, -538.7718575666659, 0.01600000075995922, -0.17600000835955143, 1.0400000493973494, 0.0, 0.0, 0.0, 0.0, 0.0, 1.7103874794647098E9, 0.0, 2024-03-13 20:37:59.464
39.0, -641.8360205455683, 81.02119264006615, -424.5347434701398, -563.4664169740863, 0.01600000075995922, -0.17600000835955143, 1.0400000493973494, 0.0, 0.0, 0.0, 0.0, 0.0, 1.710387479480268E9, 0.0, 2024-03-13 20:37:59.480
39.0, -426.01761380257085, 54.6754674022086, -276.2813693266362, -571.6511880271137, 0.01600000075995922, -0.17600000835955143, 1.0400000493973494, 0.0, 0.0, 0.0, 0.0, 0.0, 1.710387479480268E9, 0.0, 2024-03-13 20:37:59.480
40.0, -657.6988062076271, -158.50817982200533, -463.4689719588496, -361.96247731149197, 0.01600000075995922, -0.17600000835955143, 1.0560000501573086, 0.0, 0.0, 0.0, 0.0, 0.0, 1.710387479481138E9, 0.0, 2024-03-13 20:37:59.481
40.0, -525.6074097226374, -294.4759826110676, -319.5632315138355, -484.4629003601149, 0.01600000075995922, -0.17600000835955143, 1.0560000501573086, 0.0, 0.0, 0.0, 0.0, 0.0, 1.710387479481138E9, 0.0, 2024-03-13 20:37:59.481
41.0, -588.6247239760123, -197.59013435896486, -423.3417153842747, -336.58351621218026, 0.01600000075995922, -0.17600000835955143, 1.0560000501573086, 0.0, 0.0, 0.0, 0.0, 0.0, 1.7103874794943428E9, 0.0, 2024-03-13 20:37:59.494
41.0, -677.1687253769487, -126.21414370462298, -510.35235780337825, -311.05121921468526, 0.01600000075995922, -0.17600000835955143, 1.0560000501573086, 0.0, 0.0, 0.0, 0.0, 0.0, 1.7103874794943428E9, 0.0, 2024-03-13 20:37:59.494
42.0, -881.2326265592128, -87.81098100962117, -667.9255626364611, -289.6683412180282, 0.01600000075995922, -0.17600000835955143, 1.0560000501573086, 0.0, 0.0, 0.0, 0.0, 0.0, 1.7103874795099812E9, 0.0, 2024-03-13 20:37:59.509
42.0, -666.4520420539193, 107.6418005246669, -476.72878725174814, -523.7225001449697, 0.01600000075995922, -0.17600000835955143, 1.0560000501573086, 0.0, 0.0, 0.0, 0.0, 0.0, 1.7103874795099812E9, 0.0, 2024-03-13 20:37:59.509
43.0, -765.4341042311862, 270.9482719898224, -609.7813380253501, -375.0502572064288, 0.01600000075995922, -0.17600000835955143, 1.0560000501573086, 0.0, 0.0, 0.0, 0.0, 0.0, 1.7103874795106933E9, 0.0, 2024-03-13 20:37:59.510
43.0, -721.8567899474874, 153.89688317663968, -523.404608648736, -538.1285947742872, 0.01600000075995922, -0.17600000835955143, 1.0560000501573086, 0.0, 0.0, 0.0, 0.0, 0.0, 1.7103874795106933E9, 0.0, 2024-03-13 20:37:59.510
44.0, -644.8952587093227, 77.75999987870455, -425.9110266538337, -565.231649753172, 0.01600000075995922, -0.17600000835955143, 1.0560000501573086, 0.0, 0.0, 0.0, 0.0, 0.0, 1.7103874795243533E9, 0.0, 2024-03-13 20:37:59.524
44.0, -440.0796376359649, 44.16260862676427, -272.7509037684649, -579.4114804351702, 0.01600000075995922, -0.17600000835955143, 1.0560000501573086, 0.0, 0.0, 0.0, 0.0, 0.0, 1.7103874795243533E9, 0.0, 2024-03-13 20:37:59.524
45.0, -657.7661244068295, -169.80267768818885, -462.2684640730731, -361.6595454150811, 0.01600000075995922, -0.17600000835955143, 1.0560000501573086, 0.0, 0.0, 0.0, 0.0, 0.0, 1.7103874795399573E9, 0.0, 2024-03-13 20:37:59.539
45.0, -527.1893874038942, -297.5501803746447, -302.7785605126992, -476.5230927541852, 0.01600000075995922, -0.17600000835955143, 1.0560000501573086, 0.0, 0.0, 0.0, 0.0, 0.0, 1.7103874795399573E9, 0.0, 2024-03-13 20:37:59.539
46.0, -604.8783291834407, -204.25089618004858, -410.51011863630265, -330.87268897984177, 0.01600000075995922, -0.17600000835955143, 1.0560000501573086, 0.0, 0.0, 0.0, 0.0, 0.0, 1.710387479540675E9, 0.0, 2024-03-13 20:37:59.540
46.0, -665.9714649096131, -116.97659081406891, -497.0009149615653, -294.2964674131945, 0.01600000075995922, -0.17600000835955143, 1.0560000501573086, 0.0, 0.0, 0.0, 0.0, 0.0, 1.710387479540675E9, 0.0, 2024-03-13 20:37:59.540
47.0, -860.8613915005699, -67.0133973560296, -641.6490255477838, -267.5543127800338, 0.01600000075995922, -0.17600000835955143, 1.0560000501573086, 0.0, 0.0, 0.0, 0.0, 0.0, 1.710387479554346E9, 0.0, 2024-03-13 20:37:59.554
47.0, -678.8984291064553, 108.00457082036883, -466.8180523691699, -24.028857215307653, 0.01600000075995922, -0.17600000835955143, 1.0560000501573086, 0.0, 0.0, 0.0, 0.0, 0.0, 1.710387479554346E9, 0.0, 2024-03-13 20:37:59.554
48.0, -768.3512261966243, 267.8329353267327, -608.251718943473, 114.22776434663683, 0.01600000075995922, -0.17600000835955143, 1.0560000501573086, 0.0, 0.0, 0.0, 0.0, 0.0, 1.7103874795701911E9, 0.0, 2024-03-13 20:37:59.570
48.0, -728.8130038650706, 160.08267770335078, -520.1695951870643, -45.84743355680257, 0.01600000075995922, -0.17600000835955143, 1.0560000501573086, 0.0, 0.0, 0.0, 0.0, 0.0, 1.7103874795701911E9, 0.0, 2024-03-13 20:37:59.570
49.0, -644.0163822197355, 80.3741899477318, -428.3419616250321, -83.02951891627163, 0.01600000075995922, -0.17600000835955143, 1.0560000501573086, 0.0, 0.0, 0.0, 0.0, 0.0, 1.710387479570881E9, 0.0, 2024-03-13 20:37:59.570
49.0, -439.98614013707265, 49.499445863533765, -276.0270561296493, -88.56644080067053, 0.01600000075995922, -0.17600000835955143, 1.0560000501573086, 0.0, 0.0, 0.0, 0.0, 0.0, 1.710387479570881E9, 0.0, 2024-03-13 20:37:59.570
50.0, -646.3332502422854, -157.73028063122183, -463.1697799623944, 129.91103481082246, 0.01600000075995922, -0.17600000835955143, 1.0400000493973494, 0.0, 0.0, 0.0, 0.0, 0.0, 1.7103874795852952E9, 0.0, 2024-03-13 20:37:59.585
50.0, -538.588602468837, -297.5202611749992, -313.8075254820287, 2.937691415194422, 0.01600000075995922, -0.17600000835955143, 1.0400000493973494, 0.0, 0.0, 0.0, 0.0, 0.0, 1.7103874795852952E9, 0.0, 2024-03-13 20:37:59.585
51.0, -582.8054396449588, -208.3236472317949, -413.9732659952715, 150.11023447150365, 0.01600000075995922, -0.17600000835955143, 1.0400000493973494, 0.0, 0.0, 0.0, 0.0, 0.0, 1.710387479600411E9, 0.0, 2024-03-13 20:37:59.600
51.0, -665.8293487112969, -120.03208907786757, -492.08294651983306, 189.60357800358906, 0.01600000075995922, -0.17600000835955143, 1.0400000493973494, 0.0, 0.0, 0.0, 0.0, 0.0, 1.710387479600411E9, 0.0, 2024-03-13 20:37:59.600
52.0, -876.4567743157968, -84.69564434653148, -653.7700413041748, 204.05268148239702, 0.01600000075995922, -0.17600000835955143, 1.0400000493973494, 0.0, 0.0, 0.0, 0.0, 0.0, 1.7103874796009367E9, 0.0, 2024-03-13 20:37:59.600
52.0, -671.1044775987975, 106.50113103818148, -466.5263401726261, -29.253497453406453, 0.01600000075995922, -0.17600000835955143, 1.0400000493973494, 0.0, 0.0, 0.0, 0.0, 0.0, 1.7103874796009367E9, 0.0, 2024-03-13 20:37:59.600
53.0, -774.5407606232911, 263.1244012825191, -609.9945123228244, 108.56181591376662, 0.01600000075995922, -0.17600000835955143, 1.0400000493973494, 0.0, 0.0, 0.0, 0.0, 0.0, 1.7103874796146412E9, 0.0, 2024-03-13 20:37:59.614
53.0, -738.9481327449903, 149.8465715246275, -520.6483023813926, -47.95673713181168, 0.01600000075995922, -0.17600000835955143, 1.0400000493973494, 0.0, 0.0, 0.0, 0.0, 0.0, 1.7103874796146412E9, 0.0, 2024-03-13 20:37:59.614
54.0, -641.2301567527466, 80.04133885167539, -419.1679870337248, -76.05834539886564, 0.01600000075995922, -0.17600000835955143, 1.0400000493973494, 0.0, 0.0, 0.0, 0.0, 0.0, 1.7103874796303587E9, 0.0, 2024-03-13 20:37:59.630
54.0, -437.4542278670706, 53.75545201310888, -269.867440902628, -82.08519417745993, 0.01600000075995922, -0.17600000835955143, 1.0400000493973494, 0.0, 0.0, 0.0, 0.0, 0.0, 1.7103874796303587E9, 0.0, 2024-03-13 20:37:59.630
55.0, -649.6954203024507, -152.7001151908189, -456.4491797420196, 138.0079182148911, 0.01600000075995922, -0.17600000835955143, 1.0400000493973494, 0.0, 0.0, 0.0, 0.0, 0.0, 1.7103874796310856E9, 0.0, 2024-03-13 20:37:59.631
55.0, -528.5133119882084, -284.63256592769176, -302.4494493165985, 22.183216587174684, 0.01600000075995922, -0.17600000835955143, 1.0400000493973494, 0.0, 0.0, 0.0, 0.0, 0.0, 1.7103874796310856E9, 0.0, 2024-03-13 20:37:59.631
56.0, -588.5910648764111, -196.6439396701753, -408.0417846655473, 163.63371271127835, 0.01600000075995922, -0.17600000835955143, 1.0400000493973494, 0.0, 0.0, 0.0, 0.0, 0.0, 1.7103874796445744E9, 0.0, 2024-03-13 20:37:59.644
56.0, -648.3453164184466, -110.38314719218761, -488.9825694565661, 200.99531326862052, 0.01600000075995922, -0.17600000835955143, 1.0400000493973494, 0.0, 0.0, 0.0, 0.0, 0.0, 1.7103874796445744E9, 0.0, 2024-03-13 20:37:59.644
57.0, -864.5489328568801, -67.46218535071239, -645.0373749076389, 218.2942205136642, 0.01600000075995922, -0.17600000835955143, 1.0400000493973494, 0.0, 0.0, 0.0, 0.0, 0.0, 1.7103874796600688E9, 0.0, 2024-03-13 20:37:59.660
57.0, -653.960776201915, 119.66557888220996, -462.3750512218103, -18.14973448496312, 0.01600000075995922, -0.17600000835955143, 1.0400000493973494, 0.0, 0.0, 0.0, 0.0, 0.0, 1.7103874796600688E9, 0.0, 2024-03-13 20:37:59.660
58.0, -763.5379749536514, 271.9879641775042, -609.5756435277872, 113.36758735682815, 0.01600000075995922, -0.17600000835955143, 1.0400000493973494, 0.0, 0.0, 0.0, 0.0, 0.0, 1.710387479660748E9, 0.0, 2024-03-13 20:37:59.660
58.0, -735.8963743811473, 160.77455919515342, -524.1114497403614, -51.692897187545896, 0.01600000075995922, -0.17600000835955143, 1.0400000493973494, 0.0, 0.0, 0.0, 0.0, 0.0, 1.710387479660748E9, 0.0, 2024-03-13 20:37:59.660
59.0, -626.8203222234733, 84.21880710218102, -422.2384448973462, -77.23641388490796, 0.01600000075995922, -0.17600000835955143, 1.0400000493973494, 0.0, 0.0, 0.0, 0.0, 0.0, 1.7103874796746385E9, 0.0, 2024-03-13 20:37:59.674
59.0, -446.7179600573145, 34.86895723687485, -282.41480525396764, -99.41215067217126, 0.01600000075995922, -0.17600000835955143, 1.0400000493973494, 0.0, 0.0, 0.0, 0.0, 0.0, 1.7103874796746385E9, 0.0, 2024-03-13 20:37:59.674
60.0, -657.3285561120138, -169.7054402893409, -466.7862632195465, 125.76348575996235, 0.01600000075995922, -0.17600000835955143, 1.0400000493973494, 0.0, 0.0, 0.0, 0.0, 0.0, 1.710387479689998E9, 0.0, 2024-03-13 20:37:59.689
60.0, -539.650734056253, -303.53776020370424, -308.8932969402522, 14.830573274288327, 0.01600000075995922, -0.17600000835955143, 1.0400000493973494, 0.0, 0.0, 0.0, 0.0, 0.0, 1.710387479689998E9, 0.0, 2024-03-13 20:37:59.689
61.0, -585.8796374085359, -213.24161567352712, -413.28512440342456, 152.98995743738487, 0.01600000075995922, -0.17600000835955143, 1.0400000493973494, 0.0, 0.0, 0.0, 0.0, 0.0, 1.7103874796907191E9, 0.0, 2024-03-13 20:37:59.690
61.0, -671.0726884491742, -121.89081935584545, -494.2259091944434, 195.09375113854185, 0.01600000075995922, -0.17600000835955143, 1.0400000493973494, 0.0, 0.0, 0.0, 0.0, 0.0, 1.7103874796907191E9, 0.0, 2024-03-13 20:37:59.690
62.0, -870.0465857917443, -75.03922266094014, -646.241622693371, 218.24186191428453, 0.01600000075995922, -0.17600000835955143, 1.0400000493973494, 0.0, 0.0, 0.0, 0.0, 0.0, 1.7103874797043333E9, 0.0, 2024-03-13 20:37:59.704
62.0, -664.7092486745678, 111.81552887521684, -459.7459015529603, -24.006417815573514, 0.01600000075995922, -0.17600000835955143, 1.0400000493973494, 0.0, 0.0, 0.0, 0.0, 0.0, 1.7103874797043333E9, 0.0, 2024-03-13 20:37:59.704
63.0, -779.5260472642258, 261.7069791993126, -609.9234542236663, 109.44069240335375, 0.01600000075995922, -0.17600000835955143, 1.0400000493973494, 0.0, 0.0, 0.0, 0.0, 0.0, 1.7103874797200124E9, 0.0, 2024-03-13 20:37:59.720
63.0, -725.4059550054371, 161.18220829032362, -517.880776414182, -40.55921501945704, 0.01600000075995922, -0.17600000835955143, 1.0400000493973494, 0.0, 0.0, 0.0, 0.0, 0.0, 1.7103874797200124E9, 0.0, 2024-03-13 20:37:59.720
64.0, -648.7660551634617, 75.82273170165718, -421.3520886078477, -75.32906490750611, 0.01600000075995922, -0.17600000835955143, 1.0400000493973494, 0.0, 0.0, 0.0, 0.0, 0.0, 1.7103874797207084E9, 0.0, 2024-03-13 20:37:59.720
64.0, -453.9434467717074, 26.82443243218586, -286.5062558054924, -98.92970357788727, 0.01600000075995922, -0.17600000835955143, 1.0400000493973494, 0.0, 0.0, 0.0, 0.0, 0.0, 1.7103874797207084E9, 0.0, 2024-03-13 20:37:59.720
65.0, -659.1087484909222, -167.03515172097832, -472.14927975600585, 128.49361272761598, 0.01600000075995922, -0.17600000835955143, 1.0400000493973494, 0.0, 0.0, 0.0, 0.0, 0.0, 1.7103874797346792E9, 0.0, 2024-03-13 20:37:59.734
65.0, -550.0252165333368, -294.64801800902933, -310.16486292518675, 13.90681798523292, 0.01600000075995922, -0.17600000835955143, 1.0400000493973494, 0.0, 0.0, 0.0, 0.0, 0.0, 1.7103874797346792E9, 0.0, 2024-03-13 20:37:59.734
66.0, -589.2231079689227, -210.1786376098171, -418.3826080430299, 149.74746417580172, 0.01600000075995922, -0.17600000835955143, 1.0400000493973494, 0.0, 0.0, 0.0, 0.0, 0.0, 1.7103874797503693E9, 0.0, 2024-03-13 20:37:59.750
66.0, -680.5234156372026, -135.11884549912065, -509.35754441516474, 179.61056532198563, 0.01600000075995922, -0.17600000835955143, 1.0400000493973494, 0.0, 0.0, 0.0, 0.0, 0.0, 1.7103874797503693E9, 0.0, 2024-03-13 20:37:59.750
67.0, -873.9772206451744, -79.34758740989491, -657.0162744657136, 211.30434749647975, 0.01600000075995922, -0.17600000835955143, 1.0400000493973494, 0.0, 0.0, 0.0, 0.0, 0.0, 1.7103874797509542E9, 0.0, 2024-03-13 20:37:59.750
67.0, -665.9770747595467, 105.20338575355709, -469.9969673315063, -30.405386639758945, 0.01600000075995922, -0.17600000835955143, 1.0400000493973494, 0.0, 0.0, 0.0, 0.0, 0.0, 1.7103874797509542E9, 0.0, 2024-03-13 20:37:59.750
68.0, -772.5623535467312, 260.1960596172139, -610.5741968159564, 108.58425531350076, 0.01600000075995922, -0.17600000835955143, 1.0400000493973494, 0.0, 0.0, 0.0, 0.0, 0.0, 1.7103874797647347E9, 0.0, 2024-03-13 20:37:59.764
68.0, -729.8863551523536, 154.8131586657837, -516.5718114296906, -40.71629081759602, 0.01600000075995922, -0.17600000835955143, 1.0400000493973494, 0.0, 0.0, 0.0, 0.0, 0.0, 1.7103874797647347E9, 0.0, 2024-03-13 20:37:59.764
69.0, -640.8449470573105, 79.0390456635505, -418.54342374112457, -71.37599065434188, 0.01600000075995922, -0.17600000835955143, 1.0400000493973494, 0.0, 0.0, 0.0, 0.0, 0.0, 1.7103874797967837E9, 0.0, 2024-03-13 20:37:59.796
69.0, -433.1234237183817, 39.37553668348119, -278.8058017967269, -90.51866857754067, 0.01600000075995922, -0.17600000835955143, 1.0400000493973494, 0.0, 0.0, 0.0, 0.0, 0.0, 1.7103874797967837E9, 0.0, 2024-03-13 20:37:59.796
70.0, -669.591688066721, -156.5522121451795, -450.51021861238405, 147.10709480708465, 0.01600000075995922, -0.17600000835955143, 1.0560000501573086, 0.0, 0.0, 0.0, 0.0, 0.0, 1.710387479797243E9, 0.0, 2024-03-13 20:37:59.797
70.0, -535.2974905078299, -287.23553629685193, -298.3579987650737, 28.455028812866658, 0.01600000075995922, -0.17600000835955143, 1.0560000501573086, 0.0, 0.0, 0.0, 0.0, 0.0, 1.710387479797243E9, 0.0, 2024-03-13 20:37:59.797
71.0, -592.7012149277143, -214.5842397576198, -410.8990682316944, 160.9148054434918, 0.01600000075995922, -0.17600000835955143, 1.0560000501573086, 0.0, 0.0, 0.0, 0.0, 0.0, 1.7103874797979364E9, 0.0, 2024-03-13 20:37:59.797
71.0, -680.433658038266, -126.62179279979318, -494.7382754883729, 198.6316964966245, 0.01600000075995922, -0.17600000835955143, 1.0560000501573086, 0.0, 0.0, 0.0, 0.0, 0.0, 1.7103874797979364E9, 0.0, 2024-03-13 20:37:59.797
72.0, -872.354104064405, -76.81567513989285, -648.1190524711274, 222.24355486687273, 0.01600000075995922, -0.17600000835955143, 1.0560000501573086, 0.0, 0.0, 0.0, 0.0, 0.0, 1.7103874797985709E9, 0.0, 2024-03-13 20:37:59.798
72.0, -664.5820920760743, 110.95161198545247, -466.8143124692142, 467.29114971356466, 0.01600000075995922, -0.17600000835955143, 1.0560000501573086, 0.0, 0.0, 0.0, 0.0, 0.0, 1.7103874797985709E9, 0.0, 2024-03-13 20:37:59.798
73.0, -767.5097487065941, 257.39861445035785, -613.4427000819705, 598.8421306549571, 0.01600000075995922, -0.17600000835955143, 1.0560000501573086, 0.0, 0.0, 0.0, 0.0, 0.0, 1.7103874798093245E9, 0.0, 2024-03-13 20:37:59.809
73.0, -729.3627691585571, 159.24868001323193, -520.1060168878175, 448.81230403250083, 0.01600000075995922, -0.17600000835955143, 1.0560000501573086, 0.0, 0.0, 0.0, 0.0, 0.0, 1.7103874798093245E9, 0.0, 2024-03-13 20:37:59.809
74.0, -642.2698489404283, 75.85639080125839, -421.40818710718304, 414.076113244053, 0.01600000075995922, -0.17600000835955143, 1.0560000501573086, 0.0, 0.0, 0.0, 0.0, 0.0, 1.7103874798243246E9, 0.0, 2024-03-13 20:37:59.824
74.0, -442.6676484053023, 34.10601764591411, -284.400692130439, 391.0289797671139, 0.01600000075995922, -0.17600000835955143, 1.0560000501573086, 0.0, 0.0, 0.0, 0.0, 0.0, 1.7103874798243246E9, 0.0, 2024-03-13 20:37:59.824
75.0, -653.9252471523359, -160.78577889502048, -471.423739164602, 622.6522037228569, 0.01600000075995922, -0.17600000835955143, 1.0560000501573086, 0.0, 0.0, 0.0, 0.0, 0.0, 1.7103874798399813E9, 0.0, 2024-03-13 20:37:59.839
75.0, -526.4526271126233, -294.67419730871916, -311.3728506108746, 503.2446779375896, 0.01600000075995922, -0.17600000835955143, 1.0560000501573086, 0.0, 0.0, 0.0, 0.0, 0.0, 1.7103874798399813E9, 0.0, 2024-03-13 20:37:59.839
76.0, -611.0678636101075, -219.27407430205494, -423.40155378356576, 632.4844007063657, 0.01600000075995922, -0.17600000835955143, 1.0560000501573086, 0.0, 0.0, 0.0, 0.0, 0.0, 1.7103874798407512E9, 0.0, 2024-03-13 20:37:59.840
76.0, -671.364400645718, -126.4684569016099, -502.90247709164396, 675.766262893565, 0.01600000075995922, -0.17600000835955143, 1.0560000501573086, 0.0, 0.0, 0.0, 0.0, 0.0, 1.7103874798407512E9, 0.0, 2024-03-13 20:37:59.840
77.0, -870.9441617811099, -77.84040772775188, -650.5574672422372, 705.7060319888406, 0.01600000075995922, -0.17600000835955143, 1.0560000501573086, 0.0, 0.0, 0.0, 0.0, 0.0, 1.7103874798543546E9, 0.0, 2024-03-13 20:37:59.854
77.0, -671.0633386992849, 106.4599921386689, -466.38796387426555, 461.92813317710534, 0.01600000075995922, -0.17600000835955143, 1.0560000501573086, 0.0, 0.0, 0.0, 0.0, 0.0, 1.7103874798543546E9, 0.0, 2024-03-13 20:37:59.854
78.0, -778.389117677696, 260.3381758155301, -608.1133426451124, 601.8041314198636, 0.01600000075995922, -0.17600000835955143, 1.0560000501573086, 0.0, 0.0, 0.0, 0.0, 0.0, 1.7103874798705652E9, 0.0, 2024-03-13 20:37:59.870
78.0, -732.2387522244826, 167.1548285195604, -518.0228926124983, 454.044424070511, 0.01600000075995922, -0.17600000835955143, 1.0560000501573086, 0.0, 0.0, 0.0, 0.0, 0.0, 1.7103874798705652E9, 0.0, 2024-03-13 20:37:59.870
79.0, -637.7109108944423, 82.2628394253552, -420.74248491507024, 416.3275330173783, 0.01600000075995922, -0.17600000835955143, 1.0560000501573086, 0.0, 0.0, 0.0, 0.0, 0.0, 1.7103874798709536E9, 0.0, 2024-03-13 20:37:59.870
79.0, -440.7079408285208, 31.99297417094931, -277.41455901321024, 393.8114653341472, 0.01600000075995922, -0.17600000835955143, 1.0560000501573086, 0.0, 0.0, 0.0, 0.0, 0.0, 1.7103874798709536E9, 0.0, 2024-03-13 20:37:59.870
80.0, -657.6202683085576, -163.12695626728237, -465.5633159340359, 625.5955049879849, 0.01600000075995922, -0.17600000835955143, 1.0560000501573086, 0.0, 0.0, 0.0, 0.0, 0.0, 1.7103874798843403E9, 0.0, 2024-03-13 20:37:59.884
80.0, -530.7609918615781, -290.5864866571501, -305.87519767601043, 509.06770216859877, 0.01600000075995922, -0.17600000835955143, 1.0560000501573086, 0.0, 0.0, 0.0, 0.0, 0.0, 1.7103874798843403E9, 0.0, 2024-03-13 20:37:59.884
81.0, -591.6465631402098, -208.6564983278513, -411.8677023202181, 641.6247161980718, 0.01600000075995922, -0.17600000835955143, 1.0560000501573086, 0.0, 0.0, 0.0, 0.0, 0.0, 1.710387479900153E9, 0.0, 2024-03-13 20:37:59.900
81.0, -666.8578211991116, -113.17685245908797, -502.61076489510015, 682.0866938186809, 0.01600000075995922, -0.17600000835955143, 1.0560000501573086, 0.0, 0.0, 0.0, 0.0, 0.0, 1.710387479900153E9, 0.0, 2024-03-13 20:37:59.900
82.0, -863.5840386683121, -60.823862929362804, -644.2557358168997, 719.9849700196646, 0.01600000075995922, -0.17600000835955143, 1.0560000501573086, 0.0, 0.0, 0.0, 0.0, 0.0, 1.7103874799007027E9, 0.0, 2024-03-13 20:37:59.900
82.0, -661.365778114181, 105.63721414841712, -470.6963286232203, 946.8790904814377, 0.01600000075995922, -0.17600000835955143, 1.0560000501573086, 0.0, 0.0, 0.0, 0.0, 0.0, 1.7103874799007027E9, 0.0, 2024-03-13 20:37:59.900
83.0, -776.7921803966165, 252.28991111088544, -618.2821306246333, 1083.123645867221, 0.01600000075995922, -0.17600000835955143, 1.0560000501573086, 0.0, 0.0, 0.0, 0.0, 0.0, 1.710387479914504E9, 0.0, 2024-03-13 20:37:59.914
83.0, -737.23899846524, 161.61977658513933, -520.1097567877732, 941.1682632490993, 0.01600000075995922, -0.17600000835955143, 1.0560000501573086, 0.0, 0.0, 0.0, 0.0, 0.0, 1.710387479914504E9, 0.0, 2024-03-13 20:37:59.914
84.0, -644.6185061126016, 75.64695640373975, -426.1952590504661, 901.0615761242807, 0.01600000075995922, -0.17600000835955143, 1.0560000501573086, 0.0, 0.0, 0.0, 0.0, 0.0, 1.7103874799300385E9, 0.0, 2024-03-13 20:37:59.930
84.0, -458.2069327211939, 27.385417425539345, -295.242662101984, 874.0239693946205, 0.01600000075995922, -0.17600000835955143, 1.0560000501573086, 0.0, 0.0, 0.0, 0.0, 0.0, 1.7103874799300385E9, 0.0, 2024-03-13 20:37:59.930
85.0, -656.4982983218506, -161.3766830880195, -475.1337199206464, 1113.4000059585087, 0.01600000075995922, -0.17600000835955143, 1.0560000501573086, 0.0, 0.0, 0.0, 0.0, 0.0, 1.7103874799306867E9, 0.0, 2024-03-13 20:37:59.930
85.0, -532.3354897429235, -290.0741203632206, -314.8621772695333, 995.4061623564921, 0.01600000075995922, -0.17600000835955143, 1.0560000501573086, 0.0, 0.0, 0.0, 0.0, 0.0, 1.7103874799306867E9, 0.0, 2024-03-13 20:37:59.930
86.0, -591.9158359370194, -210.73588270321488, -418.32650954369456, 1125.023615020793, 0.01600000075995922, -0.17600000835955143, 1.0560000501573086, 0.0, 0.0, 0.0, 0.0, 0.0, 1.710387479944686E9, 0.0, 2024-03-13 20:37:59.944
86.0, -671.8655472397804, -121.58414755947888, -502.27791379904374, 1170.022091287654, 0.01600000075995922, -0.17600000835955143, 1.0560000501573086, 0.0, 0.0, 0.0, 0.0, 0.0, 1.710387479944686E9, 0.0, 2024-03-13 20:37:59.944
87.0, -857.5927189392969, -67.72771824756637, -643.6049932246096, 1199.3223374905065, 0.01600000075995922, -0.17600000835955143, 1.0560000501573086, 0.0, 0.0, 0.0, 0.0, 0.0, 1.7103874799599833E9, 0.0, 2024-03-13 20:37:59.959
87.0, -671.0932578989305, 103.17262007761747, -471.3321116156876, 1435.6896245400421, 0.01600000075995922, -0.17600000835955143, 1.0560000501573086, 0.0, 0.0, 0.0, 0.0, 0.0, 1.7103874799599833E9, 0.0, 2024-03-13 20:37:59.959
88.0, -787.4770745700225, 251.06322392541915, -623.5591294621117, 1570.3409825447015, 0.01600000075995922, -0.17600000835955143, 1.0560000501573086, 0.0, 0.0, 0.0, 0.0, 0.0, 1.7103874799607644E9, 0.0, 2024-03-13 20:37:59.960
88.0, -728.121122373268, 161.20838759001344, -523.7038006451912, 1425.8088088571094, 0.01600000075995922, -0.17600000835955143, 1.0560000501573086, 0.0, 0.0, 0.0, 0.0, 0.0, 1.7103874799607644E9, 0.0, 2024-03-13 20:37:59.960
89.0, -636.6450394070707, 84.2973450012505, -420.96313901245594, 1394.745199825149, 0.01600000075995922, -0.17600000835955143, 1.0560000501573086, 0.0, 0.0, 0.0, 0.0, 0.0, 1.7103874799743717E9, 0.0, 2024-03-13 20:37:59.974
89.0, -449.8632159200497, 32.11265096953139, -283.9967829352245, 1370.4265003632754, 0.01600000075995922, -0.17600000835955143, 1.0560000501573086, 0.0, 0.0, 0.0, 0.0, 0.0, 1.7103874799743717E9, 0.0, 2024-03-13 20:37:59.974
90.0, -649.6206223033369, -150.86008441261947, -458.95117281237617, 1614.6008285703138, 0.01600000075995922, -0.17600000835955143, 1.0400000493973494, 0.0, 0.0, 0.0, 0.0, 0.0, 1.71038747999037E9, 0.0, 2024-03-13 20:37:59.990
90.0, -515.0571519476362, -281.1656786687672, -297.31082677748054, 1497.5232604574412, 0.01600000075995922, -0.17600000835955143, 1.0400000493973494, 0.0, 0.0, 0.0, 0.0, 0.0, 1.71038747999037E9, 0.0, 2024-03-13 20:37:59.990
91.0, -589.4101029667072, -210.66482460405678, -415.2261324804276, 1621.8898935839534, 0.01600000075995922, -0.17600000835955143, 1.0400000493973494, 0.0, 0.0, 0.0, 0.0, 0.0, 1.7103874799908159E9, 0.0, 2024-03-13 20:37:59.990
91.0, -678.7881020577624, -124.29931492730975, -507.2968595395796, 1658.3913171514869, 0.01600000075995922, -0.17600000835955143, 1.0400000493973494, 0.0, 0.0, 0.0, 0.0, 0.0, 1.7103874799908159E9, 0.0, 2024-03-13 20:37:59.990
92.0, -866.1944888373837, -70.39800681592897, -645.8190139983781, 1689.505414832849, 0.01600000075995922, -0.17600000835955143, 1.0400000493973494, 0.0, 0.0, 0.0, 0.0, 0.0, 1.7103874800043676E9, 0.0, 2024-03-13 20:38:00.004
92.0, -664.899983572308, 103.81588286999613, -467.9998607551679, 1927.2265456663445, 0.01600000075995922, -0.17600000835955143, 1.0400000493973494, 0.0, 0.0, 0.0, 0.0, 0.0, 1.7103874800043676E9, 0.0, 2024-03-13 20:38:00.004
93.0, -781.0706259459257, 261.36664830334485, -621.0795757914893, 2065.554225327447, 0.01600000075995922, -0.17600000835955143, 1.0400000493973494, 0.0, 0.0, 0.0, 0.0, 0.0, 1.710387480020352E9, 0.0, 2024-03-13 20:38:00.020
93.0, -731.341176235117, 168.8938819989562, -515.4274020432495, 1923.2622517133132, 0.01600000075995922, -0.17600000835955143, 1.0400000493973494, 0.0, 0.0, 0.0, 0.0, 0.0, 1.710387480020352E9, 0.0, 2024-03-13 20:38:00.020
94.0, -639.4312648740597, 75.83769130147994, -422.3843009956181, 1878.0356415491551, 0.01600000075995922, -0.17600000835955143, 1.0400000493973494, 0.0, 0.0, 0.0, 0.0, 0.0, 1.7103874800207827E9, 0.0, 2024-03-13 20:38:00.020
94.0, -464.5385833461769, 27.16102342819795, -293.30539392493665, 1849.382398038637, 0.01600000075995922, -0.17600000835955143, 1.0400000493973494, 0.0, 0.0, 0.0, 0.0, 0.0, 1.7103874800207827E9, 0.0, 2024-03-13 20:38:00.020
95.0, -644.2538658669218, -157.0383991394192, -456.81568993767723, 1612.5027446951717, 0.01600000075995922, -0.17600000835955143, 1.0400000493973494, 0.0, 0.0, 0.0, 0.0, 0.0, 1.7103874800343454E9, 0.0, 2024-03-13 20:38:00.034
95.0, -531.5762900519185, -294.98086910508573, -301.7426082249731, 1495.1334643857554, 0.01600000075995922, -0.17600000835955143, 1.0400000493973494, 0.0, 0.0, 0.0, 0.0, 0.0, 1.7103874800343454E9, 0.0, 2024-03-13 20:38:00.034
96.0, -604.0742506929673, -218.04364721663296, -416.81558996159583, 1618.710978621617, 0.01600000075995922, -0.17600000835955143, 1.0400000493973494, 0.0, 0.0, 0.0, 0.0, 0.0, 1.7103874800501716E9, 0.0, 2024-03-13 20:38:00.050
96.0, -683.0403683073819, -132.29896093253046, -500.9876483143307, 1656.3231524759904, 0.01600000075995922, -0.17600000835955143, 1.0400000493973494, 0.0, 0.0, 0.0, 0.0, 0.0, 1.7103874800501716E9, 0.0, 2024-03-13 20:38:00.050
97.0, -870.8544041821733, -72.70552508858964, -645.2206300054677, 1690.604945419822, 0.01600000075995922, -0.17600000835955143, 1.0400000493973494, 0.0, 0.0, 0.0, 0.0, 0.0, 1.7103874800510643E9, 0.0, 2024-03-13 20:38:00.051
97.0, -672.8323113783263, 89.51450543943793, -471.8070789100602, 1922.8920016176999, 0.01600000075995922, -0.17600000835955143, 1.0400000493973494, 0.0, 0.0, 0.0, 0.0, 0.0, 1.7103874800510643E9, 0.0, 2024-03-13 20:38:00.051
98.0, -784.9302027001977, 249.92629433888942, -615.5819228566252, 2058.863544306718, 0.01600000075995922, -0.17600000835955143, 1.0400000493973494, 0.0, 0.0, 0.0, 0.0, 0.0, 1.7103874800651207E9, 0.0, 2024-03-13 20:38:00.065
98.0, -728.3155971709639, 161.5561982858926, -517.9406148134731, 1924.3954413998872, 0.01600000075995922, -0.17600000835955143, 1.0400000493973494, 0.0, 0.0, 0.0, 0.0, 0.0, 1.7103874800651207E9, 0.0, 2024-03-13 20:38:00.065
99.0, -641.8173210457899, 79.19612146168947, -419.73271192703396, 1885.9567496553063, 0.01600000075995922, -0.17600000835955143, 1.0400000493973494, 0.0, 0.0, 0.0, 0.0, 0.0, 1.7103874800803156E9, 0.0, 2024-03-13 20:38:00.080
99.0, -451.47511280095205, 24.72634855704382, -287.56838739290833, 1851.817072909791, 0.01600000075995922, -0.17600000835955143, 1.0400000493973494, 0.0, 0.0, 0.0, 0.0, 0.0, 1.7103874800803156E9, 0.0, 2024-03-13 20:38:00.080
100.0, -652.7957973657176, -160.39682929962873, -462.6461939685978, 1607.2070463579148, 0.01600000075995922, -0.17600000835955143, 1.0400000493973494, 0.0, 0.0, 0.0, 0.0, 0.0, 1.710387480080928E9, 0.0, 2024-03-13 20:38:00.080
100.0, -528.3450164902024, -285.82185411360115, -296.48804878722876, 1493.450509405695, 0.01600000075995922, -0.17600000835955143, 1.0400000493973494, 0.0, 0.0, 0.0, 0.0, 0.0, 1.710387480080928E9, 0.0, 2024-03-13 20:38:00.080
0.0, -580.5633696215227, -209.7878180644475, -415.98907207138836, -339.75308142462745, 0.01600000075995922, -0.17600000835955143, 1.0400000493973494, 0.0, 0.0, 0.0, 0.0, 0.0, 1.7103874800950608E9, 0.0, 2024-03-13 20:38:00.095
1.0, -672.4545814828016, -119.82826453028247, -508.08597843023017, -300.4205535906367, 0.01600000075995922, -0.17600000835955143, 1.0400000493973494, 0.0, 0.0, 0.0, 0.0, 0.0, 1.7103874800958645E9, 0.0, 2024-03-13 20:38:00.095
1.0, -861.450425743591, -56.68566362839192, -644.6970440116711, -260.0539434188977, 0.01600000075995922, -0.17600000835955143, 1.0400000493973494, 0.0, 0.0, 0.0, 0.0, 0.0, 1.7103874800958645E9, 0.0, 2024-03-13 20:38:00.095
2.0, -667.2729500941932, 104.50589441182092, -474.1931350817904, -33.6647094511427, 0.01600000075995922, -0.17600000835955143, 1.0400000493973494, 0.0, 0.0, 0.0, 0.0, 0.0, 1.7103874801093524E9, 0.0, 2024-03-13 20:38:00.109
2.0, -784.6889791530557, 258.8478256831877, -625.099968243856, 97.70675629237667, 0.01600000075995922, -0.17600000835955143, 1.0400000493973494, 0.0, 0.0, 0.0, 0.0, 0.0, 1.7103874801093524E9, 0.0, 2024-03-13 20:38:00.109
3.0, -718.5675479364581, 173.79876079084352, -519.4552742955275, -38.06283179903403, 0.01600000075995922, -0.17600000835955143, 1.0400000493973494, 0.0, 0.0, 0.0, 0.0, 0.0, 1.7103874801252296E9, 0.0, 2024-03-13 20:38:00.125
3.0, -644.493219464086, 82.53398217214271, -424.32530907262117, -79.97215070249513, 0.01600000075995922, -0.17600000835955143, 1.0400000493973494, 0.0, 0.0, 0.0, 0.0, 0.0, 1.7103874801252296E9, 0.0, 2024-03-13 20:38:00.125
4.0, -453.08887963183224, 21.28003074787557, -291.6560980444774, -115.42079243250191, 0.01600000075995922, -0.17600000835955143, 1.0400000493973494, 0.0, 0.0, 0.0, 0.0, 0.0, 1.7103874801260743E9, 0.0, 2024-03-13 20:38:00.126
4.0, -648.5154818664305, -164.6472255992703, -467.9493721057661, 129.09012677054852, 0.01600000075995922, -0.17600000835955143, 1.0400000493973494, 0.0, 0.0, 0.0, 0.0, 0.0, 1.7103874801260743E9, 0.0, 2024-03-13 20:38:00.126
5.0, -538.5717729190364, -299.6389144998975, -308.7661403417587, 14.10316273290664, 0.01600000075995922, -0.17600000835955143, 1.0400000493973494, 0.0, 0.0, 0.0, 0.0, 0.0, 1.7103874801407692E9, 0.0, 2024-03-13 20:38:00.140
5.0, -602.7260167589411, -226.24711776943877, -418.2030928451568, 139.07191975228488, 0.01600000075995922, -0.17600000835955143, 1.0400000493973494, 0.0, 0.0, 0.0, 0.0, 0.0, 1.7103874801407692E9, 0.0, 2024-03-13 20:38:00.140
6.0, -669.6795757156797, -125.66250846115872, -498.02938744938, 190.89945333823562, 0.01600000075995922, -0.17600000835955143, 1.0400000493973494, 0.0, 0.0, 0.0, 0.0, 0.0, 1.7103874801550412E9, 0.0, 2024-03-13 20:38:00.155
6.0, -873.88559309626, -75.53849930502474, -648.8857319620438, 217.42843367392197, 0.01600000075995922, -0.17600000835955143, 1.0400000493973494, 0.0, 0.0, 0.0, 0.0, 0.0, 1.7103874801550412E9, 0.0, 2024-03-13 20:38:00.155
7.0, -684.4390908908099, 93.11415914678946, -470.61779072415084, 445.8409535177052, 0.01600000075995922, -0.17600000835955143, 1.0400000493973494, 0.0, 0.0, 0.0, 0.0, 0.0, 1.710387480155742E9, 0.0, 2024-03-13 20:38:00.155
7.0, -771.3711954108439, 249.5840934929438, -612.4142275941558, 592.1607993841171, 0.01600000075995922, -0.17600000835955143, 1.0400000493973494, 0.0, 0.0, 0.0, 0.0, 0.0, 1.710387480155742E9, 0.0, 2024-03-13 20:38:00.155
8.0, -731.0101950890385, 159.7255172575824, -515.8799299378879, 448.23448948934674, 0.01600000075995922, -0.17600000835955143, 1.0400000493973494, 0.0, 0.0, 0.0, 0.0, 0.0, 1.710387480169385E9, 0.0, 2024-03-13 20:38:00.169
8.0, -647.1971671320498, 75.45809145597741, -420.1927196215838, 411.7218462219462, 0.01600000075995922, -0.17600000835955143, 1.0400000493973494, 0.0, 0.0, 0.0, 0.0, 0.0, 1.710387480169385E9, 0.0, 2024-03-13 20:38:00.169
9.0, -454.9102109102532, 17.69720659032464, -295.3324197009206, 374.81464350922033, 0.01600000075995922, -0.17600000835955143, 1.0400000493973494, 0.0, 0.0, 0.0, 0.0, 0.0, 1.7103874801850164E9, 0.0, 2024-03-13 20:38:00.185
9.0, -649.4654164551757, -162.38084622612223, -467.51180381095037, 135.82194669079036, 0.01600000075995922, -0.17600000835955143, 1.0400000493973494, 0.0, 0.0, 0.0, 0.0, 0.0, 1.7103874801850164E9, 0.0, 2024-03-13 20:38:00.185
10.0, -523.5411149971187, -286.87463595112786, -299.78290064819157, 23.879261217080057, 0.01600000075995922, -0.17600000835955143, 1.0400000493973494, 0.0, 0.0, 0.0, 0.0, 0.0, 1.710387480185778E9, 0.0, 2024-03-13 20:38:00.185
10.0, -592.0149432858452, -215.37148869829252, -414.0069250948727, 144.9547823825851, 0.01600000075995922, -0.17600000835955143, 1.0400000493973494, 0.0, 0.0, 0.0, 0.0, 0.0, 1.710387480185778E9, 0.0, 2024-03-13 20:38:00.185
11.0, -656.1149585763924, -112.63269701553509, -499.42811003280804, 197.44427826069295, 0.01600000075995922, -0.17600000835955143, 1.0400000493973494, 0.0, 0.0, 0.0, 0.0, 0.0, 1.7103874801996748E9, 0.0, 2024-03-13 20:38:00.199
11.0, -878.7886019381694, -60.115151887759566, -649.4878558549099, 225.91052677342668, 0.01600000075995922, -0.17600000835955143, 1.0400000493973494, 0.0, 0.0, 0.0, 0.0, 0.0, 1.7103874801996748E9, 0.0, 2024-03-13 20:38:00.199
12.0, -680.3925191387534, 90.8776989732869, -478.02653253637254, 443.3240008475259, 0.01600000075995922, -0.17600000835955143, 1.0400000493973494, 0.0, 0.0, 0.0, 0.0, 0.0, 1.7103874802153676E9, 0.0, 2024-03-13 20:38:00.215
12.0, -774.699706371408, 248.8398534017615, -621.6555203846656, 589.8682407112792, 0.01600000075995922, -0.17600000835955143, 1.0400000493973494, 0.0, 0.0, 0.0, 0.0, 0.0, 1.7103874802153676E9, 0.0, 2024-03-13 20:38:00.215
13.0, -722.8160742861219, 163.0241090185009, -519.7170672924258, 449.04604777973145, 0.01600000075995922, -0.17600000835955143, 1.0400000493973494, 0.0, 0.0, 0.0, 0.0, 0.0, 1.710387480216064E9, 0.0, 2024-03-13 20:38:00.216
13.0, -636.6693487567827, 78.70058471756056, -419.18294663354754, 410.76443183328956, 0.01600000075995922, -0.17600000835955143, 1.0400000493973494, 0.0, 0.0, 0.0, 0.0, 0.0, 1.710387480216064E9, 0.0, 2024-03-13 20:38:00.216
14.0, -459.9628157503903, 17.64484799094498, -291.2933277487755, 373.1915269284509, 0.01600000075995922, -0.17600000835955143, 1.0400000493973494, 0.0, 0.0, 0.0, 0.0, 0.0, 1.7103874802294283E9, 0.0, 2024-03-13 20:38:00.229
14.0, -659.1293179406784, -164.82300089718774, -469.6959053850733, 130.38039225526154, 0.01600000075995922, -0.17600000835955143, 1.0400000493973494, 0.0, 0.0, 0.0, 0.0, 0.0, 1.7103874802294283E9, 0.0, 2024-03-13 20:38:00.229
15.0, -530.9274174096063, -286.65398185374215, -296.24121539015323, 20.18050016090274, 0.01600000075995922, -0.17600000835955143, 1.0400000493973494, 0.0, 0.0, 0.0, 0.0, 0.0, 1.7103874802452428E9, 0.0, 2024-03-13 20:38:00.245
15.0, -606.4733965145424, -234.48237747186795, -424.5272636702284, 131.20317024551332, 0.01600000075995922, -0.17600000835955143, 1.0400000493973494, 0.0, 0.0, 0.0, 0.0, 0.0, 1.7103874802452428E9, 0.0, 2024-03-13 20:38:00.245
16.0, -676.1122036394663, -124.99306636909023, -504.4059168738313, 187.99729097262025, 0.01600000075995922, -0.17600000835955143, 1.0400000493973494, 0.0, 0.0, 0.0, 0.0, 0.0, 1.7103874802459795E9, 0.0, 2024-03-13 20:38:00.245
16.0, -858.9858316727914, -63.68301644548774, -638.7206838824786, 231.46801810758188, 0.01600000075995922, -0.17600000835955143, 1.0400000493973494, 0.0, 0.0, 0.0, 0.0, 0.0, 1.7103874802459795E9, 0.0, 2024-03-13 20:38:00.245
17.0, -669.2476172707975, 96.73812220385298, -472.50270030181855, 451.85845254641026, 0.01600000075995922, -0.17600000835955143, 1.0400000493973494, 0.0, 0.0, 0.0, 0.0, 0.0, 1.7103874802593527E9, 0.0, 2024-03-13 20:38:00.259
17.0, -803.5866936291568, 244.09018045803532, -627.5870017143898, 588.7799298241735, 0.01600000075995922, -0.17600000835955143, 1.0400000493973494, 0.0, 0.0, 0.0, 0.0, 0.0, 1.7103874802593527E9, 0.0, 2024-03-13 20:38:00.259
18.0, -719.9700104198419, 163.77582890959457, -516.7139276280068, 455.23558220639825, 0.01600000075995922, -0.17600000835955143, 1.0400000493973494, 0.0, 0.0, 0.0, 0.0, 0.0, 1.710387480274994E9, 0.0, 2024-03-13 20:38:00.274
18.0, -628.669702751562, 82.51528267236426, -420.0244241235778, 410.54751763585955, 0.01600000075995922, -0.17600000835955143, 1.0400000493973494, 0.0, 0.0, 0.0, 0.0, 0.0, 1.710387480274994E9, 0.0, 2024-03-13 20:38:00.274
19.0, -453.79572072345763, 27.888433969579637, -283.78360863775015, 386.2288181739859, 0.01600000075995922, -0.17600000835955143, 1.0400000493973494, 0.0, 0.0, 0.0, 0.0, 0.0, 1.7103874802757733E9, 0.0, 2024-03-13 20:38:00.275
19.0, -652.5321344188415, -161.41221213759854, -467.62400080962107, 624.5352433505468, 0.01600000075995922, -0.17600000835955143, 1.0400000493973494, 0.0, 0.0, 0.0, 0.0, 0.0, 1.7103874802757733E9, 0.0, 2024-03-13 20:38:00.275
20.0, -525.9271711688489, -283.6732815890573, -302.41579021699727, 513.4863939662464, 0.01600000075995922, -0.17600000835955143, 1.0400000493973494, 0.0, 0.0, 0.0, 0.0, 0.0, 1.7103874802897174E9, 0.0, 2024-03-13 20:38:00.289
20.0, -578.5550433453172, -219.63497464777902, -420.3871944192797, 635.4033926217817, 0.01600000075995922, -0.17600000835955143, 1.0400000493973494, 0.0, 0.0, 0.0, 0.0, 0.0, 1.7103874802897174E9, 0.0, 2024-03-13 20:38:00.289
21.0, -696.9060473931022, -128.39637532876804, -507.1023847418837, 677.8101182193495, 0.01600000075995922, -0.17600000835955143, 1.0400000493973494, 0.0, 0.0, 0.0, 0.0, 0.0, 1.7103874803049912E9, 0.0, 2024-03-13 20:38:00.304
21.0, -863.8252622154541, -62.70316265709698, -638.8740197806619, 722.9077018350363, 0.01600000075995922, -0.17600000835955143, 1.0400000493973494, 0.0, 0.0, 0.0, 0.0, 0.0, 1.7103874803049912E9, 0.0, 2024-03-13 20:38:00.304
22.0, -666.3304953053594, 95.00654852436855, -468.8824771447107, 937.8154429388233, 0.01600000075995922, -0.17600000835955143, 1.0400000493973494, 0.0, 0.0, 0.0, 0.0, 0.0, 1.7103874803057501E9, 0.0, 2024-03-13 20:38:00.305
22.0, -798.638805987779, 241.03842209419236, -624.0602760561742, 1074.2918721218593, 0.01600000075995922, -0.17600000835955143, 1.0400000493973494, 0.0, 0.0, 0.0, 0.0, 0.0, 1.7103874803057501E9, 0.0, 2024-03-13 20:38:00.305
23.0, -725.3442466561683, 171.67449761601165, -514.0922577590682, 946.9146195310168, 0.01600000075995922, -0.17600000835955143, 1.0400000493973494, 0.0, 0.0, 0.0, 0.0, 0.0, 1.7103874803196368E9, 0.0, 2024-03-13 20:38:00.319
23.0, -647.7431925255805, 74.41091946838424, -422.638614192605, 890.6553044975735, 0.01600000075995922, -0.17600000835955143, 1.0400000493973494, 0.0, 0.0, 0.0, 0.0, 0.0, 1.7103874803196368E9, 0.0, 2024-03-13 20:38:00.319
24.0, -460.2956668464467, 9.910734882578254, -295.27632120158523, 860.5360202044249, 0.01600000075995922, -0.17600000835955143, 1.0400000493973494, 0.0, 0.0, 0.0, 0.0, 0.0, 1.7103874803350132E9, 0.0, 2024-03-13 20:38:00.335
24.0, -671.7402605912648, -164.01518250675872, -467.4183063120581, 619.2657243129797, 0.01600000075995922, -0.17600000835955143, 1.0400000493973494, 0.0, 0.0, 0.0, 0.0, 0.0, 1.7103874803350132E9, 0.0, 2024-03-13 20:38:00.335
25.0, -529.2743816291913, -289.4065482211299, -297.595059174113, 508.90127662057057, 0.01600000075995922, -0.17600000835955143, 1.0400000493973494, 0.0, 0.0, 0.0, 0.0, 0.0, 1.7103874803357203E9, 0.0, 2024-03-13 20:38:00.335
25.0, -587.0932349441573, -222.92608660878614, -413.0831698058173, 629.501830491703, 0.01600000075995922, -0.17600000835955143, 1.0400000493973494, 0.0, 0.0, 0.0, 0.0, 0.0, 1.7103874803357203E9, 0.0, 2024-03-13 20:38:00.335
26.0, -668.6174441282637, -124.42460157582536, -499.16631703590974, 683.0571978571825, 0.01600000075995922, -0.17600000835955143, 1.0400000493973494, 0.0, 0.0, 0.0, 0.0, 0.0, 1.7103874803494227E9, 0.0, 2024-03-13 20:38:00.349
26.0, -862.306862833444, -58.7687879037112, -636.09901401354, 721.4566206522286, 0.01600000075995922, -0.17600000835955143, 1.0400000493973494, 0.0, 0.0, 0.0, 0.0, 0.0, 1.7103874803494227E9, 0.0, 2024-03-13 20:38:00.349
27.0, -665.9565053097904, 98.2864407855086, -462.5882255192846, 949.1809989041649, 0.01600000075995922, -0.17600000835955143, 1.0400000493973494, 0.0, 0.0, 0.0, 0.0, 0.0, 1.7103874803652265E9, 0.0, 2024-03-13 20:38:00.365
27.0, -790.0332961897366, 243.81342786131427, -623.013104068581, 1077.998112977948, 0.01600000075995922, -0.17600000835955143, 1.0400000493973494, 0.0, 0.0, 0.0, 0.0, 0.0, 1.7103874803652265E9, 0.0, 2024-03-13 20:38:00.365
28.0, -728.7924344153143, 164.90153879625723, -519.9414612897672, 945.1942655513994, 0.01600000075995922, -0.17600000835955143, 1.0400000493973494, 0.0, 0.0, 0.0, 0.0, 0.0, 1.7103874803661005E9, 0.0, 2024-03-13 20:38:00.366
28.0, -637.2490332499146, 75.21873785881326, -424.2392913736403, 895.9622225346975, 0.01600000075995922, -0.17600000835955143, 1.0400000493973494, 0.0, 0.0, 0.0, 0.0, 0.0, 1.7103874803661005E9, 0.0, 2024-03-13 20:38:00.366
29.0, -450.3325733644888, 28.830888758413494, -295.6129121975973, 870.7721263831481, 0.01600000075995922, -0.17600000835955143, 1.0400000493973494, 0.0, 0.0, 0.0, 0.0, 0.0, 1.7103874803793347E9, 0.0, 2024-03-13 20:38:00.379
29.0, -644.9550971086137, -151.37432065652683, -466.008364028763, 627.6244007139467, 0.01600000075995922, -0.17600000835955143, 1.0400000493973494, 0.0, 0.0, 0.0, 0.0, 0.0, 1.7103874803793347E9, 0.0, 2024-03-13 20:38:00.379
30.0, -512.8711804235354, -280.8945359219797, -293.85889911837876, 515.6069172411226, 0.01600000075995922, -0.17600000835955143, 1.0560000501573086, 0.0, 0.0, 0.0, 0.0, 0.0, 1.7103874803950243E9, 0.0, 2024-03-13 20:38:00.395
30.0, -615.3332195095718, -229.4222928318195, -428.5775753222406, 621.5695026856847, 0.01600000075995922, -0.17600000835955143, 1.0560000501573086, 0.0, 0.0, 0.0, 0.0, 0.0, 1.7103874803950243E9, 0.0, 2024-03-13 20:38:00.395
31.0, -672.3311647842638, -125.4119351641275, -505.19877566443756, 680.8693563831039, 0.01600000075995922, -0.17600000835955143, 1.0560000501573086, 0.0, 0.0, 0.0, 0.0, 0.0, 1.7103874803957717E9, 0.0, 2024-03-13 20:38:00.395
31.0, -855.1299948184751, -56.4724893309176, -636.413165609818, 722.5673709390685, 0.01600000075995922, -0.17600000835955143, 1.0560000501573086, 0.0, 0.0, 0.0, 0.0, 0.0, 1.7103874803957717E9, 0.0, 2024-03-13 20:38:00.395
32.0, -676.8171747811139, 102.68082323344424, -464.9294028915465, 944.536043159198, 0.01600000075995922, -0.17600000835955143, 1.0560000501573086, 0.0, 0.0, 0.0, 0.0, 0.0, 1.710387480409376E9, 0.0, 2024-03-13 20:38:00.409
32.0, -784.1392138595693, 255.96810271730646, -620.3128963005729, 1081.6183361350559, 0.01600000075995922, -0.17600000835955143, 1.0560000501573086, 0.0, 0.0, 0.0, 0.0, 0.0, 1.710387480409376E9, 0.0, 2024-03-13 20:38:00.409
33.0, -722.5019226898439, 180.82603280758485, -508.94615542003885, 955.8866395247169, 0.01600000075995922, -0.17600000835955143, 1.0560000501573086, 0.0, 0.0, 0.0, 0.0, 0.0, 1.7103874804250114E9, 0.0, 2024-03-13 20:38:00.425
33.0, -638.9918266292661, 77.8703269273974, -417.6159285521135, 899.152357196901, 0.01600000075995922, -0.17600000835955143, 1.0560000501573086, 0.0, 0.0, 0.0, 0.0, 0.0, 1.7103874804250114E9, 0.0, 2024-03-13 20:38:00.425
34.0, -456.67544368933886, 20.715305854566395, -293.2156363260001, 867.2827997244895, 0.01600000075995922, -0.17600000835955143, 1.0560000501573086, 0.0, 0.0, 0.0, 0.0, 0.0, 1.710387480425742E9, 0.0, 2024-03-13 20:38:00.425
34.0, -659.2078558397479, -156.95425139041618, -466.18039942672476, 626.0499028326012, 0.01600000075995922, -0.17600000835955143, 1.0560000501573086, 0.0, 0.0, 0.0, 0.0, 0.0, 1.710387480425742E9, 0.0, 2024-03-13 20:38:00.425
35.0, -528.5563208376989, -282.02024580864236, -297.71473597269505, 518.2734659095295, 0.01600000075995922, -0.17600000835955143, 1.0560000501573086, 0.0, 0.0, 0.0, 0.0, 0.0, 1.7103874804396503E9, 0.0, 2024-03-13 20:38:00.439
35.0, -601.2001375770196, -222.9747053082101, -418.37138834316283, 629.7748431884684, 0.01600000075995922, -0.17600000835955143, 1.0560000501573086, 0.0, 0.0, 0.0, 0.0, 0.0, 1.7103874804396503E9, 0.0, 2024-03-13 20:38:00.439
36.0, -681.6061166743748, -127.51001903926954, -503.35126508632675, 680.1512955916114, 0.01600000075995922, -0.17600000835955143, 1.0560000501573086, 0.0, 0.0, 0.0, 0.0, 0.0, 1.7103874804552555E9, 0.0, 2024-03-13 20:38:00.455
36.0, -862.9912645253353, -54.22854935750365, -634.374920133967, 731.9358203280717, 0.01600000075995922, -0.17600000835955143, 1.0560000501573086, 0.0, 0.0, 0.0, 0.0, 0.0, 1.7103874804552555E9, 0.0, 2024-03-13 20:38:00.455
37.0, -659.4752586865798, 98.70904948050156, -460.44900274463, 944.2817299622111, 0.01600000075995922, -0.17600000835955143, 1.0560000501573086, 0.0, 0.0, 0.0, 0.0, 0.0, 1.710387480455814E9, 0.0, 2024-03-13 20:38:00.455
37.0, -793.0588752538897, 238.5738280233927, -632.721884353552, 1075.574657806661, 0.01600000075995922, -0.17600000835955143, 1.0560000501573086, 0.0, 0.0, 0.0, 0.0, 0.0, 1.710387480455814E9, 0.0, 2024-03-13 20:38:00.455
38.0, -730.4529499956407, 168.34224675549194, -519.0551050002687, 949.9102793955244, 0.01600000075995922, -0.17600000835955143, 1.0560000501573086, 0.0, 0.0, 0.0, 0.0, 0.0, 1.7103874804693387E9, 0.0, 2024-03-13 20:38:00.469
38.0, -637.3238312490284, 77.18592523550615, -424.4674252709374, 894.2867473545484, 0.01600000075995922, -0.17600000835955143, 1.0560000501573086, 0.0, 0.0, 0.0, 0.0, 0.0, 1.7103874804693387E9, 0.0, 2024-03-13 20:38:00.469
39.0, -441.6485256673768, 22.402000734582543, -294.0571138160303, 865.9401756403968, 0.01600000075995922, -0.17600000835955143, 1.0560000501573086, 0.0, 0.0, 0.0, 0.0, 0.0, 1.7103874804849715E9, 0.0, 2024-03-13 20:38:00.484
39.0, -665.285193267744, -161.8348208325915, -469.22841789061204, 624.2996296533383, 0.01600000075995922, -0.17600000835955143, 1.0560000501573086, 0.0, 0.0, 0.0, 0.0, 0.0, 1.7103874804849715E9, 0.0, 2024-03-13 20:38:00.484
40.0, -520.3995990343392, -284.6718348772265, -295.1080257035792, 514.600884153042, 0.01600000075995922, -0.17600000835955143, 1.0400000493973494, 0.0, 0.0, 0.0, 0.0, 0.0, 1.7103874804857335E9, 0.0, 2024-03-13 20:38:00.485
40.0, -614.353365721181, -236.1279334523715, -421.33338910806924, 625.1635465431027, 0.01600000075995922, -0.17600000835955143, 1.0400000493973494, 0.0, 0.0, 0.0, 0.0, 0.0, 1.7103874804857335E9, 0.0, 2024-03-13 20:38:00.485
41.0, -686.583923515398, -135.65552114276215, -509.79885260993615, 674.5227461582981, 0.01600000075995922, -0.17600000835955143, 1.0400000493973494, 0.0, 0.0, 0.0, 0.0, 0.0, 1.7103874804995325E9, 0.0, 2024-03-13 20:38:00.499
41.0, -871.4770975247957, -61.16232387535274, -637.1536658010446, 721.3855625530705, 0.01600000075995922, -0.17600000835955143, 1.0400000493973494, 0.0, 0.0, 0.0, 0.0, 0.0, 1.7103874804995325E9, 0.0, 2024-03-13 20:38:00.499
42.0, -669.000783873722, 93.00570204807445, -464.6975290942937, 942.8830073787831, 0.01600000075995922, -0.17600000835955143, 1.0400000493973494, 0.0, 0.0, 0.0, 0.0, 0.0, 1.7103874805153255E9, 0.0, 2024-03-13 20:38:00.515
42.0, -796.4098256141879, 240.82150789676234, -633.7690563411452, 1073.4578744317405, 0.01600000075995922, -0.17600000835955143, 1.0400000493973494, 0.0, 0.0, 0.0, 0.0, 0.0, 1.7103874805153255E9, 0.0, 2024-03-13 20:38:00.515
43.0, -716.4133655619808, 171.00131562398747, -522.1554820635356, 947.9318723189645, 0.01600000075995922, -0.17600000835955143, 1.0400000493973494, 0.0, 0.0, 0.0, 0.0, 0.0, 1.7103874805158792E9, 0.0, 2024-03-13 20:38:00.515
43.0, -638.8459705309942, 79.75523650506511, -425.5071174586192, 898.9055237998255, 0.01600000075995922, -0.17600000835955143, 1.0400000493973494, 0.0, 0.0, 0.0, 0.0, 0.0, 1.7103874805158792E9, 0.0, 2024-03-13 20:38:00.515
44.0, -461.71308892965317, 10.135128879919648, -298.4402765640989, 857.8432922363281, 0.01600000075995922, -0.17600000835955143, 1.0400000493973494, 0.0, 0.0, 0.0, 0.0, 0.0, 1.7103874805296056E9, 0.0, 2024-03-13 20:38:00.529
44.0, -660.7412148215808, -163.75338950986043, -476.5100031043403, 619.2844238127582, 0.01600000075995922, -0.17600000835955143, 1.0400000493973494, 0.0, 0.0, 0.0, 0.0, 0.0, 1.7103874805296056E9, 0.0, 2024-03-13 20:38:00.529
45.0, -525.3250472759828, -277.4800072624348, -295.3286798009649, 516.9532812251709, 0.01600000075995922, -0.17600000835955143, 1.0400000493973494, 0.0, 0.0, 0.0, 0.0, 0.0, 1.7103874805450003E9, 0.0, 2024-03-13 20:38:00.545
45.0, -591.7194911893457, -231.89436670253053, -427.78845643159, 620.2006993019022, 0.01600000075995922, -0.17600000835955143, 1.0400000493973494, 0.0, 0.0, 0.0, 0.0, 0.0, 1.7103874805450003E9, 0.0, 2024-03-13 20:38:00.545
46.0, -680.7085406850092, -127.14724874356762, -508.13459712965414, 677.2266938262619, 0.01600000075995922, -0.17600000835955143, 1.0400000493973494, 0.0, 0.0, 0.0, 0.0, 0.0, 1.7103874805457487E9, 0.0, 2024-03-13 20:38:00.545
46.0, -852.7177593470551, -52.43713727872819, -630.9042929750867, 731.1803605370224, 0.01600000075995922, -0.17600000835955143, 1.0400000493973494, 0.0, 0.0, 0.0, 0.0, 0.0, 1.7103874805457487E9, 0.0, 2024-03-13 20:38:00.545
47.0, -666.2444776063785, 100.24614836229011, -458.97548216208816, 947.7112182215787, 0.01600000075995922, -0.17600000835955143, 1.0400000493973494, 0.0, 0.0, 0.0, 0.0, 0.0, 1.7103874805593457E9, 0.0, 2024-03-13 20:38:00.559
47.0, -787.9015532149933, 245.4664636417292, -624.2472710539587, 1082.8487632204778, 0.01600000075995922, -0.17600000835955143, 1.0400000493973494, 0.0, 0.0, 0.0, 0.0, 0.0, 1.7103874805593457E9, 0.0, 2024-03-13 20:38:00.559
48.0, -731.0326344887726, 177.254428349901, -511.1601761938073, 954.1475860453211, 0.01600000075995922, -0.17600000835955143, 1.0400000493973494, 0.0, 0.0, 0.0, 0.0, 0.0, 1.7103874805750191E9, 0.0, 2024-03-13 20:38:00.575
48.0, -631.8448778139427, 85.53338193660602, -416.06760997045785, 907.4250158988871, 0.01600000075995922, -0.17600000835955143, 1.0400000493973494, 0.0, 0.0, 0.0, 0.0, 0.0, 1.7103874805750191E9, 0.0, 2024-03-13 20:38:00.575
49.0, -460.68835634179413, 21.38848784659058, -290.49672905821353, 867.7428074190393, 0.01600000075995922, -0.17600000835955143, 1.0400000493973494, 0.0, 0.0, 0.0, 0.0, 0.0, 1.7103874805757585E9, 0.0, 2024-03-13 20:38:00.575
49.0, -647.9395372732542, -149.72502477606758, -464.36280804825947, 636.7123576062731, 0.01600000075995922, -0.17600000835955143, 1.0400000493973494, 0.0, 0.0, 0.0, 0.0, 0.0, 1.7103874805757585E9, 0.0, 2024-03-13 20:38:00.575
50.0, -537.7489949287847, -290.1956671117805, -302.05675982125103, 508.377690626774, 0.01600000075995922, -0.17600000835955143, 1.0560000501573086, 0.0, 0.0, 0.0, 0.0, 0.0, 1.7103874805919223E9, 0.0, 2024-03-13 20:38:00.591
50.0, -609.6672710767016, -239.00017661834136, -424.4225464714691, 615.28273086017, 0.01600000075995922, -0.17600000835955143, 1.0560000501573086, 0.0, 0.0, 0.0, 0.0, 0.0, 1.7103874805919223E9, 0.0, 2024-03-13 20:38:00.591
51.0, -687.2309262077324, -129.91103481082246, -504.8098260690458, 680.7122805849649, 0.01600000075995922, -0.17600000835955143, 1.0560000501573086, 0.0, 0.0, 0.0, 0.0, 0.0, 1.710387480604985E9, 0.0, 2024-03-13 20:38:00.604
51.0, -862.4714184314944, -57.68421691656113, -633.7129578418098, 726.7934578889981, 0.01600000075995922, -0.17600000835955143, 1.0560000501573086, 0.0, 0.0, 0.0, 0.0, 0.0, 1.710387480604985E9, 0.0, 2024-03-13 20:38:00.604
52.0, -683.0403683073819, 88.0241553070955, -468.31401235144585, 939.1431074230932, 0.01600000075995922, -0.17600000835955143, 1.0560000501573086, 0.0, 0.0, 0.0, 0.0, 0.0, 1.710387480605702E9, 0.0, 2024-03-13 20:38:00.605
52.0, -797.7561895982362, 233.18837208719924, -631.480237568263, 1071.5804446539842, 0.01600000075995922, -0.17600000835955143, 1.0560000501573086, 0.0, 0.0, 0.0, 0.0, 0.0, 1.710387480605702E9, 0.0, 2024-03-13 20:38:00.605
53.0, -718.8031616336666, 173.64168499270454, -510.9357821964659, 955.8043617256917, 0.01600000075995922, -0.17600000835955143, 1.0560000501573086, 0.0, 0.0, 0.0, 0.0, 0.0, 1.7103874806194496E9, 0.0, 2024-03-13 20:38:00.619
53.0, -653.2894641598687, 74.10050777206197, -416.36306206695735, 905.4054699228145, 0.01600000075995922, -0.17600000835955143, 1.0560000501573086, 0.0, 0.0, 0.0, 0.0, 0.0, 1.7103874806194496E9, 0.0, 2024-03-13 20:38:00.619
54.0, -449.63695197273046, 10.47545977588743, -291.9552900409326, 865.0164203513414, 0.01600000075995922, -0.17600000835955143, 1.0560000501573086, 0.0, 0.0, 0.0, 0.0, 0.0, 1.7103874806353345E9, 0.0, 2024-03-13 20:38:00.635
54.0, -646.0172286960296, -154.91600591456518, -461.0193374878727, 638.3504337868653, 0.01600000075995922, -0.17600000835955143, 1.0560000501573086, 0.0, 0.0, 0.0, 0.0, 0.0, 1.7103874806353345E9, 0.0, 2024-03-13 20:38:00.635
55.0, -518.7091642543674, -278.54213884985074, -293.5896263215691, 520.1209764876403, 0.01600000075995922, -0.17600000835955143, 1.0560000501573086, 0.0, 0.0, 0.0, 0.0, 0.0, 1.7103874806358287E9, 0.0, 2024-03-13 20:38:00.635
55.0, -600.1080867899582, -232.70592499291524, -420.4881717180833, 627.5346431150101, 0.01600000075995922, -0.17600000835955143, 1.0560000501573086, 0.0, 0.0, 0.0, 0.0, 0.0, 1.7103874806358287E9, 0.0, 2024-03-13 20:38:00.635
56.0, -678.2813456137665, -126.88171584671363, -508.69184222305194, 680.8581366832368, 0.01600000075995922, -0.17600000835955143, 1.0560000501573086, 0.0, 0.0, 0.0, 0.0, 0.0, 1.7103874806493511E9, 0.0, 2024-03-13 20:38:00.649
56.0, -858.7838770751841, -55.320600144565105, -639.3377673751675, 724.3251239182428, 0.01600000075995922, -0.17600000835955143, 1.0560000501573086, 0.0, 0.0, 0.0, 0.0, 0.0, 1.7103874806493511E9, 0.0, 2024-03-13 20:38:00.649
57.0, -666.3641544049606, 101.16990365134552, -463.9719885028899, 944.2443309626542, 0.01600000075995922, -0.17600000835955143, 1.0560000501573086, 0.0, 0.0, 0.0, 0.0, 0.0, 1.7103874806650014E9, 0.0, 2024-03-13 20:38:00.665
57.0, -789.5919879949652, 242.9869099711068, -626.9063399224542, 1076.8200444919057, 0.01600000075995922, -0.17600000835955143, 1.0560000501573086, 0.0, 0.0, 0.0, 0.0, 0.0, 1.7103874806650014E9, 0.0, 2024-03-13 20:38:00.665
58.0, -720.160745317582, 170.60488622868434, -511.332211591769, 953.1490327571519, 0.01600000075995922, -0.17600000835955143, 1.0560000501573086, 0.0, 0.0, 0.0, 0.0, 0.0, 1.710387480665742E9, 0.0, 2024-03-13 20:38:00.665
58.0, -651.7187061784789, 71.45639850338921, -416.8754283608869, 902.3985903584398, 0.01600000075995922, -0.17600000835955143, 1.0560000501573086, 0.0, 0.0, 0.0, 0.0, 0.0, 1.710387480665742E9, 0.0, 2024-03-13 20:38:00.665
59.0, -474.6307033766061, 0.19821469765156507, -294.90233120601624, 863.0417531747371, 0.01600000075995922, -0.17600000835955143, 1.0560000501573086, 0.0, 0.0, 0.0, 0.0, 0.0, 1.7103874806793616E9, 0.0, 2024-03-13 20:38:00.679
59.0, -662.8841774961911, -168.20387045713142, -469.2097183908336, 629.6476865899749, 0.01600000075995922, -0.17600000835955143, 1.0560000501573086, 0.0, 0.0, 0.0, 0.0, 0.0, 1.7103874806793616E9, 0.0, 2024-03-13 20:38:00.679
60.0, -527.5914266491309, -282.61862980155274, -292.4826159346849, 520.3565901848488, 0.01600000075995922, -0.17600000835955143, 1.0400000493973494, 0.0, 0.0, 0.0, 0.0, 0.0, 1.710387480694981E9, 0.0, 2024-03-13 20:38:00.694
60.0, -623.1533503169194, -237.88942633150145, -422.58625559322536, 622.0631694798358, 0.01600000075995922, -0.17600000835955143, 1.0400000493973494, 0.0, 0.0, 0.0, 0.0, 0.0, 1.710387480694981E9, 0.0, 2024-03-13 20:38:00.694
61.0, -675.0351124522276, -130.04941110918298, -508.02614003093913, 676.5946507337503, 0.01600000075995922, -0.17600000835955143, 1.0400000493973494, 0.0, 0.0, 0.0, 0.0, 0.0, 1.7103874806960182E9, 0.0, 2024-03-13 20:38:00.696
61.0, -842.1263626725413, -46.95818384364247, -629.610287590418, 734.2695179004222, 0.01600000075995922, -0.17600000835955143, 1.0400000493973494, 0.0, 0.0, 0.0, 0.0, 0.0, 1.7103874806960182E9, 0.0, 2024-03-13 20:38:00.696
62.0, -672.3330347342417, 98.24156198604032, -458.5566133670509, 948.8144887085073, 0.01600000075995922, -0.17600000835955143, 1.0400000493973494, 0.0, 0.0, 0.0, 0.0, 0.0, 1.7103874807093737E9, 0.0, 2024-03-13 20:38:00.709
62.0, -801.6643850519322, 239.3218080145307, -624.7147585484199, 1075.0286324131303, 0.01600000075995922, -0.17600000835955143, 1.0400000493973494, 0.0, 0.0, 0.0, 0.0, 0.0, 1.7103874807093737E9, 0.0, 2024-03-13 20:38:00.709
63.0, -720.0822074185126, 181.34961880138144, -506.7358745462261, 962.5773205454461, 0.01600000075995922, -0.17600000835955143, 1.0400000493973494, 0.0, 0.0, 0.0, 0.0, 0.0, 1.7103874807251844E9, 0.0, 2024-03-13 20:38:00.725
63.0, -637.6866015447304, 87.74740271037444, -410.05759074166417, 908.2739731888287, 0.01600000075995922, -0.17600000835955143, 1.0400000493973494, 0.0, 0.0, 0.0, 0.0, 0.0, 1.7103874807251844E9, 0.0, 2024-03-13 20:38:00.725
64.0, -467.06114586628973, 11.230919566936791, -301.94456282258034, 857.446862841025, 0.01600000075995922, -0.17600000835955143, 1.0400000493973494, 0.0, 0.0, 0.0, 0.0, 0.0, 1.7103874807257469E9, 0.0, 2024-03-13 20:38:00.725
64.0, -651.7504953281023, -150.1588531709276, -464.7629773435183, 635.1528193247505, 0.01600000075995922, -0.17600000835955143, 1.0400000493973494, 0.0, 0.0, 0.0, 0.0, 0.0, 1.7103874807257469E9, 0.0, 2024-03-13 20:38:00.725
65.0, -523.9263246925548, -274.7723196945153, -293.4662096230313, 519.7656859918498, 0.01600000075995922, -0.17600000835955143, 1.0400000493973494, 0.0, 0.0, 0.0, 0.0, 0.0, 1.7103874807394834E9, 0.0, 2024-03-13 20:38:00.739
65.0, -586.9473788458854, -229.0483028362505, -421.84575540199876, 621.8238158826716, 0.01600000075995922, -0.17600000835955143, 1.0400000493973494, 0.0, 0.0, 0.0, 0.0, 0.0, 1.7103874807394834E9, 0.0, 2024-03-13 20:38:00.739
66.0, -672.6378365806304, -124.40590207604691, -509.49966061348096, 681.434081276413, 0.01600000075995922, -0.17600000835955143, 1.0400000493973494, 0.0, 0.0, 0.0, 0.0, 0.0, 1.7103874807549775E9, 0.0, 2024-03-13 20:38:00.754
66.0, -867.4080863730051, -48.01283563114703, -631.7682098648511, 731.6441081315279, 0.01600000075995922, -0.17600000835955143, 1.0400000493973494, 0.0, 0.0, 0.0, 0.0, 0.0, 1.7103874807549775E9, 0.0, 2024-03-13 20:38:00.754
67.0, -666.9513186980039, 99.03442077664658, -462.23293502349406, 943.3691943730228, 0.01600000075995922, -0.17600000835955143, 1.0400000493973494, 0.0, 0.0, 0.0, 0.0, 0.0, 1.7103874807557142E9, 0.0, 2024-03-13 20:38:00.755
67.0, -786.300876033958, 248.60049980459735, -624.6362206493504, 1083.7463392098434, 0.01600000075995922, -0.17600000835955143, 1.0400000493973494, 0.0, 0.0, 0.0, 0.0, 0.0, 1.7103874807557142E9, 0.0, 2024-03-13 20:38:00.755
68.0, -723.7622689749114, 181.2523814025335, -507.0649857423268, 963.0896868393756, 0.01600000075995922, -0.17600000835955143, 1.0400000493973494, 0.0, 0.0, 0.0, 0.0, 0.0, 1.710387480769382E9, 0.0, 2024-03-13 20:38:00.769
