%OpenBCI Raw EXG Data
%Number of channels = 4
%Sample Rate = 200 Hz
%Board = OpenBCI_GUI$BoardGanglionBLE
Sample Index, EXG Channel 0, EXG Channel 1, EXG Channel 2, EXG Channel 3, Accel Channel 0, Accel Channel 1, Accel Channel 2, Other, Other, Other, Other, Other, Timestamp, Other, Timestamp (Formatted)
2.0, -11.937760658562183, -1.327664484269917, -0.9424547888338566, 6.709380520507693, 0.5120000243186951, 0.0, 0.0, 0.0, 0.0, 0.0, 0.0, 0.0, 1.7103907903050408E9, 0.0, 2024-03-13 21:33:10.305
2.0, 7.438661011867225, 6.084817227907479, 1.8774297777563334, 8.616729497909546, 0.5120000243186951, 0.0, 0.0, 0.0, 0.0, 0.0, 0.0, 0.0, 1.7103907903050408E9, 0.0, 2024-03-13 21:33:10.305
3.0, -9.162754891440272, -4.5290188463404775, -10.47171987593174, 1.9821469765156507, 0.5120000243186951, 0.0, 0.0, 0.0, 0.0, 0.0, 0.0, 0.0, 1.710390790319935E9, 0.0, 2024-03-13 21:33:10.319
3.0, -9.043078092858195, 0.602123892866075, -7.7864717077463865, 13.351442841812968, 0.5120000243186951, 0.0, 0.0, 0.0, 0.0, 0.0, 0.0, 0.0, 1.710390790319935E9, 0.0, 2024-03-13 21:33:10.319
4.0, 11.436614064499736, 10.47171987593174, -0.1570757981389761, 16.021731410175562, 0.5120000243186951, 0.0, 0.0, 0.0, 0.0, 0.0, 0.0, 0.0, 1.7103907903202736E9, 0.0, 2024-03-13 21:33:10.320
4.0, 6.069857628084719, 4.899268941953778, 1.4024624833837152, 7.5059792110696435, 0.5120000243186951, 0.0, 0.0, 0.0, 0.0, 0.0, 0.0, 0.0, 1.7103907903202736E9, 0.0, 2024-03-13 21:33:10.320
5.0, -10.707333573140204, -6.5784840220585465, -13.373882241547108, 8.575590598396957, 0.5120000243186951, 0.0, 0.0, 0.0, 0.0, 0.0, 0.0, 0.0, 1.7103907903342087E9, 0.0, 2024-03-13 21:33:10.334
5.0, 1.6380761805921793, 8.87104269489646, -4.861869942396879, 10.542777975089848, 0.5120000243186951, 0.0, 0.0, 0.0, 0.0, 0.0, 0.0, 0.0, 1.7103907903342087E9, 0.0, 2024-03-13 21:33:10.334
6.0, 9.742439384572208, 14.155521332286298, 4.499099646694958, 10.06781068071723, 0.5120000243186951, 0.0, 0.0, 0.0, 0.0, 0.0, 0.0, 0.0, 1.7103907903501441E9, 0.0, 2024-03-13 21:33:10.350
6.0, -13.875028835609555, -2.584270869381726, -16.85572910029441, -2.1018237750977278, 0.5120000243186951, 0.0, 0.0, 0.0, 0.0, 0.0, 0.0, 0.0, 1.7103907903501441E9, 0.0, 2024-03-13 21:33:10.350
7.0, -2.1953212739899755, 3.4481877591460943, -10.823270471766591, 9.813497483730316, 0.5120000243186951, 0.0, 0.0, 0.0, 0.0, 0.0, 0.0, 0.0, 1.7103907903502865E9, 0.0, 2024-03-13 21:33:10.350
7.0, 1.1032704869285226, 3.5641246577724814, -8.934620994143188, 6.327910725027323, 0.5120000243186951, 0.0, 0.0, 0.0, 0.0, 0.0, 0.0, 0.0, 1.7103907903502865E9, 0.0, 2024-03-13 21:33:10.350
8.0, -1.0546517875045538, 5.0114659406244755, -3.9156752536073327, 5.385455936193466, 0.5120000243186951, 0.0, 0.0, 0.0, 0.0, 0.0, 0.0, 0.0, 1.710390790364196E9, 0.0, 2024-03-13 21:33:10.364
8.0, -7.767772207967937, -1.2640861850231886, -11.365555965341628, 7.315244313329458, 0.5120000243186951, 0.0, 0.0, 0.0, 0.0, 0.0, 0.0, 0.0, 1.710390790364196E9, 0.0, 2024-03-13 21:33:10.364
9.0, 19.555936868302524, 15.494405516423285, 9.446987288072705, 18.299330483190715, 0.5120000243186951, 0.0, 0.0, 0.0, 0.0, 0.0, 0.0, 0.0, 1.7103907903795135E9, 0.0, 2024-03-13 21:33:10.379
9.0, 5.8155444310978055, 5.9352212296798825, 15.038137721829116, 16.713612901978195, 0.5120000243186951, 0.0, 0.0, 0.0, 0.0, 0.0, 0.0, 0.0, 1.7103907903795135E9, 0.0, 2024-03-13 21:33:10.379
10.0, -2.8049249667674303, 5.2096806382760406, 1.933528277091682, 14.237799131311476, 0.5120000243186951, 0.0, 0.5600000265985727, 0.0, 0.0, 0.0, 0.0, 0.0, 1.710390790380268E9, 0.0, 2024-03-13 21:33:10.380
10.0, 20.50961135700345, 18.88275487627834, 9.013158893212676, 14.955859922803938, 0.5120000243186951, 0.0, 0.5600000265985727, 0.0, 0.0, 0.0, 0.0, 0.0, 1.710390790380268E9, 0.0, 2024-03-13 21:33:10.380
11.0, 12.771758348681033, 8.669088097289205, 5.262039237655699, 4.585117345675826, 0.5120000243186951, 0.7360000349581242, 0.5600000265985727, 0.0, 0.0, 0.0, 0.0, 0.0, 1.7103907903938076E9, 0.0, 2024-03-13 21:33:10.393
11.0, -6.45506732352078, 1.0284724878147244, -4.050311652012169, 1.7016544798389077, 0.5120000243186951, 0.7360000349581242, 0.5600000265985727, 0.0, 0.0, 0.0, 0.0, 0.0, 1.7103907903938076E9, 0.0, 2024-03-13 21:33:10.393
12.0, -3.7249403558671474, -2.943301265127957, -7.674274709075689, 1.5146594820544124, 0.5120000243186951, 0.7360000349581242, 0.5600000265985727, 0.0, 0.0, 0.0, 0.0, 0.0, 1.710390790409488E9, 0.0, 2024-03-13 21:33:10.409
12.0, 5.5350519344210625, 5.0526048401370645, 2.7937052669003606, 8.639168897643685, 0.5120000243186951, 0.7360000349581242, 0.5600000265985727, 0.0, 0.0, 0.0, 0.0, 0.0, 1.710390790409488E9, 0.0, 2024-03-13 21:33:10.409
13.0, -9.970573281869292, 0.22813389729708433, -2.5057329703122377, 0.46000769454985857, 0.5120000243186951, 0.7360000349581242, 0.5600000265985727, 0.0, 0.0, 0.0, 0.0, 0.0, 1.7103907904102209E9, 0.0, 2024-03-13 21:33:10.410
13.0, -17.28207769524306, -5.662208532914519, -23.912920316681266, -6.163355126976967, 0.5120000243186951, 0.7360000349581242, 0.5600000265985727, 0.0, 0.0, 0.0, 0.0, 0.0, 1.7103907904102209E9, 0.0, 2024-03-13 21:33:10.410
14.0, -7.087110416032374, 0.29919199645519257, -9.439507488161325, -3.6015236573293805, 0.5120000243186951, 0.7360000349581242, 0.5600000265985727, 0.0, 0.0, 0.0, 0.0, 0.0, 1.7103907904239707E9, 0.0, 2024-03-13 21:33:10.423
14.0, -14.47341282851994, 2.1093035750091076, 3.2911119610071182, 7.446140811778605, 0.5120000243186951, 0.7360000349581242, 0.5600000265985727, 0.0, 0.0, 0.0, 0.0, 0.0, 1.7103907904239707E9, 0.0, 2024-03-13 21:33:10.423
15.0, -13.762831836938858, -3.092897263355553, -7.113289715722203, 7.685494408942759, 0.5120000243186951, 0.7360000349581242, 0.5600000265985727, 0.0, 0.0, 0.0, 0.0, 0.0, 1.7103907904396992E9, 0.0, 2024-03-13 21:33:10.439
15.0, -6.615883021615446, 8.280138501897454, 4.121369751170278, 13.052250845357776, 0.5120000243186951, 0.7360000349581242, 0.5600000265985727, 0.0, 0.0, 0.0, 0.0, 0.0, 1.7103907904396992E9, 0.0, 2024-03-13 21:33:10.439
16.0, -11.735806060954928, 3.6725817564874887, 5.138622539117932, 14.787564424797893, 0.5120000243186951, 0.7360000349581242, 0.5600000265985727, 0.0, 0.0, 0.0, 0.0, 0.0, 1.7103907904402392E9, 0.0, 2024-03-13 21:33:10.440
16.0, -17.813143488951027, 0.13837629836052656, -0.7330203913152218, 12.87647554744035, 0.5120000243186951, 0.7360000349581242, 0.5600000265985727, 0.0, 0.0, 0.0, 0.0, 0.0, 1.7103907904402392E9, 0.0, 2024-03-13 21:33:10.440
17.0, -16.391981505788863, 2.733866867609322, -1.1219699867069721, 8.897221994586289, 0.5120000243186951, 0.7360000349581242, 0.5600000265985727, 0.0, 0.0, 0.0, 0.0, 0.0, 1.710390790453794E9, 0.0, 2024-03-13 21:33:10.453
17.0, -22.14768753759563, -2.5094728702679276, -2.8273643665015697, 8.706487096846104, 0.5120000243186951, 0.7360000349581242, 0.5600000265985727, 0.0, 0.0, 0.0, 0.0, 0.0, 1.710390790453794E9, 0.0, 2024-03-13 21:33:10.453
18.0, -44.097160377539694, -13.074690245091915, -7.438661011867225, 6.238153126090765, 0.5120000243186951, 0.7360000349581242, 0.5600000265985727, 0.0, 0.0, 0.0, 0.0, 0.0, 1.7103907904706037E9, 0.0, 2024-03-13 21:33:10.470
18.0, -33.49454400315881, -4.989026540890336, -10.613836074247956, 5.692127732560039, 0.5120000243186951, 0.7360000349581242, 0.5600000265985727, 0.0, 0.0, 0.0, 0.0, 0.0, 1.7103907904706037E9, 0.0, 2024-03-13 21:33:10.470
19.0, -26.351335087791085, -5.101223539561033, -4.181208150461316, 6.896375518292189, 0.5120000243186951, 0.7360000349581242, 0.5600000265985727, 0.0, 0.0, 0.0, 0.0, 0.0, 1.7103907904706278E9, 0.0, 2024-03-13 21:33:10.470
19.0, -27.74257787130773, -3.3621700601652265, 1.5969372810795903, 12.760538648813963, 0.5120000243186951, 0.7360000349581242, 0.5600000265985727, 0.0, 0.0, 0.0, 0.0, 0.0, 1.7103907904706278E9, 0.0, 2024-03-13 21:33:10.470
20.0, -30.330588640645146, -2.1467025745660067, -3.7660792553797364, 11.036444769240916, 0.5120000243186951, 0.7360000349581242, 0.5600000265985727, 0.0, 0.0, 0.0, 0.0, 0.0, 1.7103907904842424E9, 0.0, 2024-03-13 21:33:10.484
20.0, -23.826902617700398, -8.560630998574197, -7.565817610360682, 7.0646710162982345, 0.5120000243186951, 0.7360000349581242, 0.5600000265985727, 0.0, 0.0, 0.0, 0.0, 0.0, 1.7103907904842424E9, 0.0, 2024-03-13 21:33:10.484
21.0, -20.9359599519521, -6.7804386196658015, -2.730126967653632, 4.536498646251857, 0.5120000243186951, 0.7360000349581242, 0.5600000265985727, 0.0, 0.0, 0.0, 0.0, 0.0, 1.7103907904997742E9, 0.0, 2024-03-13 21:33:10.499
21.0, -31.157106530852616, -18.452666381374, -15.539284315891564, -3.908195453695953, 0.5120000243186951, 0.7360000349581242, 0.5600000265985727, 0.0, 0.0, 0.0, 0.0, 0.0, 1.7103907904997742E9, 0.0, 2024-03-13 21:33:10.499
22.0, -20.07952286209911, -15.584163115359843, -13.572096939198673, -3.1153366630896926, 0.5120000243186951, 0.7360000349581242, 0.5600000265985727, 0.0, 0.0, 0.0, 0.0, 0.0, 1.7103907905005577E9, 0.0, 2024-03-13 21:33:10.500
22.0, -12.124755656346679, -8.893482094630599, -7.696714108809829, -1.9858868764713407, 0.5120000243186951, 0.7360000349581242, 0.5600000265985727, 0.0, 0.0, 0.0, 0.0, 0.0, 1.7103907905005577E9, 0.0, 2024-03-13 21:33:10.500
23.0, -16.780931101180613, -6.253112725913525, -10.987826069816947, -0.6096036927774549, 0.5120000243186951, 0.7360000349581242, 0.5600000265985727, 0.0, 0.0, 0.0, 0.0, 0.0, 1.7103907905137737E9, 0.0, 2024-03-13 21:33:10.513
23.0, -0.056098499335348606, 3.8446171544492245, -8.87852249480784, 5.62106963340193, 0.5120000243186951, 0.7360000349581242, 0.5600000265985727, 0.0, 0.0, 0.0, 0.0, 0.0, 1.7103907905137737E9, 0.0, 2024-03-13 21:33:10.513
24.0, 10.385702176950872, 10.972866469994187, 4.921708341687918, 12.4501269524917, 0.5120000243186951, 0.7360000349581242, 0.5600000265985727, 0.0, 0.0, 0.0, 0.0, 0.0, 1.7103907905295854E9, 0.0, 2024-03-13 21:33:10.529
24.0, 6.200754126533866, 12.685740649700165, 7.2628857139497995, 16.13392840884626, 0.5120000243186951, 0.7360000349581242, 0.5600000265985727, 0.0, 0.0, 0.0, 0.0, 0.0, 1.7103907905295854E9, 0.0, 2024-03-13 21:33:10.529
25.0, 6.649542121216655, 9.151535191573203, 0.33285109605640173, 14.783824524842203, 0.5120000243186951, 0.7360000349581242, 0.5600000265985727, 0.0, 0.0, 0.0, 0.0, 0.0, 1.71039079053028E9, 0.0, 2024-03-13 21:33:10.530
25.0, 20.404894158244133, 20.10944206174463, 14.196660231798887, 23.127541325986385, 0.5120000243186951, 0.7360000349581242, 0.5600000265985727, 0.0, 0.0, 0.0, 0.0, 0.0, 1.71039079053028E9, 0.0, 2024-03-13 21:33:10.530
26.0, 23.022824127227068, 22.753551330417395, 18.362908782437444, 22.409480534493923, 0.5120000243186951, 0.7360000349581242, 0.5600000265985727, 0.0, 0.0, 0.0, 0.0, 0.0, 1.710390790543862E9, 0.0, 2024-03-13 21:33:10.543
26.0, 9.716260084882379, 16.13392840884626, 9.921954582445323, 23.894220816902816, 0.5120000243186951, 0.7360000349581242, 0.5600000265985727, 0.0, 0.0, 0.0, 0.0, 0.0, 1.710390790543862E9, 0.0, 2024-03-13 21:33:10.543
27.0, 30.510103838518262, 23.74462481867522, 15.741238913498819, 28.21380526572466, 0.5120000243186951, 0.7360000349581242, 0.5600000265985727, 0.0, 0.0, 0.0, 0.0, 0.0, 1.710390790559516E9, 0.0, 2024-03-13 21:33:10.559
27.0, 25.180746401660144, 25.487418198026717, 21.470765645615757, 26.53459018561989, 0.5120000243186951, 0.7360000349581242, 0.5600000265985727, 0.0, 0.0, 0.0, 0.0, 0.0, 1.710390790559516E9, 0.0, 2024-03-13 21:33:10.559
28.0, 12.48004615213722, 19.492358569055796, 24.253251212649047, 28.266163865104318, 0.5120000243186951, 0.7360000349581242, 0.5600000265985727, 0.0, 0.0, 0.0, 0.0, 0.0, 1.7103907905602386E9, 0.0, 2024-03-13 21:33:10.560
28.0, 20.1206617616117, 16.399461305700243, 2.4720738707110286, 24.19341281335801, 0.5120000243186951, 0.7360000349581242, 0.5600000265985727, 0.0, 0.0, 0.0, 0.0, 0.0, 1.7103907905602386E9, 0.0, 2024-03-13 21:33:10.560
29.0, 22.1963062370196, 16.4518199050799, 9.562924186699092, 16.10774910915643, 0.5120000243186951, 0.7360000349581242, 0.5600000265985727, 0.0, 0.0, 0.0, 0.0, 0.0, 1.7103907905738533E9, 0.0, 2024-03-13 21:33:10.573
29.0, 2.4047556715086102, 7.610696409828961, 8.197860702872276, 15.086756421253085, 0.5120000243186951, 0.7360000349581242, 0.5600000265985727, 0.0, 0.0, 0.0, 0.0, 0.0, 1.7103907905738533E9, 0.0, 2024-03-13 21:33:10.573
30.0, 1.7988918786868453, 0.8676567897200584, -9.162754891440272, 8.336237001232803, 0.5120000243186951, 0.7360000349581242, 0.5600000265985727, 0.0, 0.0, 0.0, 0.0, 0.0, 1.7103907905895295E9, 0.0, 2024-03-13 21:33:10.589
30.0, 20.14310116134584, 15.954413210973144, 1.7914120787754655, 14.716506325639784, 0.5120000243186951, 0.7360000349581242, 0.5600000265985727, 0.0, 0.0, 0.0, 0.0, 0.0, 1.7103907905895295E9, 0.0, 2024-03-13 21:33:10.589
31.0, 18.362908782437444, 7.756552508100867, 2.0419853758066893, 8.317537501454353, 0.5120000243186951, 0.7360000349581242, 0.5600000265985727, 0.0, 0.0, 0.0, 0.0, 0.0, 1.7103907905905097E9, 0.0, 2024-03-13 21:33:10.590
31.0, 2.1878414740785956, 3.2873720610514283, -2.543131969869137, 11.021485169418156, 0.5120000243186951, 0.7360000349581242, 0.5600000265985727, 0.0, 0.0, 0.0, 0.0, 0.0, 1.7103907905905097E9, 0.0, 2024-03-13 21:33:10.590
32.0, 11.735806060954928, 14.387395129539073, 2.771265867166221, 15.408387817442417, 0.5120000243186951, 0.7360000349581242, 0.5600000265985727, 0.0, 0.0, 0.0, 0.0, 0.0, 1.7103907906043065E9, 0.0, 2024-03-13 21:33:10.604
32.0, 16.650034602731466, 20.12440166156739, 10.411881476640701, 15.991812210530043, 0.5120000243186951, 0.7360000349581242, 0.5600000265985727, 0.0, 0.0, 0.0, 0.0, 0.0, 1.7103907906043065E9, 0.0, 2024-03-13 21:33:10.604
33.0, 14.686587125994265, 16.47799920476973, 7.992166205309331, 16.5266179041937, 0.5120000243186951, 0.7360000349581242, 0.5600000265985727, 0.0, 0.0, 0.0, 0.0, 0.0, 1.7103907906195247E9, 0.0, 2024-03-13 21:33:10.619
33.0, 9.297391289845109, 13.841369736008346, -6.245632926002145, 11.395475164987147, 0.5120000243186951, 0.7360000349581242, 0.5600000265985727, 0.0, 0.0, 0.0, 0.0, 0.0, 1.7103907906195247E9, 0.0, 2024-03-13 21:33:10.619
34.0, 17.988918786868453, 17.71590609010309, 5.000246240757406, 16.332143106497824, 0.5120000243186951, 0.7360000349581242, 0.5600000265985727, 0.0, 0.0, 0.0, 0.0, 0.0, 1.710390790620293E9, 0.0, 2024-03-13 21:33:10.620
34.0, 12.10605615656823, 17.910380887798965, -0.5983839929103851, 12.50996535178274, 0.5120000243186951, 0.7360000349581242, 0.5600000265985727, 0.0, 0.0, 0.0, 0.0, 0.0, 1.710390790620293E9, 0.0, 2024-03-13 21:33:10.620
35.0, 6.522385522723198, 10.733512872830033, -2.1841015741229057, 16.990365498699248, 0.5120000243186951, 0.7360000349581242, 0.5600000265985727, 0.0, 0.0, 0.0, 0.0, 0.0, 1.710390790634231E9, 0.0, 2024-03-13 21:33:10.634
35.0, 22.693712931126356, 24.803016506135464, 10.105209680274129, 21.152874149382114, 0.5120000243186951, 0.7360000349581242, 0.5600000265985727, 0.0, 0.0, 0.0, 0.0, 0.0, 1.710390790634231E9, 0.0, 2024-03-13 21:33:10.634
36.0, 15.112935720942914, 17.33817619457841, 8.02956520486623, 20.206679460592568, 0.5120000243186951, 0.7360000349581242, 0.5600000265985727, 0.0, 0.0, 0.0, 0.0, 0.0, 1.7103907906502569E9, 0.0, 2024-03-13 21:33:10.650
36.0, -4.188687950372696, 6.05115812830627, -9.67886108532548, 2.775005767121911, 0.5120000243186951, 0.7360000349581242, 0.5600000265985727, 0.0, 0.0, 0.0, 0.0, 0.0, 1.7103907906502569E9, 0.0, 2024-03-13 21:33:10.650
37.0, 10.987826069816947, 10.942947270348668, -0.1084570987150073, 11.29075796622783, 0.5120000243186951, 0.7360000349581242, 0.5600000265985727, 0.0, 0.0, 0.0, 0.0, 0.0, 1.710390790650356E9, 0.0, 2024-03-13 21:33:10.650
37.0, 15.68888031411916, 17.786964189261198, 9.054297792725265, 16.261085007339716, 0.5120000243186951, 0.7360000349581242, 0.5600000265985727, 0.0, 0.0, 0.0, 0.0, 0.0, 1.710390790650356E9, 0.0, 2024-03-13 21:33:10.650
38.0, 11.511412063613534, 13.168187743984163, -2.861023466102779, 13.26168524287641, 0.5120000243186951, 0.7360000349581242, 0.5600000265985727, 0.0, 0.0, 0.0, 0.0, 0.0, 1.710390790663856E9, 0.0, 2024-03-13 21:33:10.663
38.0, 11.070103868842125, 10.699853773228824, -9.087956892326474, 13.515998439863324, 0.5120000243186951, 0.7360000349581242, 0.5600000265985727, 0.0, 0.0, 0.0, 0.0, 0.0, 1.710390790663856E9, 0.0, 2024-03-13 21:33:10.663
39.0, 22.12524813786149, 16.328403206542134, 0.10097729880362749, 12.543624451383948, 0.5120000243186951, 0.7360000349581242, 0.5600000265985727, 0.0, 0.0, 0.0, 0.0, 0.0, 1.7103907906795232E9, 0.0, 2024-03-13 21:33:10.679
39.0, 18.725679078139365, 16.14140820875764, -3.3135513607412577, 12.05743745714426, 0.5120000243186951, 0.7360000349581242, 0.5600000265985727, 0.0, 0.0, 0.0, 0.0, 0.0, 1.7103907906795232E9, 0.0, 2024-03-13 21:33:10.679
40.0, -4.233566749840975, -2.5169526701793075, -15.430827217176557, 1.0920507870614529, 0.5120000243186951, 0.7360000349581242, 0.5600000265985727, 0.0, 0.0, 0.0, 0.0, 0.0, 1.7103907906802711E9, 0.0, 2024-03-13 21:33:10.680
40.0, 11.073843768797815, 4.678614844568074, -2.6441092686727643, 2.1953212739899755, 0.5120000243186951, 0.7360000349581242, 0.5600000265985727, 0.0, 0.0, 0.0, 0.0, 0.0, 1.7103907906802711E9, 0.0, 2024-03-13 21:33:10.680
41.0, 14.447233528830111, 5.972620229236782, -1.2154674855992198, 5.8566833306103945, 0.5120000243186951, 0.7360000349581242, 0.5600000265985727, 0.0, 0.0, 0.0, 0.0, 0.0, 1.7103907906938908E9, 0.0, 2024-03-13 21:33:10.693
41.0, -2.573051169514656, -2.2813389729708433, -8.807464395649731, -1.3800230836495757, 0.5120000243186951, 0.7360000349581242, 0.5600000265985727, 0.0, 0.0, 0.0, 0.0, 0.0, 1.7103907906938908E9, 0.0, 2024-03-13 21:33:10.693
42.0, 13.815190436318517, 12.266871854662895, 2.8011850668117404, 6.7804386196658015, 0.5120000243186951, 0.7360000349581242, 0.5600000265985727, 0.0, 0.0, 0.0, 0.0, 0.0, 1.7103907907096376E9, 0.0, 2024-03-13 21:33:10.709
42.0, 15.887095011770725, 14.443493628874421, 9.850896483287215, 6.002539428882301, 0.5120000243186951, 0.7360000349581242, 0.5600000265985727, 0.0, 0.0, 0.0, 0.0, 0.0, 1.7103907907096376E9, 0.0, 2024-03-13 21:33:10.709
43.0, 1.9896267764270306, 10.905548270791769, 5.262039237655699, 8.493312799371779, 0.5120000243186951, 0.7360000349581242, 0.5600000265985727, 0.0, 0.0, 0.0, 0.0, 0.0, 1.71039079071024E9, 0.0, 2024-03-13 21:33:10.710
43.0, 3.1976144621148705, 5.770665631629527, -18.411527481861413, -5.142362439073622, 0.5120000243186951, 0.7360000349581242, 0.5600000265985727, 0.0, 0.0, 0.0, 0.0, 0.0, 1.71039079071024E9, 0.0, 2024-03-13 21:33:10.710
44.0, 6.585963821969926, 6.253112725913525, -5.5724509339779615, -1.7652327790856361, 0.5120000243186951, 0.7360000349581242, 0.5600000265985727, 0.0, 0.0, 0.0, 0.0, 0.0, 1.7103907907238598E9, 0.0, 2024-03-13 21:33:10.723
44.0, -4.5701577458530664, -4.43178144749254, 0.40764909517019987, 7.801431307569146, 0.5120000243186951, 0.7360000349581242, 0.5600000265985727, 0.0, 0.0, 0.0, 0.0, 0.0, 1.7103907907238598E9, 0.0, 2024-03-13 21:33:10.723
45.0, -13.317783742211759, -8.811204295605421, -17.113782197237015, -0.4263485949486494, 0.5120000243186951, 0.7360000349581242, 0.5600000265985727, 0.0, 0.0, 0.0, 0.0, 0.0, 1.7103907907396667E9, 0.0, 2024-03-13 21:33:10.739
45.0, 1.2640861850231886, 0.523585993796587, -1.20424778573215, 2.7675259672105312, 0.5120000243186951, 0.7360000349581242, 0.5600000265985727, 0.0, 0.0, 0.0, 0.0, 0.0, 1.7103907907396667E9, 0.0, 2024-03-13 21:33:10.739
46.0, 5.677168132737279, 4.196167750284076, 4.551458246074617, 5.527572134509683, 0.5120000243186951, 0.7360000349581242, 0.5600000265985727, 0.0, 0.0, 0.0, 0.0, 0.0, 1.7103907907402792E9, 0.0, 2024-03-13 21:33:10.740
46.0, -5.527572134509683, -5.609849933534861, -5.938961129635572, 2.81988456659019, 0.5120000243186951, 0.7360000349581242, 0.5600000265985727, 0.0, 0.0, 0.0, 0.0, 0.0, 1.7103907907402792E9, 0.0, 2024-03-13 21:33:10.740
47.0, 9.63024238590151, 4.701054244302213, -0.6245632926002145, 7.846310107037425, 0.5120000243186951, 0.7360000349581242, 0.5600000265985727, 0.0, 0.0, 0.0, 0.0, 0.0, 1.7103907907539537E9, 0.0, 2024-03-13 21:33:10.753
47.0, 14.301377430558205, 6.937514417804778, 10.942947270348668, 8.87478259485215, 0.5120000243186951, 0.7360000349581242, 0.5600000265985727, 0.0, 0.0, 0.0, 0.0, 0.0, 1.7103907907539537E9, 0.0, 2024-03-13 21:33:10.753
48.0, -0.12715659849345684, -1.7951519787311554, 1.20424778573215, 4.592597145587206, 0.5120000243186951, 0.7360000349581242, 0.5600000265985727, 0.0, 0.0, 0.0, 0.0, 0.0, 1.7103907907697122E9, 0.0, 2024-03-13 21:33:10.769
48.0, -7.917368206195533, -8.755105796270072, -20.730265454389155, -8.594290098175406, 0.5120000243186951, 0.7360000349581242, 0.5600000265985727, 0.0, 0.0, 0.0, 0.0, 0.0, 1.7103907907697122E9, 0.0, 2024-03-13 21:33:10.769
49.0, 9.64520198572427, -0.14959599822759628, -8.82242399547249, -4.514059246517718, 0.5120000243186951, 0.7360000349581242, 0.5600000265985727, 0.0, 0.0, 0.0, 0.0, 0.0, 1.7103907907704332E9, 0.0, 2024-03-13 21:33:10.770
49.0, -2.1429626746103168, -4.001692952588201, -10.501639075577259, -11.208480167202652, 0.5120000243186951, 0.7360000349581242, 0.5600000265985727, 0.0, 0.0, 0.0, 0.0, 0.0, 1.7103907907704332E9, 0.0, 2024-03-13 21:33:10.770
50.0, -14.667887626215816, -12.90639474708587, -24.18219311349094, -15.531804515980184, 0.5120000243186951, 0.7360000349581242, 0.5600000265985727, 0.0, 0.0, 0.0, 0.0, 0.0, 1.7103907907844656E9, 0.0, 2024-03-13 21:33:10.784
50.0, 8.785024995915592, 7.199307414703071, -2.7076875679194927, 1.2266871854662895, 0.5120000243186951, 0.7360000349581242, 0.5600000265985727, 0.0, 0.0, 0.0, 0.0, 0.0, 1.7103907907844656E9, 0.0, 2024-03-13 21:33:10.784
51.0, 1.4211619831621647, 7.218006914481521, -0.8639168897643685, 6.02871872857213, 0.5120000243186951, 0.7360000349581242, 0.5600000265985727, 0.0, 0.0, 0.0, 0.0, 0.0, 1.710390790799506E9, 0.0, 2024-03-13 21:33:10.799
51.0, 1.3463639840483665, 11.144901867955923, 1.7091342797502875, 16.55653710383922, 0.5120000243186951, 0.7360000349581242, 0.5600000265985727, 0.0, 0.0, 0.0, 0.0, 0.0, 1.710390790799506E9, 0.0, 2024-03-13 21:33:10.799
52.0, 16.373282006010413, 24.436506310477853, 16.332143106497824, 30.16977294255048, 0.5120000243186951, 0.7360000349581242, 0.5600000265985727, 0.0, 0.0, 0.0, 0.0, 0.0, 1.710390790800604E9, 0.0, 2024-03-13 21:33:10.800
52.0, 8.657868397422135, 9.66016158554703, 17.540130792185664, 19.503578268922865, 0.5120000243186951, 0.7360000349581242, 0.5600000265985727, 0.0, 0.0, 0.0, 0.0, 0.0, 1.710390790800604E9, 0.0, 2024-03-13 21:33:10.800
53.0, -26.15312039013952, -15.931973811239004, -14.46593302860856, -7.333943813107908, 0.5120000243186951, 0.7360000349581242, 0.5600000265985727, 0.0, 0.0, 0.0, 0.0, 0.0, 1.7103907908138893E9, 0.0, 2024-03-13 21:33:10.813
53.0, -18.48632548097521, -10.4492804761976, -10.367002677172422, -0.7928587906062603, 0.5120000243186951, 0.7360000349581242, 0.5600000265985727, 0.0, 0.0, 0.0, 0.0, 0.0, 1.7103907908138893E9, 0.0, 2024-03-13 21:33:10.813
54.0, -14.858622523956, -13.411281241104007, -12.768018448725343, -5.722046932205558, 0.5120000243186951, 0.7360000349581242, 0.5600000265985727, 0.0, 0.0, 0.0, 0.0, 0.0, 1.7103907908296444E9, 0.0, 2024-03-13 21:33:10.829
54.0, -25.584655596874654, -12.827856848016381, -12.711919949389994, -5.62106963340193, 0.5120000243186951, 0.7360000349581242, 0.5600000265985727, 0.0, 0.0, 0.0, 0.0, 0.0, 1.7103907908296444E9, 0.0, 2024-03-13 21:33:10.829
55.0, -29.993997644633055, -17.076383197680116, -27.74631777126342, -16.84824930038303, 0.5120000243186951, 0.7360000349581242, 0.5600000265985727, 0.0, 0.0, 0.0, 0.0, 0.0, 1.7103907908303049E9, 0.0, 2024-03-13 21:33:10.830
55.0, -19.843909164890647, -14.8960215235129, -20.5283108567819, -10.812050771899521, 0.5120000243186951, 0.7360000349581242, 0.5600000265985727, 0.0, 0.0, 0.0, 0.0, 0.0, 1.7103907908303049E9, 0.0, 2024-03-13 21:33:10.830
56.0, -27.619161172769964, -24.010157715529203, -17.420453993603587, -16.279784507118165, 0.5120000243186951, 0.7360000349581242, 0.5600000265985727, 0.0, 0.0, 0.0, 0.0, 0.0, 1.7103907908438723E9, 0.0, 2024-03-13 21:33:10.843
56.0, -26.788903382606804, -19.567156568169594, -19.166987272910774, -9.787318184040487, 0.5120000243186951, 0.7360000349581242, 0.5600000265985727, 0.0, 0.0, 0.0, 0.0, 0.0, 1.7103907908438723E9, 0.0, 2024-03-13 21:33:10.843
57.0, -13.198106943629682, -12.188333955593407, -14.129342032596469, -5.097483639605343, 0.5120000243186951, 0.7360000349581242, 0.5600000265985727, 0.0, 0.0, 0.0, 0.0, 0.0, 1.7103907908595002E9, 0.0, 2024-03-13 21:33:10.859
57.0, -17.053943797945976, -17.618668691255152, -9.192674091085792, -12.928834146820009, 0.5120000243186951, 0.7360000349581242, 0.5600000265985727, 0.0, 0.0, 0.0, 0.0, 0.0, 1.7103907908595002E9, 0.0, 2024-03-13 21:33:10.859
58.0, -27.263870676979423, -21.945732939988375, -15.561723715625703, -11.29823776613921, 0.5120000243186951, 0.7360000349581242, 0.5600000265985727, 0.0, 0.0, 0.0, 0.0, 0.0, 1.710390790860294E9, 0.0, 2024-03-13 21:33:10.860
58.0, -22.817129629664123, -24.5300038093701, -25.865148093551397, -12.09483645670116, 0.5120000243186951, 0.7360000349581242, 0.5600000265985727, 0.0, 0.0, 0.0, 0.0, 0.0, 1.710390790860294E9, 0.0, 2024-03-13 21:33:10.860
59.0, -2.4271950712427497, -10.303424377925694, -11.963939958252013, -11.545071163214743, 0.5120000243186951, 0.7360000349581242, 0.5600000265985727, 0.0, 0.0, 0.0, 0.0, 0.0, 1.710390790873836E9, 0.0, 2024-03-13 21:33:10.873
59.0, -12.745579048991203, -11.477752964012325, -15.015698322094977, -7.390042312443256, 0.5120000243186951, 0.7360000349581242, 0.5600000265985727, 0.0, 0.0, 0.0, 0.0, 0.0, 1.710390790873836E9, 0.0, 2024-03-13 21:33:10.873
60.0, -21.983131939545274, -15.782377813011408, -24.720738707110286, -14.0807233331725, 0.5120000243186951, 0.7360000349581242, 0.5600000265985727, 0.0, 0.0, 0.0, 0.0, 0.0, 1.7103907908895183E9, 0.0, 2024-03-13 21:33:10.889
60.0, 6.709380520507693, 6.83279721904546, -14.07324353326112, -7.206787214614451, 0.5120000243186951, 0.7360000349581242, 0.5600000265985727, 0.0, 0.0, 0.0, 0.0, 0.0, 1.7103907908895183E9, 0.0, 2024-03-13 21:33:10.889
61.0, -0.38894959539175034, 3.7922585550695658, -11.451573664322495, -6.978653317317367, 0.5120000243186951, 0.7360000349581242, 0.5600000265985727, 0.0, 0.0, 0.0, 0.0, 0.0, 1.7103907908901892E9, 0.0, 2024-03-13 21:33:10.890
61.0, -12.745579048991203, -2.864763366058469, -13.620715638622642, -5.9763601291924715, 0.5120000243186951, 0.7360000349581242, 0.5600000265985727, 0.0, 0.0, 0.0, 0.0, 0.0, 1.7103907908901892E9, 0.0, 2024-03-13 21:33:10.890
62.0, 2.771265867166221, 6.978653317317367, -7.221746814437211, 2.7937052669003606, 0.5120000243186951, 0.7360000349581242, 0.5600000265985727, 0.0, 0.0, 0.0, 0.0, 0.0, 1.710390790903885E9, 0.0, 2024-03-13 21:33:10.903
62.0, -0.4113889951258898, -3.9306348534300923, -11.470273164100945, -5.370496336370707, 0.5120000243186951, 0.7360000349581242, 0.5600000265985727, 0.0, 0.0, 0.0, 0.0, 0.0, 1.710390790903885E9, 0.0, 2024-03-13 21:33:10.903
63.0, -16.94548669923097, -12.09857635665685, -22.271104236133397, -9.136575591750443, 0.5120000243186951, 0.7360000349581242, 0.5600000265985727, 0.0, 0.0, 0.0, 0.0, 0.0, 1.7103907909199505E9, 0.0, 2024-03-13 21:33:10.919
63.0, -25.74547129496932, -27.981931468471885, -36.041415872983634, -21.33612924721092, 0.5120000243186951, 0.7360000349581242, 0.5600000265985727, 0.0, 0.0, 0.0, 0.0, 0.0, 1.7103907909199505E9, 0.0, 2024-03-13 21:33:10.919
64.0, -19.68309346679598, -19.570896468125284, -26.08954209089279, -20.363755258731544, 0.5120000243186951, 0.7360000349581242, 0.5600000265985727, 0.0, 0.0, 0.0, 0.0, 0.0, 1.710390790920366E9, 0.0, 2024-03-13 21:33:10.920
64.0, -34.388380092568696, -23.161200425587595, -12.330450153909624, -15.31115041859448, 0.5120000243186951, 0.7360000349581242, 0.5600000265985727, 0.0, 0.0, 0.0, 0.0, 0.0, 1.710390790920366E9, 0.0, 2024-03-13 21:33:10.920
65.0, -35.03164288494736, -28.17640626616776, -20.14684106130153, -17.016544798389077, 0.5120000243186951, 0.7360000349581242, 0.5600000265985727, 0.0, 0.0, 0.0, 0.0, 0.0, 1.7103907909342184E9, 0.0, 2024-03-13 21:33:10.934
65.0, -15.352289318107069, -13.815190436318517, -7.135729115456343, -6.260592525824904, 0.5120000243186951, 0.7360000349581242, 0.5600000265985727, 0.0, 0.0, 0.0, 0.0, 0.0, 1.7103907909342184E9, 0.0, 2024-03-13 21:33:10.934
66.0, -19.066009974107146, -15.090496321208775, -7.984686405397952, -5.927741429768503, 0.5120000243186951, 0.7360000349581242, 0.5600000265985727, 0.0, 0.0, 0.0, 0.0, 0.0, 1.7103907909496365E9, 0.0, 2024-03-13 21:33:10.949
66.0, -41.7597229052335, -32.0883416198194, -24.832935705780983, -12.947533646598458, 0.5120000243186951, 0.7360000349581242, 0.5600000265985727, 0.0, 0.0, 0.0, 0.0, 0.0, 1.7103907909496365E9, 0.0, 2024-03-13 21:33:10.949
67.0, -32.61566751357168, -31.489957626909018, -35.82076177559793, -22.222485536709428, 0.5120000243186951, 0.7360000349581242, 0.5600000265985727, 0.0, 0.0, 0.0, 0.0, 0.0, 1.710390790950216E9, 0.0, 2024-03-13 21:33:10.950
67.0, -19.75415156595409, -20.599368955940008, -12.88769524730742, -14.032104633748531, 0.5120000243186951, 0.7360000349581242, 0.5600000265985727, 0.0, 0.0, 0.0, 0.0, 0.0, 1.710390790950216E9, 0.0, 2024-03-13 21:33:10.950
68.0, -34.70627158880234, -26.661746784113348, -24.668380107730627, -19.110888773575425, 0.5120000243186951, 0.7360000349581242, 0.5600000265985727, 0.0, 0.0, 0.0, 0.0, 0.0, 1.7103907909638295E9, 0.0, 2024-03-13 21:33:10.963
68.0, -29.39187375176698, -26.687926083803177, -27.058176179416478, -19.29040397144854, 0.5120000243186951, 0.7360000349581242, 0.5600000265985727, 0.0, 0.0, 0.0, 0.0, 0.0, 1.7103907909638295E9, 0.0, 2024-03-13 21:33:10.963
69.0, -13.583316639065742, -13.942347034811974, -12.49126585200429, -13.194367043673992, 0.5120000243186951, 0.7360000349581242, 0.5600000265985727, 0.0, 0.0, 0.0, 0.0, 0.0, 1.710390790979476E9, 0.0, 2024-03-13 21:33:10.979
69.0, -11.186040767468512, -6.937514417804778, -2.535652169957757, -1.3575836839154363, 0.5120000243186951, 0.7360000349581242, 0.5600000265985727, 0.0, 0.0, 0.0, 0.0, 0.0, 1.710390790979476E9, 0.0, 2024-03-13 21:33:10.979
70.0, -11.23839936684817, -7.715413608588278, -9.540484786964953, -0.7031011916697025, 0.5120000243186951, 0.7360000349581242, 0.576000027358532, 0.0, 0.0, 0.0, 0.0, 0.0, 1.7103907909804723E9, 0.0, 2024-03-13 21:33:10.980
70.0, -3.668841856531799, -9.28243169002235, -6.9823932172730565, -3.8109580548480153, 0.5120000243186951, 0.7360000349581242, 0.576000027358532, 0.0, 0.0, 0.0, 0.0, 0.0, 1.7103907909804723E9, 0.0, 2024-03-13 21:33:10.980
71.0, -11.455313564278185, -7.363863012753427, -1.6380761805921793, -0.6956213917583227, 0.5120000243186951, 0.7360000349581242, 0.576000027358532, 0.0, 0.0, 0.0, 0.0, 0.0, 1.7103907909940157E9, 0.0, 2024-03-13 21:33:10.994
71.0, -19.892527864314616, -10.86440937127918, -7.502239311113954, -1.5744978813454509, 0.5120000243186951, 0.7360000349581242, 0.576000027358532, 0.0, 0.0, 0.0, 0.0, 0.0, 1.7103907909940157E9, 0.0, 2024-03-13 21:33:10.994
72.0, -10.213666778989136, -13.179407443851233, -11.70214696135372, -8.280138501897454, 0.5120000243186951, 0.7360000349581242, 0.576000027358532, 0.0, 0.0, 0.0, 0.0, 0.0, 1.7103907910094545E9, 0.0, 2024-03-13 21:33:11.009
72.0, 3.8520969543606043, 3.3995690597221255, 6.481246623210609, 0.33659099601209164, 0.5120000243186951, 0.7360000349581242, 0.576000027358532, 0.0, 0.0, 0.0, 0.0, 0.0, 1.7103907910094545E9, 0.0, 2024-03-13 21:33:11.009
73.0, 0.2094343975186348, 4.319584448821843, 4.996506340801716, 6.170834926888347, 0.5120000243186951, 0.7360000349581242, 0.576000027358532, 0.0, 0.0, 0.0, 0.0, 0.0, 1.7103907910101733E9, 0.0, 2024-03-13 21:33:11.010
73.0, -22.55159673281014, -12.87647554744035, -22.731111930683255, -10.628795674070716, 0.5120000243186951, 0.7360000349581242, 0.576000027358532, 0.0, 0.0, 0.0, 0.0, 0.0, 1.7103907910101733E9, 0.0, 2024-03-13 21:33:11.010
74.0, -8.46339359972626, -1.9858868764713407, -3.388349359855056, -2.255159673281014, 0.5120000243186951, 0.7360000349581242, 0.576000027358532, 0.0, 0.0, 0.0, 0.0, 0.0, 1.7103907910240712E9, 0.0, 2024-03-13 21:33:11.024
74.0, -11.373035765253007, -0.13089649844914675, -7.543378210626543, 0.4151288950815797, 0.5120000243186951, 0.7360000349581242, 0.576000027358532, 0.0, 0.0, 0.0, 0.0, 0.0, 1.7103907910240712E9, 0.0, 2024-03-13 21:33:11.024
75.0, -18.17217388469726, -9.551704486832023, -19.68683336675167, -5.763185831718147, 0.5120000243186951, 0.7360000349581242, 0.576000027358532, 0.0, 0.0, 0.0, 0.0, 0.0, 1.7103907910396233E9, 0.0, 2024-03-13 21:33:11.039
75.0, -13.976006134413183, -11.391735265031457, -20.07578296214342, -11.361816065385938, 0.5120000243186951, 0.7360000349581242, 0.576000027358532, 0.0, 0.0, 0.0, 0.0, 0.0, 1.7103907910396233E9, 0.0, 2024-03-13 21:33:11.039
76.0, -1.2678260849788785, -1.1331896865740418, -4.379422848112881, 6.85897651873529, 0.5120000243186951, 0.7360000349581242, 0.576000027358532, 0.0, 0.0, 0.0, 0.0, 0.0, 1.7103907910402145E9, 0.0, 2024-03-13 21:33:11.040
76.0, -22.327202735468745, -4.8506502425298095, -13.239245843142271, 5.7370065320283175, 0.5120000243186951, 0.7360000349581242, 0.576000027358532, 0.0, 0.0, 0.0, 0.0, 0.0, 1.7103907910402145E9, 0.0, 2024-03-13 21:33:11.040
77.0, -6.526125422678888, 2.5655713696032763, -4.398122347891331, 10.957906870171428, 0.5120000243186951, 0.7360000349581242, 0.576000027358532, 0.0, 0.0, 0.0, 0.0, 0.0, 1.7103907910538943E9, 0.0, 2024-03-13 21:33:11.053
77.0, 7.483539811335504, 13.523478239774704, 11.616129262372851, 17.532650992274284, 0.5120000243186951, 0.7360000349581242, 0.576000027358532, 0.0, 0.0, 0.0, 0.0, 0.0, 1.7103907910538943E9, 0.0, 2024-03-13 21:33:11.053
78.0, -9.604063086211681, -1.084570987150073, -3.3509503602981567, 5.134882639162242, 0.5120000243186951, 0.7360000349581242, 0.576000027358532, 0.0, 0.0, 0.0, 0.0, 0.0, 1.7103907910694573E9, 0.0, 2024-03-13 21:33:11.069
78.0, -15.68140051420778, -6.286771825514734, -10.46797997597605, 5.22090033814311, 0.5120000243186951, 0.7360000349581242, 0.576000027358532, 0.0, 0.0, 0.0, 0.0, 0.0, 1.7103907910694573E9, 0.0, 2024-03-13 21:33:11.069
79.0, 2.498253170400858, 4.742193143814802, -0.17577529791742563, 5.688387832604349, 0.5120000243186951, 0.7360000349581242, 0.576000027358532, 0.0, 0.0, 0.0, 0.0, 0.0, 1.7103907910702283E9, 0.0, 2024-03-13 21:33:11.070
79.0, -5.4116352358832955, 1.5483185816556215, 8.88600229471922, 12.831596747972071, 0.5120000243186951, 0.7360000349581242, 0.576000027358532, 0.0, 0.0, 0.0, 0.0, 0.0, 1.7103907910702283E9, 0.0, 2024-03-13 21:33:11.070
80.0, -25.0124509036541, -11.223439767025411, -10.161308179609478, 0.018699499778449535, 0.5120000243186951, 0.7360000349581242, 0.576000027358532, 0.0, 0.0, 0.0, 0.0, 0.0, 1.710390791084087E9, 0.0, 2024-03-13 21:33:11.084
80.0, -15.28123121894896, -10.0416313810274, -8.661608297377825, -2.378576371818781, 0.5120000243186951, 0.7360000349581242, 0.576000027358532, 0.0, 0.0, 0.0, 0.0, 0.0, 1.710390791084087E9, 0.0, 2024-03-13 21:33:11.084
81.0, -14.297637530602515, -10.913028070703149, -11.335636765696108, -3.8483570544049144, 0.5120000243186951, 0.7200000341981649, 0.576000027358532, 0.0, 0.0, 0.0, 0.0, 0.0, 1.7103907910998273E9, 0.0, 2024-03-13 21:33:11.099
81.0, -33.41974600404501, -20.412373958155513, -18.643401279114187, -8.87852249480784, 0.5120000243186951, 0.7200000341981649, 0.576000027358532, 0.0, 0.0, 0.0, 0.0, 0.0, 1.7103907910998273E9, 0.0, 2024-03-13 21:33:11.099
82.0, -10.45676027610898, -9.151535191573203, -11.743285860866308, 1.3837629836052656, 0.5120000243186951, 0.7200000341981649, 0.576000027358532, 0.0, 0.0, 0.0, 0.0, 0.0, 1.710390791101081E9, 0.0, 2024-03-13 21:33:11.101
82.0, 2.5132127702236176, 4.42056174762547, 2.4384147711098194, 10.280984978191555, 0.5120000243186951, 0.7200000341981649, 0.576000027358532, 0.0, 0.0, 0.0, 0.0, 0.0, 1.710390791101081E9, 0.0, 2024-03-13 21:33:11.101
83.0, -12.128495556302369, -2.894682565703988, -2.898422465659678, 6.600923421792686, 0.5120000243186951, 0.7200000341981649, 0.576000027358532, 0.0, 0.0, 0.0, 0.0, 0.0, 1.7103907911138008E9, 0.0, 2024-03-13 21:33:11.113
83.0, 0.5759445931762457, 3.3509503602981567, -1.6754751801490784, 10.221146578900516, 0.5120000243186951, 0.7200000341981649, 0.576000027358532, 0.0, 0.0, 0.0, 0.0, 0.0, 1.7103907911138008E9, 0.0, 2024-03-13 21:33:11.113
84.0, 5.804324731230736, 6.2979915253818035, 10.340823377482593, 9.63772218581289, 0.5120000243186951, 0.7200000341981649, 0.576000027358532, 0.0, 0.0, 0.0, 0.0, 0.0, 1.7103907911295493E9, 0.0, 2024-03-13 21:33:11.129
84.0, -4.050311652012169, 8.814944195561111, 2.341177372261882, 12.184594055637717, 0.5120000243186951, 0.7200000341981649, 0.576000027358532, 0.0, 0.0, 0.0, 0.0, 0.0, 1.7103907911295493E9, 0.0, 2024-03-13 21:33:11.129
85.0, -8.986979593522847, -0.2580530969426036, -5.965140429325402, 7.322724113240838, 0.5120000243186951, 0.7200000341981649, 0.576000027358532, 0.0, 0.0, 0.0, 0.0, 0.0, 1.7103907911302707E9, 0.0, 2024-03-13 21:33:11.130
85.0, 1.6679953802376986, 10.09398998040706, 2.6067102691158652, 11.948980358429253, 0.5120000243186951, 0.7200000341981649, 0.576000027358532, 0.0, 0.0, 0.0, 0.0, 0.0, 1.7103907911302707E9, 0.0, 2024-03-13 21:33:11.130
86.0, -3.2836321610957384, 7.412481712177396, 2.2364601735025644, 7.696714108809829, 0.5120000243186951, 0.7200000341981649, 0.576000027358532, 0.0, 0.0, 0.0, 0.0, 0.0, 1.7103907911437924E9, 0.0, 2024-03-13 21:33:11.143
86.0, -15.786117712967098, -8.295098101720214, -5.146102339029312, -1.129449786618352, 0.5120000243186951, 0.7200000341981649, 0.576000027358532, 0.0, 0.0, 0.0, 0.0, 0.0, 1.7103907911437924E9, 0.0, 2024-03-13 21:33:11.143
87.0, -11.376775665208697, -8.758845696225762, -16.721092701889575, -10.004232381470501, 0.5120000243186951, 0.7200000341981649, 0.576000027358532, 0.0, 0.0, 0.0, 0.0, 0.0, 1.7103907911595104E9, 0.0, 2024-03-13 21:33:11.159
87.0, -0.6133435927331448, 1.9223085772246122, 1.8175913784652948, 1.047171987593174, 0.5120000243186951, 0.7200000341981649, 0.576000027358532, 0.0, 0.0, 0.0, 0.0, 0.0, 1.7103907911595104E9, 0.0, 2024-03-13 21:33:11.159
88.0, -8.665348197333515, -1.6642554802820086, 6.271812225691974, 11.799384360201657, 0.5120000243186951, 0.7200000341981649, 0.576000027358532, 0.0, 0.0, 0.0, 0.0, 0.0, 1.7103907911602323E9, 0.0, 2024-03-13 21:33:11.160
88.0, -11.713366661220789, -10.303424377925694, -7.449880711734295, -0.9798537883907557, 0.5120000243186951, 0.7200000341981649, 0.576000027358532, 0.0, 0.0, 0.0, 0.0, 0.0, 1.7103907911602323E9, 0.0, 2024-03-13 21:33:11.160
89.0, -1.7540130792185664, -0.5722046932205558, 7.337683713063598, 8.87478259485215, 0.5120000243186951, 0.7200000341981649, 0.576000027358532, 0.0, 0.0, 0.0, 0.0, 0.0, 1.710390791173836E9, 0.0, 2024-03-13 21:33:11.173
89.0, -10.509118875488639, 2.045725275762379, 7.928587906062603, 10.83075027167797, 0.5120000243186951, 0.7200000341981649, 0.576000027358532, 0.0, 0.0, 0.0, 0.0, 0.0, 1.710390791173836E9, 0.0, 2024-03-13 21:33:11.173
90.0, -15.041877621784806, -4.098930351436138, -5.205940738320351, 3.7548595555126667, 0.5120000243186951, 0.7200000341981649, 0.576000027358532, 0.0, 0.0, 0.0, 0.0, 0.0, 1.71039079118954E9, 0.0, 2024-03-13 21:33:11.189
90.0, -0.7517198910936713, -0.08601769898086786, -0.9798537883907557, 7.135729115456343, 0.5120000243186951, 0.7200000341981649, 0.576000027358532, 0.0, 0.0, 0.0, 0.0, 0.0, 1.71039079118954E9, 0.0, 2024-03-13 21:33:11.189
91.0, -1.6979145798832178, 4.03161215223372, 5.3742362363263965, 12.012558657675982, 0.5120000243186951, 0.7200000341981649, 0.576000027358532, 0.0, 0.0, 0.0, 0.0, 0.0, 1.7103907911902692E9, 0.0, 2024-03-13 21:33:11.190
91.0, -18.381608282215893, -6.754259319975972, -5.568711034022272, 6.529865322634578, 0.5120000243186951, 0.7200000341981649, 0.576000027358532, 0.0, 0.0, 0.0, 0.0, 0.0, 1.7103907911902692E9, 0.0, 2024-03-13 21:33:11.190
92.0, 3.0293189641088247, 0.7704193908721209, 1.8998691774904728, 9.308610989712179, 0.5120000243186951, 0.7200000341981649, 0.576000027358532, 0.0, 0.0, 0.0, 0.0, 0.0, 1.7103907912038207E9, 0.0, 2024-03-13 21:33:11.203
92.0, 5.329357436858118, 10.389442076906562, 16.414420905523002, 17.551350492052734, 0.5120000243186951, 0.7200000341981649, 0.576000027358532, 0.0, 0.0, 0.0, 0.0, 0.0, 1.7103907912038207E9, 0.0, 2024-03-13 21:33:11.203
93.0, -11.833043459802866, 3.3285109605640173, 4.659915344789624, 13.052250845357776, 0.5120000243186951, 0.7200000341981649, 0.576000027358532, 0.0, 0.0, 0.0, 0.0, 0.0, 1.7103907912195573E9, 0.0, 2024-03-13 21:33:11.219
93.0, -6.746779520064592, 0.44504809472709894, -2.8797229658812284, 6.084817227907479, 0.5120000243186951, 0.7200000341981649, 0.576000027358532, 0.0, 0.0, 0.0, 0.0, 0.0, 1.7103907912195573E9, 0.0, 2024-03-13 21:33:11.219
94.0, 11.414174664765596, 9.439507488161325, 13.388841841369867, 13.003632145933807, 0.5120000243186951, 0.7200000341981649, 0.576000027358532, 0.0, 0.0, 0.0, 0.0, 0.0, 1.7103907912203913E9, 0.0, 2024-03-13 21:33:11.220
94.0, -2.01954597607255, 5.957660629414022, 10.621315874159336, 13.987225834280252, 0.5120000243186951, 0.7200000341981649, 0.576000027358532, 0.0, 0.0, 0.0, 0.0, 0.0, 1.7103907912203913E9, 0.0, 2024-03-13 21:33:11.220
95.0, -13.504778739996254, -5.553751434199512, -16.298484006896615, -0.2056944975629449, 0.5120000243186951, 0.7200000341981649, 0.576000027358532, 0.0, 0.0, 0.0, 0.0, 0.0, 1.7103907912341793E9, 0.0, 2024-03-13 21:33:11.234
95.0, -3.0068795643746853, 0.7741592908278108, -7.378822612576187, 3.549165057949722, 0.5120000243186951, 0.7200000341981649, 0.576000027358532, 0.0, 0.0, 0.0, 0.0, 0.0, 1.7103907912341793E9, 0.0, 2024-03-13 21:33:11.234
96.0, -3.5304655581712723, 5.407895335927606, 1.5894574811682105, 6.600923421792686, 0.5120000243186951, 0.7200000341981649, 0.576000027358532, 0.0, 0.0, 0.0, 0.0, 0.0, 1.7103907912499876E9, 0.0, 2024-03-13 21:33:11.249
96.0, -17.865502088330686, -6.8215775191783905, -4.233566749840975, 0.45626779459416866, 0.5120000243186951, 0.7200000341981649, 0.576000027358532, 0.0, 0.0, 0.0, 0.0, 0.0, 1.7103907912499876E9, 0.0, 2024-03-13 21:33:11.249
97.0, 1.3426240840926766, 5.123662939295173, 0.1047171987593174, 8.108103103935719, 0.5120000243186951, 0.7200000341981649, 0.576000027358532, 0.0, 0.0, 0.0, 0.0, 0.0, 1.7103907912505677E9, 0.0, 2024-03-13 21:33:11.250
97.0, 2.251419773325324, 6.679461320862174, 3.7922585550695658, 8.792504795826972, 0.5120000243186951, 0.7200000341981649, 0.576000027358532, 0.0, 0.0, 0.0, 0.0, 0.0, 1.7103907912505677E9, 0.0, 2024-03-13 21:33:11.250
98.0, -16.014251610264182, -4.547718346118927, -2.890942665748298, 8.235259702429175, 0.5120000243186951, 0.7200000341981649, 0.576000027358532, 0.0, 0.0, 0.0, 0.0, 0.0, 1.7103907912638512E9, 0.0, 2024-03-13 21:33:11.263
98.0, -15.67018081434071, -6.092297027818859, -5.916521729901433, 5.793105031363666, 0.5120000243186951, 0.7200000341981649, 0.576000027358532, 0.0, 0.0, 0.0, 0.0, 0.0, 1.7103907912638512E9, 0.0, 2024-03-13 21:33:11.263
99.0, -2.733866867609322, 1.1518891863524914, 1.7839322788640857, 5.770665631629527, 0.5120000243186951, 0.7200000341981649, 0.576000027358532, 0.0, 0.0, 0.0, 0.0, 0.0, 1.710390791279654E9, 0.0, 2024-03-13 21:33:11.279
99.0, -10.142608679831028, -6.548564822413027, -6.174574826844037, -2.090604075230658, 0.5120000243186951, 0.7200000341981649, 0.576000027358532, 0.0, 0.0, 0.0, 0.0, 0.0, 1.710390791279654E9, 0.0, 2024-03-13 21:33:11.279
100.0, -13.564617139287293, -8.990719493478537, -21.35856864694506, -2.7525663673877716, 0.5120000243186951, 0.7200000341981649, 0.576000027358532, 0.0, 0.0, 0.0, 0.0, 0.0, 1.7103907912805068E9, 0.0, 2024-03-13 21:33:11.280
100.0, 3.096637163311243, -2.5618314696475863, -7.378822612576187, 5.63602923322469, 0.5120000243186951, 0.7200000341981649, 0.576000027358532, 0.0, 0.0, 0.0, 0.0, 0.0, 1.7103907912805068E9, 0.0, 2024-03-13 21:33:11.280
0.0, 309.1064712377265, 132.45229683071375, 69.0684723816812, 160.9073256435804, 0.5120000243186951, 0.7200000341981649, 0.576000027358532, 0.0, 0.0, 0.0, 0.0, 0.0, 1.7103907912945528E9, 0.0, 2024-03-13 21:33:11.294
1.0, 300.3625851413235, 129.79696786217391, 60.70231618080288, 155.30869540991262, 0.5120000243186951, 0.7200000341981649, 0.576000027358532, 0.0, 0.0, 0.0, 0.0, 0.0, 1.7103907912952693E9, 0.0, 2024-03-13 21:33:11.295
1.0, 310.4715347215533, 134.49428220652044, 61.44655627198517, 153.30784893361852, 0.5120000243186951, 0.7200000341981649, 0.576000027358532, 0.0, 0.0, 0.0, 0.0, 0.0, 1.7103907912952693E9, 0.0, 2024-03-13 21:33:11.295
2.0, 320.46828730311245, 140.19762963894755, 70.48215456493199, 154.7589301164262, 0.5120000243186951, 0.7200000341981649, 0.576000027358532, 0.0, 0.0, 0.0, 0.0, 0.0, 1.7103907913088648E9, 0.0, 2024-03-13 21:33:11.308
2.0, 308.0705189500004, 131.4350440427661, 60.46296258363873, 153.2367908344604, 0.5120000243186951, 0.7200000341981649, 0.576000027358532, 0.0, 0.0, 0.0, 0.0, 0.0, 1.7103907913088648E9, 0.0, 2024-03-13 21:33:11.308
3.0, 304.67468979023397, 123.97020373120904, 45.0209156665951, 148.4983375906013, 0.5120000243186951, 0.7200000341981649, 0.576000027358532, 0.0, 0.0, 0.0, 0.0, 0.0, 1.71039079132452E9, 0.0, 2024-03-13 21:33:11.324
3.0, 324.4886797554791, 139.70770274475217, 71.77989984955639, 158.55492857145146, 0.5120000243186951, 0.7200000341981649, 0.576000027358532, 0.0, 0.0, 0.0, 0.0, 0.0, 1.71039079132452E9, 0.0, 2024-03-13 21:33:11.324
4.0, 318.21312762983143, 144.56957268714905, 72.37080404255539, 159.26924946298823, 0.5120000243186951, 0.7200000341981649, 0.576000027358532, 0.0, 0.0, 0.0, 0.0, 0.0, 1.7103907913252451E9, 0.0, 2024-03-13 21:33:11.325
4.0, 308.3622311465442, 129.77452846243978, 55.55995374172926, 151.02650996064767, 0.5120000243186951, 0.7200000341981649, 0.576000027358532, 0.0, 0.0, 0.0, 0.0, 0.0, 1.7103907913252451E9, 0.0, 2024-03-13 21:33:11.325
5.0, 322.21108068246394, 136.59984588157386, 68.90765668358654, 154.04460922488943, 0.5120000243186951, 0.7200000341981649, 0.576000027358532, 0.0, 0.0, 0.0, 0.0, 0.0, 1.7103907913388407E9, 0.0, 2024-03-13 21:33:11.338
5.0, 313.3400379875675, 135.34323949646205, 66.82079250831157, 155.35731410933658, 0.5120000243186951, 0.7200000341981649, 0.576000027358532, 0.0, 0.0, 0.0, 0.0, 0.0, 1.7103907913388407E9, 0.0, 2024-03-13 21:33:11.338
6.0, 308.2575139477849, 134.2811079090461, 62.50120805948973, 156.12399360025302, 0.5120000243186951, 0.7200000341981649, 0.576000027358532, 0.0, 0.0, 0.0, 0.0, 0.0, 1.7103907913545625E9, 0.0, 2024-03-13 21:33:11.354
6.0, 315.54657896142453, 133.56304711755365, 63.57829924672842, 151.47903785528615, 0.5120000243186951, 0.7200000341981649, 0.576000027358532, 0.0, 0.0, 0.0, 0.0, 0.0, 1.7103907913545625E9, 0.0, 2024-03-13 21:33:11.354
7.0, 310.7819464178756, 133.71264311578125, 70.9608617592603, 149.74372427584603, 0.5120000243186951, 0.7200000341981649, 0.576000027358532, 0.0, 0.0, 0.0, 0.0, 0.0, 1.7103907913552392E9, 0.0, 2024-03-13 21:33:11.355
7.0, 297.3631853768602, 123.48027683701366, 67.4042169013992, 157.6835318817757, 0.5120000243186951, 0.7200000341981649, 0.576000027358532, 0.0, 0.0, 0.0, 0.0, 0.0, 1.7103907913552392E9, 0.0, 2024-03-13 21:33:11.355
8.0, 303.8893107995391, 131.95863003656268, 64.64791063405573, 158.51752957189456, 0.5120000243186951, 0.7200000341981649, 0.576000027358532, 0.0, 0.0, 0.0, 0.0, 0.0, 1.710390791368867E9, 0.0, 2024-03-13 21:33:11.368
8.0, 317.8279179343954, 142.13115791603923, 78.41448237095028, 160.86244684411213, 0.5120000243186951, 0.7200000341981649, 0.576000027358532, 0.0, 0.0, 0.0, 0.0, 0.0, 1.710390791368867E9, 0.0, 2024-03-13 21:33:11.368
9.0, 312.87255049310625, 140.27990743797272, 81.43632153514773, 164.27323560370132, 0.5120000243186951, 0.7200000341981649, 0.576000027358532, 0.0, 0.0, 0.0, 0.0, 0.0, 1.710390791385208E9, 0.0, 2024-03-13 21:33:11.385
9.0, 306.46236196905375, 127.00326259527355, 67.78568669687957, 156.52416289551184, 0.5120000243186951, 0.7200000341981649, 0.576000027358532, 0.0, 0.0, 0.0, 0.0, 0.0, 1.710390791385208E9, 0.0, 2024-03-13 21:33:11.385
10.0, 313.91598258074373, 132.34757963195443, 73.56009222846478, 158.43525177286938, 0.5120000243186951, 0.7200000341981649, 0.576000027358532, 0.0, 0.0, 0.0, 0.0, 0.0, 1.7103907913852673E9, 0.0, 2024-03-13 21:33:11.385
10.0, 321.72115378826857, 141.41309712454677, 81.30168513674289, 166.689210975077, 0.5120000243186951, 0.7200000341981649, 0.576000027358532, 0.0, 0.0, 0.0, 0.0, 0.0, 1.7103907913852673E9, 0.0, 2024-03-13 21:33:11.385
11.0, 299.5809460505843, 128.19255078118294, 65.63898412231356, 160.97838374273852, 0.5120000243186951, 0.7200000341981649, 0.576000027358532, 0.0, 0.0, 0.0, 0.0, 0.0, 1.7103907913992057E9, 0.0, 2024-03-13 21:33:11.399
11.0, 315.13145006634295, 132.29896093253046, 65.35101182572544, 157.8331278800033, 0.5120000243186951, 0.7200000341981649, 0.576000027358532, 0.0, 0.0, 0.0, 0.0, 0.0, 1.7103907913992057E9, 0.0, 2024-03-13 21:33:11.399
12.0, 318.13832963071764, 136.6559443809092, 75.63573670387268, 158.8391609680839, 0.5120000243186951, 0.7200000341981649, 0.576000027358532, 0.0, 0.0, 0.0, 0.0, 0.0, 1.7103907914145658E9, 0.0, 2024-03-13 21:33:11.414
12.0, 297.4080641763285, 128.88443227298558, 63.71293564513326, 151.98766424925998, 0.5120000243186951, 0.7200000341981649, 0.576000027358532, 0.0, 0.0, 0.0, 0.0, 0.0, 1.7103907914145658E9, 0.0, 2024-03-13 21:33:11.414
13.0, 298.6983296610415, 119.14573278836906, 56.150857934728265, 145.21844532946125, 0.5120000243186951, 0.7200000341981649, 0.576000027358532, 0.0, 0.0, 0.0, 0.0, 0.0, 1.7103907914155116E9, 0.0, 2024-03-13 21:33:11.415
13.0, 322.487833279185, 136.33057308476418, 75.90126960072666, 159.32908786227927, 0.5120000243186951, 0.7200000341981649, 0.576000027358532, 0.0, 0.0, 0.0, 0.0, 0.0, 1.7103907914155116E9, 0.0, 2024-03-13 21:33:11.415
14.0, 316.1786220539361, 140.56413983460516, 81.8925893297419, 165.90009208442643, 0.5120000243186951, 0.7200000341981649, 0.576000027358532, 0.0, 0.0, 0.0, 0.0, 0.0, 1.7103907914288497E9, 0.0, 2024-03-13 21:33:11.428
14.0, 308.49686754494905, 130.70202365145087, 64.45717573631555, 157.44417828461155, 0.5120000243186951, 0.7200000341981649, 0.576000027358532, 0.0, 0.0, 0.0, 0.0, 0.0, 1.7103907914288497E9, 0.0, 2024-03-13 21:33:11.428
15.0, 325.69292754121125, 139.94705634191632, 80.27321264892817, 157.70597128150985, 0.5120000243186951, 0.7200000341981649, 0.576000027358532, 0.0, 0.0, 0.0, 0.0, 0.0, 1.710390791444556E9, 0.0, 2024-03-13 21:33:11.444
15.0, 323.43402796797454, 140.01811444107443, 77.02323958743364, 160.93724484322593, 0.5120000243186951, 0.7200000341981649, 0.576000027358532, 0.0, 0.0, 0.0, 0.0, 0.0, 1.710390791444556E9, 0.0, 2024-03-13 21:33:11.444
16.0, 312.54343929700553, 131.25552884489298, 72.78967283759266, 160.5782144474797, 0.5120000243186951, 0.7200000341981649, 0.576000027358532, 0.0, 0.0, 0.0, 0.0, 0.0, 1.7103907914452677E9, 0.0, 2024-03-13 21:33:11.445
16.0, 319.32013801671565, 137.23936877399683, 69.55465937592089, 161.73758343374357, 0.5120000243186951, 0.7200000341981649, 0.576000027358532, 0.0, 0.0, 0.0, 0.0, 0.0, 1.7103907914452677E9, 0.0, 2024-03-13 21:33:11.445
17.0, 314.3759902752936, 135.37689859606326, 70.16426306869835, 152.88150033866987, 0.5120000243186951, 0.7200000341981649, 0.576000027358532, 0.0, 0.0, 0.0, 0.0, 0.0, 1.7103907914589827E9, 0.0, 2024-03-13 21:33:11.458
17.0, 301.2152823312208, 123.7981683332473, 58.62667170539498, 147.89247379777953, 0.5120000243186951, 0.7200000341981649, 0.576000027358532, 0.0, 0.0, 0.0, 0.0, 0.0, 1.7103907914589827E9, 0.0, 2024-03-13 21:33:11.458
18.0, 307.5170137565583, 121.96561735495925, 55.62727194093168, 144.50412443792447, 0.5120000243186951, 0.7200000341981649, 0.576000027358532, 0.0, 0.0, 0.0, 0.0, 0.0, 1.7103907914745703E9, 0.0, 2024-03-13 21:33:11.474
18.0, 318.4375216271728, 130.1372987581417, 65.70630232151598, 147.58206210145727, 0.5120000243186951, 0.7200000341981649, 0.576000027358532, 0.0, 0.0, 0.0, 0.0, 0.0, 1.7103907914745703E9, 0.0, 2024-03-13 21:33:11.474
19.0, 307.7002688543871, 123.58125413581729, 63.85505184344947, 145.41292012715712, 0.5120000243186951, 0.7200000341981649, 0.576000027358532, 0.0, 0.0, 0.0, 0.0, 0.0, 1.710390791475247E9, 0.0, 2024-03-13 21:33:11.475
19.0, 298.0588067686185, 119.08215448912233, 55.12986524682492, 142.02457076730207, 0.5120000243186951, 0.7200000341981649, 0.576000027358532, 0.0, 0.0, 0.0, 0.0, 0.0, 1.710390791475247E9, 0.0, 2024-03-13 21:33:11.475
20.0, 322.6037701778114, 134.62891860492527, 69.35270477831364, 154.47469771979377, 0.5120000243186951, 0.7200000341981649, 0.576000027358532, 0.0, 0.0, 0.0, 0.0, 0.0, 1.710390791488891E9, 0.0, 2024-03-13 21:33:11.488
20.0, 311.94131540413946, 132.35131953191012, 73.90416302438825, 153.00865693716332, 0.5120000243186951, 0.7200000341981649, 0.576000027358532, 0.0, 0.0, 0.0, 0.0, 0.0, 1.710390791488891E9, 0.0, 2024-03-13 21:33:11.488
21.0, 305.9574754750356, 128.94427067227662, 67.8866639956832, 154.1642860234715, 0.5120000243186951, 0.7360000349581242, 0.576000027358532, 0.0, 0.0, 0.0, 0.0, 0.0, 1.7103907915049868E9, 0.0, 2024-03-13 21:33:11.504
21.0, 310.5949514200911, 129.3967985669151, 60.48166208341718, 149.7960828752257, 0.5120000243186951, 0.7360000349581242, 0.576000027358532, 0.0, 0.0, 0.0, 0.0, 0.0, 1.7103907915049868E9, 0.0, 2024-03-13 21:33:11.504
22.0, 313.35125768743455, 134.82713330257684, 72.56153894029558, 154.96462461398914, 0.5120000243186951, 0.7360000349581242, 0.576000027358532, 0.0, 0.0, 0.0, 0.0, 0.0, 1.7103907915195336E9, 0.0, 2024-03-13 21:33:11.519
22.0, 300.23916844278574, 126.30764120351523, 69.8463715724647, 157.56011518323794, 0.5120000243186951, 0.7360000349581242, 0.576000027358532, 0.0, 0.0, 0.0, 0.0, 0.0, 1.7103907915195336E9, 0.0, 2024-03-13 21:33:11.519
23.0, 300.86373173538595, 121.49812986049801, 52.553074177354574, 147.70547879999503, 0.5120000243186951, 0.7360000349581242, 0.576000027358532, 0.0, 0.0, 0.0, 0.0, 0.0, 1.7103907915202787E9, 0.0, 2024-03-13 21:33:11.520
23.0, 314.8883565692231, 130.4327508546412, 62.66202375758439, 150.85073466273025, 0.5120000243186951, 0.7360000349581242, 0.576000027358532, 0.0, 0.0, 0.0, 0.0, 0.0, 1.7103907915202787E9, 0.0, 2024-03-13 21:33:11.520
24.0, 300.2952669421211, 124.38533262629062, 60.590119182132185, 142.76881085848436, 0.5120000243186951, 0.7360000349581242, 0.576000027358532, 0.0, 0.0, 0.0, 0.0, 0.0, 1.7103907915351553E9, 0.0, 2024-03-13 21:33:11.535
24.0, 304.01272749807686, 123.80564813315868, 52.40347817912698, 150.43934566760436, 0.5120000243186951, 0.7360000349581242, 0.576000027358532, 0.0, 0.0, 0.0, 0.0, 0.0, 1.7103907915351553E9, 0.0, 2024-03-13 21:33:11.535
25.0, 320.98439349699765, 138.64183125738055, 67.04144660569727, 157.6536126821302, 0.5120000243186951, 0.7360000349581242, 0.576000027358532, 0.0, 0.0, 0.0, 0.0, 0.0, 1.710390791535838E9, 0.0, 2024-03-13 21:33:11.535
25.0, 315.95422805659473, 137.03367427643389, 72.9953673351556, 162.11157342931256, 0.5120000243186951, 0.7360000349581242, 0.576000027358532, 0.0, 0.0, 0.0, 0.0, 0.0, 1.710390791535838E9, 0.0, 2024-03-13 21:33:11.535
26.0, 304.94022268708795, 134.0679336115718, 67.66600989829749, 156.10903400043026, 0.5120000243186951, 0.7360000349581242, 0.576000027358532, 0.0, 0.0, 0.0, 0.0, 0.0, 1.7103907915492475E9, 0.0, 2024-03-13 21:33:11.549
26.0, 322.53645197860897, 136.35301248449832, 65.4033704251051, 156.24741029879078, 0.5120000243186951, 0.7360000349581242, 0.576000027358532, 0.0, 0.0, 0.0, 0.0, 0.0, 1.7103907915492475E9, 0.0, 2024-03-13 21:33:11.549
27.0, 312.1544897016138, 132.53083472978324, 71.96689484734088, 155.2413772107102, 0.5120000243186951, 0.7360000349581242, 0.576000027358532, 0.0, 0.0, 0.0, 0.0, 0.0, 1.7103907915645845E9, 0.0, 2024-03-13 21:33:11.564
27.0, 302.27367401868105, 123.42417833767831, 62.7330818567425, 148.43101939139888, 0.5120000243186951, 0.7360000349581242, 0.576000027358532, 0.0, 0.0, 0.0, 0.0, 0.0, 1.7103907915645845E9, 0.0, 2024-03-13 21:33:11.564
28.0, 303.26848740689456, 121.46821066085249, 51.333866791799664, 141.0073179793544, 0.5120000243186951, 0.7360000349581242, 0.576000027358532, 0.0, 0.0, 0.0, 0.0, 0.0, 1.7103907915653417E9, 0.0, 2024-03-13 21:33:11.565
28.0, 313.0670252908021, 128.11027298215777, 63.86627154331654, 142.55937646096572, 0.5120000243186951, 0.7360000349581242, 0.576000027358532, 0.0, 0.0, 0.0, 0.0, 0.0, 1.7103907915653417E9, 0.0, 2024-03-13 21:33:11.565
29.0, 300.0372138451785, 125.0585146183148, 59.06050010025501, 143.62150804838166, 0.5120000243186951, 0.7360000349581242, 0.576000027358532, 0.0, 0.0, 0.0, 0.0, 0.0, 1.7103907915790927E9, 0.0, 2024-03-13 21:33:11.579
29.0, 300.9983681337908, 124.46013062540442, 50.081000306643546, 143.79728334629908, 0.5120000243186951, 0.7360000349581242, 0.576000027358532, 0.0, 0.0, 0.0, 0.0, 0.0, 1.7103907915790927E9, 0.0, 2024-03-13 21:33:11.579
30.0, 328.6773677058518, 146.43204286508262, 68.50000758841634, 160.6904114461504, 0.5120000243186951, 0.7360000349581242, 0.576000027358532, 0.0, 0.0, 0.0, 0.0, 0.0, 1.7103907915945528E9, 0.0, 2024-03-13 21:33:11.594
30.0, 327.54417801927775, 149.7381144259125, 79.64864935632795, 170.26455533271655, 0.5120000243186951, 0.7360000349581242, 0.576000027358532, 0.0, 0.0, 0.0, 0.0, 0.0, 1.7103907915945528E9, 0.0, 2024-03-13 21:33:11.594
31.0, 307.7114885542542, 136.92895707767457, 69.23302797973156, 163.90298550808802, 0.5120000243186951, 0.7360000349581242, 0.576000027358532, 0.0, 0.0, 0.0, 0.0, 0.0, 1.71039079159529E9, 0.0, 2024-03-13 21:33:11.595
31.0, 315.06413186714053, 135.75462849158794, 67.34063860215247, 161.41969193750992, 0.5120000243186951, 0.7360000349581242, 0.576000027358532, 0.0, 0.0, 0.0, 0.0, 0.0, 1.71039079159529E9, 0.0, 2024-03-13 21:33:11.595
32.0, 320.932034897618, 142.68466310948133, 82.8911426179111, 169.3968985429965, 0.5120000243186951, 0.7360000349581242, 0.576000027358532, 0.0, 0.0, 0.0, 0.0, 0.0, 1.7103907916088617E9, 0.0, 2024-03-13 21:33:11.608
32.0, 310.258360424079, 133.136698522605, 70.82996526081115, 162.3920659259893, 0.5120000243186951, 0.7360000349581242, 0.576000027358532, 0.0, 0.0, 0.0, 0.0, 0.0, 1.7103907916088617E9, 0.0, 2024-03-13 21:33:11.608
33.0, 309.3383450349793, 127.45579048991203, 63.95228924229741, 153.70053842896596, 0.5120000243186951, 0.7360000349581242, 0.576000027358532, 0.0, 0.0, 0.0, 0.0, 0.0, 1.710390791624873E9, 0.0, 2024-03-13 21:33:11.624
33.0, 325.31893754564226, 140.8408924313262, 85.50533268693835, 165.37276619067416, 0.5120000243186951, 0.7360000349581242, 0.576000027358532, 0.0, 0.0, 0.0, 0.0, 0.0, 1.710390791624873E9, 0.0, 2024-03-13 21:33:11.624
34.0, 310.7370676184073, 133.40971121937037, 77.0008001876995, 161.85352033236995, 0.5120000243186951, 0.7360000349581242, 0.576000027358532, 0.0, 0.0, 0.0, 0.0, 0.0, 1.7103907916252801E9, 0.0, 2024-03-13 21:33:11.625
34.0, 308.05555935017765, 130.83292014990002, 70.52703336440027, 161.59172733547166, 0.5120000243186951, 0.7360000349581242, 0.576000027358532, 0.0, 0.0, 0.0, 0.0, 0.0, 1.7103907916252801E9, 0.0, 2024-03-13 21:33:11.625
35.0, 314.226394277066, 132.20546343363822, 77.69268167950213, 162.73987662186846, 0.5120000243186951, 0.7360000349581242, 0.576000027358532, 0.0, 0.0, 0.0, 0.0, 0.0, 1.7103907916388574E9, 0.0, 2024-03-13 21:33:11.638
35.0, 313.57191178482026, 135.27592129725963, 78.59773746877909, 160.7652094452642, 0.5120000243186951, 0.7360000349581242, 0.576000027358532, 0.0, 0.0, 0.0, 0.0, 0.0, 1.7103907916388574E9, 0.0, 2024-03-13 21:33:11.638
36.0, 303.4704420045018, 130.6496650520712, 68.57106568757445, 157.2758827866055, 0.5120000243186951, 0.7360000349581242, 0.576000027358532, 0.0, 0.0, 0.0, 0.0, 0.0, 1.7103907916543028E9, 0.0, 2024-03-13 21:33:11.654
36.0, 320.124216507189, 139.57306634634733, 67.31819920241833, 162.12279312917963, 0.5120000243186951, 0.7360000349581242, 0.576000027358532, 0.0, 0.0, 0.0, 0.0, 0.0, 1.7103907916543028E9, 0.0, 2024-03-13 21:33:11.654
37.0, 322.80198487546295, 143.918830094859, 78.27984597254544, 162.64263922302052, 0.5120000243186951, 0.7360000349581242, 0.576000027358532, 0.0, 0.0, 0.0, 0.0, 0.0, 1.7103907916695476E9, 0.0, 2024-03-13 21:33:11.669
37.0, 305.08233888540417, 130.6197458524257, 66.37200451362878, 157.5339358835481, 0.5120000243186951, 0.7360000349581242, 0.576000027358532, 0.0, 0.0, 0.0, 0.0, 0.0, 1.7103907916695476E9, 0.0, 2024-03-13 21:33:11.669
38.0, 305.65080367866904, 130.97129644826055, 64.01212764158845, 156.34090779768303, 0.5120000243186951, 0.7360000349581242, 0.576000027358532, 0.0, 0.0, 0.0, 0.0, 0.0, 1.7103907916703627E9, 0.0, 2024-03-13 21:33:11.670
38.0, 313.527032985352, 132.4672564305365, 73.81814532540739, 153.30784893361852, 0.5120000243186951, 0.7360000349581242, 0.576000027358532, 0.0, 0.0, 0.0, 0.0, 0.0, 1.7103907916703627E9, 0.0, 2024-03-13 21:33:11.670
39.0, 292.5761134335771, 117.18228531163186, 62.39649086073041, 144.0478566433303, 0.5120000243186951, 0.7360000349581242, 0.576000027358532, 0.0, 0.0, 0.0, 0.0, 0.0, 1.7103907916845245E9, 0.0, 2024-03-13 21:33:11.684
39.0, 298.72076906077564, 121.7262637577951, 59.05302030034363, 142.7501113587059, 0.5120000243186951, 0.7360000349581242, 0.576000027358532, 0.0, 0.0, 0.0, 0.0, 0.0, 1.7103907916845245E9, 0.0, 2024-03-13 21:33:11.684
40.0, 308.377190746367, 123.68223143462092, 61.19598297495395, 139.78063079388812, 0.5120000243186951, 0.7360000349581242, 0.5600000265985727, 0.0, 0.0, 0.0, 0.0, 0.0, 1.7103907916852407E9, 0.0, 2024-03-13 21:33:11.685
40.0, 311.5598456086591, 130.05502095911652, 77.1466562859714, 151.0190301607363, 0.5120000243186951, 0.7360000349581242, 0.5600000265985727, 0.0, 0.0, 0.0, 0.0, 0.0, 1.7103907916852407E9, 0.0, 2024-03-13 21:33:11.685
41.0, 304.2483411952853, 127.2463560923934, 67.92780289519578, 151.2434241580777, 0.5120000243186951, 0.7200000341981649, 0.5600000265985727, 0.0, 0.0, 0.0, 0.0, 0.0, 1.7103907916990852E9, 0.0, 2024-03-13 21:33:11.699
41.0, 319.68290831241757, 134.1389917107299, 69.39010377787054, 155.89585970295593, 0.5120000243186951, 0.7200000341981649, 0.5600000265985727, 0.0, 0.0, 0.0, 0.0, 0.0, 1.7103907916990852E9, 0.0, 2024-03-13 21:33:11.699
42.0, 320.8534969985485, 135.87056539021432, 79.63742965646088, 160.2079643518664, 0.5120000243186951, 0.7200000341981649, 0.5600000265985727, 0.0, 0.0, 0.0, 0.0, 0.0, 1.710390791714523E9, 0.0, 2024-03-13 21:33:11.714
42.0, 295.1753439027816, 120.3163214745, 63.26040775049478, 149.84844147460535, 0.5120000243186951, 0.7200000341981649, 0.5600000265985727, 0.0, 0.0, 0.0, 0.0, 0.0, 1.710390791714523E9, 0.0, 2024-03-13 21:33:11.714
43.0, 294.4049245119095, 112.04740267246962, 50.522308501414955, 139.31314329942688, 0.5120000243186951, 0.7200000341981649, 0.5600000265985727, 0.0, 0.0, 0.0, 0.0, 0.0, 1.7103907917152574E9, 0.0, 2024-03-13 21:33:11.715
43.0, 308.04807955026627, 123.58873393572867, 63.2903269501403, 148.1991455941461, 0.5120000243186951, 0.7200000341981649, 0.5600000265985727, 0.0, 0.0, 0.0, 0.0, 0.0, 1.7103907917152574E9, 0.0, 2024-03-13 21:33:11.715
44.0, 298.37669826485217, 119.44492478482425, 66.17004991602153, 146.3104961165227, 0.5120000243186951, 0.7200000341981649, 0.5600000265985727, 0.0, 0.0, 0.0, 0.0, 0.0, 1.7103907917288315E9, 0.0, 2024-03-13 21:33:11.728
44.0, 300.6281180381775, 112.4251325679943, 53.26365516893566, 145.98512482037768, 0.5120000243186951, 0.7200000341981649, 0.5600000265985727, 0.0, 0.0, 0.0, 0.0, 0.0, 1.7103907917288315E9, 0.0, 2024-03-13 21:33:11.728
45.0, 311.24195411242545, 120.11062697693706, 57.52714111842215, 144.7135588354431, 0.5120000243186951, 0.7200000341981649, 0.5600000265985727, 0.0, 0.0, 0.0, 0.0, 0.0, 1.710390791744574E9, 0.0, 2024-03-13 21:33:11.744
45.0, 310.01526692695916, 127.01074239518493, 65.39215072523803, 155.51438990747556, 0.5120000243186951, 0.7200000341981649, 0.5600000265985727, 0.0, 0.0, 0.0, 0.0, 0.0, 1.710390791744574E9, 0.0, 2024-03-13 21:33:11.744
46.0, 300.78893373627216, 126.2478028042242, 62.89015765488148, 154.99080391367897, 0.5120000243186951, 0.7200000341981649, 0.5600000265985727, 0.0, 0.0, 0.0, 0.0, 0.0, 1.7103907917452888E9, 0.0, 2024-03-13 21:33:11.745
46.0, 309.57395873218775, 128.22246998082846, 60.33580598514527, 149.39217368001118, 0.5120000243186951, 0.7200000341981649, 0.5600000265985727, 0.0, 0.0, 0.0, 0.0, 0.0, 1.7103907917452888E9, 0.0, 2024-03-13 21:33:11.745
47.0, 314.9332353686914, 130.85909944958985, 77.84601757768542, 154.69909171713516, 0.5120000243186951, 0.7200000341981649, 0.5600000265985727, 0.0, 0.0, 0.0, 0.0, 0.0, 1.7103907917588181E9, 0.0, 2024-03-13 21:33:11.758
47.0, 308.8521580407396, 124.41151192598045, 72.2922661434859, 157.78450918057933, 0.5120000243186951, 0.7200000341981649, 0.5600000265985727, 0.0, 0.0, 0.0, 0.0, 0.0, 1.7103907917588181E9, 0.0, 2024-03-13 21:33:11.758
48.0, 304.45403569284827, 120.80624836869538, 58.39479790814221, 147.25669080531225, 0.5120000243186951, 0.7200000341981649, 0.5600000265985727, 0.0, 0.0, 0.0, 0.0, 0.0, 1.7103907917743185E9, 0.0, 2024-03-13 21:33:11.774
48.0, 310.05266592651606, 123.4316581375897, 68.79171978496015, 145.1286877305247, 0.5120000243186951, 0.7200000341981649, 0.5600000265985727, 0.0, 0.0, 0.0, 0.0, 0.0, 1.7103907917743185E9, 0.0, 2024-03-13 21:33:11.774
49.0, 292.6957902321592, 115.06176203675568, 61.59989217016846, 143.8683414454572, 0.5120000243186951, 0.7200000341981649, 0.5600000265985727, 0.0, 0.0, 0.0, 0.0, 0.0, 1.710390791789516E9, 0.0, 2024-03-13 21:33:11.789
49.0, 298.2084027668461, 116.61382051836699, 55.46645624283701, 147.26043070526794, 0.5120000243186951, 0.7200000341981649, 0.5600000265985727, 0.0, 0.0, 0.0, 0.0, 0.0, 1.710390791789516E9, 0.0, 2024-03-13 21:33:11.789
50.0, 311.2606536122039, 126.69659079890698, 61.17354357521981, 152.34295474505052, 0.5120000243186951, 0.7200000341981649, 0.5600000265985727, 0.0, 0.0, 0.0, 0.0, 0.0, 1.710390791790248E9, 0.0, 2024-03-13 21:33:11.790
50.0, 309.3607844347134, 132.34757963195443, 69.16570978052914, 156.95051149046049, 0.5120000243186951, 0.7200000341981649, 0.5600000265985727, 0.0, 0.0, 0.0, 0.0, 0.0, 1.710390791790248E9, 0.0, 2024-03-13 21:33:11.790
51.0, 296.00934159290045, 118.22571739926934, 48.62243932392448, 145.18478622986004, 0.5120000243186951, 0.7360000349581242, 0.5600000265985727, 0.0, 0.0, 0.0, 0.0, 0.0, 1.7103907918045373E9, 0.0, 2024-03-13 21:33:11.804
51.0, 310.0302265267819, 123.47653693705797, 46.73004994634539, 146.24317791732028, 0.5120000243186951, 0.7360000349581242, 0.5600000265985727, 0.0, 0.0, 0.0, 0.0, 0.0, 1.7103907918045373E9, 0.0, 2024-03-13 21:33:11.804
52.0, 323.9389144619927, 139.7002229448408, 63.795213444158435, 153.96607132581994, 0.5120000243186951, 0.7360000349581242, 0.5600000265985727, 0.0, 0.0, 0.0, 0.0, 0.0, 1.7103907918053336E9, 0.0, 2024-03-13 21:33:11.805
52.0, 313.9346820805222, 130.11485935840756, 62.3628317611292, 150.2710501695983, 0.5120000243186951, 0.7360000349581242, 0.5600000265985727, 0.0, 0.0, 0.0, 0.0, 0.0, 1.7103907918053336E9, 0.0, 2024-03-13 21:33:11.805
53.0, 313.5644319849089, 125.98226990737021, 57.54958051815629, 149.21265848213807, 0.5120000243186951, 0.7360000349581242, 0.5600000265985727, 0.0, 0.0, 0.0, 0.0, 0.0, 1.7103907918190286E9, 0.0, 2024-03-13 21:33:11.819
53.0, 316.9565212447196, 125.55966121237725, 59.70376289263368, 144.70607903553173, 0.5120000243186951, 0.7360000349581242, 0.5600000265985727, 0.0, 0.0, 0.0, 0.0, 0.0, 1.7103907918190286E9, 0.0, 2024-03-13 21:33:11.819
54.0, 294.9098110059276, 114.9458251381293, 60.82947277929634, 141.7515580705367, 0.5120000243186951, 0.7360000349581242, 0.5600000265985727, 0.0, 0.0, 0.0, 0.0, 0.0, 1.710390791834793E9, 0.0, 2024-03-13 21:33:11.834
54.0, 285.92657131236047, 109.37711410410702, 51.14687179401517, 136.61667543137446, 0.5120000243186951, 0.7360000349581242, 0.5600000265985727, 0.0, 0.0, 0.0, 0.0, 0.0, 1.710390791834793E9, 0.0, 2024-03-13 21:33:11.834
55.0, 307.1056247614324, 119.22053078748286, 58.67903030477464, 139.22712560044602, 0.5120000243186951, 0.7360000349581242, 0.5600000265985727, 0.0, 0.0, 0.0, 0.0, 0.0, 1.7103907918353395E9, 0.0, 2024-03-13 21:33:11.835
55.0, 304.09500529710203, 119.11581358872354, 64.04578674118966, 145.58495552511886, 0.5120000243186951, 0.7360000349581242, 0.5600000265985727, 0.0, 0.0, 0.0, 0.0, 0.0, 1.7103907918353395E9, 0.0, 2024-03-13 21:33:11.835
56.0, 286.60349320434034, 113.04595596063882, 54.68107725214213, 144.750957835, 0.5120000243186951, 0.7360000349581242, 0.5600000265985727, 0.0, 0.0, 0.0, 0.0, 0.0, 1.710390791849484E9, 0.0, 2024-03-13 21:33:11.849
56.0, 300.4785220399499, 116.80829531606287, 55.64223154075444, 143.13532105414197, 0.5120000243186951, 0.7360000349581242, 0.5600000265985727, 0.0, 0.0, 0.0, 0.0, 0.0, 1.710390791849484E9, 0.0, 2024-03-13 21:33:11.849
57.0, 308.57540544401854, 127.13041919376701, 74.44644851796329, 148.46841839095578, 0.5120000243186951, 0.7360000349581242, 0.5600000265985727, 0.0, 0.0, 0.0, 0.0, 0.0, 1.7103907918648212E9, 0.0, 2024-03-13 21:33:11.864
57.0, 308.4893877450377, 131.16577124595642, 71.50688715279102, 156.4680643961765, 0.5120000243186951, 0.7360000349581242, 0.5600000265985727, 0.0, 0.0, 0.0, 0.0, 0.0, 1.7103907918648212E9, 0.0, 2024-03-13 21:33:11.864
58.0, 304.0763057973236, 121.37845306191593, 52.878445473499596, 143.086702354718, 0.5120000243186951, 0.7360000349581242, 0.5600000265985727, 0.0, 0.0, 0.0, 0.0, 0.0, 1.7103907918656385E9, 0.0, 2024-03-13 21:33:11.865
58.0, 320.57300450187176, 134.7635550033301, 75.50858010537922, 154.6467331177555, 0.5120000243186951, 0.7360000349581242, 0.5600000265985727, 0.0, 0.0, 0.0, 0.0, 0.0, 1.7103907918656385E9, 0.0, 2024-03-13 21:33:11.865
59.0, 310.7445474183187, 132.42611753102392, 71.64900335110724, 158.4689108724706, 0.5120000243186951, 0.7360000349581242, 0.5600000265985727, 0.0, 0.0, 0.0, 0.0, 0.0, 1.710390791878838E9, 0.0, 2024-03-13 21:33:11.878
59.0, 312.5247397972271, 132.04838763549924, 66.11769131664187, 159.45624446077272, 0.5120000243186951, 0.7360000349581242, 0.5600000265985727, 0.0, 0.0, 0.0, 0.0, 0.0, 1.710390791878838E9, 0.0, 2024-03-13 21:33:11.878
60.0, 324.6681949533522, 139.63290474563837, 70.39987676590681, 155.39845300884917, 0.5120000243186951, 0.7360000349581242, 0.5600000265985727, 0.0, 0.0, 0.0, 0.0, 0.0, 1.7103907918948147E9, 0.0, 2024-03-13 21:33:11.894
60.0, 323.826717463322, 143.1745900036767, 82.49097332265228, 160.26406285120174, 0.5120000243186951, 0.7360000349581242, 0.5600000265985727, 0.0, 0.0, 0.0, 0.0, 0.0, 1.7103907918948147E9, 0.0, 2024-03-13 21:33:11.894
61.0, 301.82114612404257, 127.93823758419603, 71.80233924929053, 154.8374680154957, 0.5120000243186951, 0.7360000349581242, 0.5600000265985727, 0.0, 0.0, 0.0, 0.0, 0.0, 1.7103907918955908E9, 0.0, 2024-03-13 21:33:11.895
61.0, 319.76144621148705, 137.84897246677428, 74.88027691282332, 156.17261229967698, 0.5120000243186951, 0.7360000349581242, 0.5600000265985727, 0.0, 0.0, 0.0, 0.0, 0.0, 1.7103907918955908E9, 0.0, 2024-03-13 21:33:11.895
62.0, 314.1927351774648, 134.73737570364028, 79.63742965646088, 157.75085008097813, 0.5120000243186951, 0.7360000349581242, 0.5600000265985727, 0.0, 0.0, 0.0, 0.0, 0.0, 1.7103907919089305E9, 0.0, 2024-03-13 21:33:11.908
62.0, 293.9972754167393, 120.67535187024623, 58.843585902825, 147.54466310190037, 0.5120000243186951, 0.7360000349581242, 0.5600000265985727, 0.0, 0.0, 0.0, 0.0, 0.0, 1.7103907919089305E9, 0.0, 2024-03-13 21:33:11.908
63.0, 299.71932234894484, 123.7607693336904, 52.975682872347534, 146.99863770836964, 0.5120000243186951, 0.7360000349581242, 0.5600000265985727, 0.0, 0.0, 0.0, 0.0, 0.0, 1.710390791924612E9, 0.0, 2024-03-13 21:33:11.924
63.0, 319.267779417336, 135.6237319931388, 73.0327663347125, 150.757237163838, 0.5120000243186951, 0.7360000349581242, 0.5600000265985727, 0.0, 0.0, 0.0, 0.0, 0.0, 1.710390791924612E9, 0.0, 2024-03-13 21:33:11.924
64.0, 299.2518348544836, 125.34648691490293, 70.50459396466613, 153.14703323552385, 0.5120000243186951, 0.7360000349581242, 0.5600000265985727, 0.0, 0.0, 0.0, 0.0, 0.0, 1.7103907919253953E9, 0.0, 2024-03-13 21:33:11.925
64.0, 292.7406690316275, 122.02919565420598, 52.26510188076645, 141.0147977792658, 0.5120000243186951, 0.7360000349581242, 0.5600000265985727, 0.0, 0.0, 0.0, 0.0, 0.0, 1.7103907919253953E9, 0.0, 2024-03-13 21:33:11.925
65.0, 304.90282368753105, 120.31258157454431, 58.87350510247052, 136.3399228346534, 0.5120000243186951, 0.7360000349581242, 0.5600000265985727, 0.0, 0.0, 0.0, 0.0, 0.0, 1.7103907919389615E9, 0.0, 2024-03-13 21:33:11.938
65.0, 306.1444704728201, 124.51622912473977, 67.9203230952844, 145.0464099314995, 0.5120000243186951, 0.7360000349581242, 0.5600000265985727, 0.0, 0.0, 0.0, 0.0, 0.0, 1.7103907919389615E9, 0.0, 2024-03-13 21:33:11.938
66.0, 289.55801416933537, 115.42079243250191, 55.16726424638182, 143.086702354718, 0.5120000243186951, 0.7360000349581242, 0.5600000265985727, 0.0, 0.0, 0.0, 0.0, 0.0, 1.7103907919546E9, 0.0, 2024-03-13 21:33:11.954
66.0, 309.2897263355553, 126.85740649700165, 66.07655241712928, 154.24656382249668, 0.5120000243186951, 0.7360000349581242, 0.5600000265985727, 0.0, 0.0, 0.0, 0.0, 0.0, 1.7103907919546E9, 0.0, 2024-03-13 21:33:11.954
67.0, 309.79835272952914, 131.09097324684262, 70.18670246843249, 154.95714481407776, 0.5120000243186951, 0.7360000349581242, 0.5600000265985727, 0.0, 0.0, 0.0, 0.0, 0.0, 1.7103907919552891E9, 0.0, 2024-03-13 21:33:11.955
67.0, 297.16497067920864, 119.43744498491287, 59.729942192323506, 145.09876853087917, 0.5120000243186951, 0.7360000349581242, 0.5600000265985727, 0.0, 0.0, 0.0, 0.0, 0.0, 1.7103907919552891E9, 0.0, 2024-03-13 21:33:11.955
68.0, 301.71268902532756, 126.84992669709027, 58.147964511066675, 148.2776834932156, 0.5120000243186951, 0.7360000349581242, 0.5600000265985727, 0.0, 0.0, 0.0, 0.0, 0.0, 1.7103907919688184E9, 0.0, 2024-03-13 21:33:11.968
68.0, 308.6576832430437, 126.12064620573074, 71.52184675261378, 149.59412827761844, 0.5120000243186951, 0.7360000349581242, 0.5600000265985727, 0.0, 0.0, 0.0, 0.0, 0.0, 1.7103907919688184E9, 0.0, 2024-03-13 21:33:11.968
69.0, 304.19972249586135, 129.1387454699725, 67.38551740162075, 150.57772196596488, 0.5120000243186951, 0.7360000349581242, 0.5600000265985727, 0.0, 0.0, 0.0, 0.0, 0.0, 1.7103907919853518E9, 0.0, 2024-03-13 21:33:11.985
69.0, 308.24255434796214, 126.62179279979318, 63.56707954686135, 137.20757962437347, 0.5120000243186951, 0.7360000349581242, 0.5600000265985727, 0.0, 0.0, 0.0, 0.0, 0.0, 1.7103907919853518E9, 0.0, 2024-03-13 21:33:11.985
70.0, 320.1503958068788, 130.99373584799469, 62.179576663300395, 127.34172354126349, 0.5120000243186951, 0.7360000349581242, 0.5600000265985727, 0.0, 0.0, 0.0, 0.0, 0.0, 1.7103907919856415E9, 0.0, 2024-03-13 21:33:11.985
70.0, 317.1061172429472, 132.51961502991617, 70.47467476502061, 135.92853383952752, 0.5120000243186951, 0.7360000349581242, 0.5600000265985727, 0.0, 0.0, 0.0, 0.0, 0.0, 1.7103907919856415E9, 0.0, 2024-03-13 21:33:11.985
71.0, 312.6294569959864, 128.2860482800752, 68.29805299080908, 142.84360885759816, 0.5120000243186951, 0.7360000349581242, 0.5600000265985727, 0.0, 0.0, 0.0, 0.0, 0.0, 1.7103907919988222E9, 0.0, 2024-03-13 21:33:11.998
71.0, 319.08826421946287, 131.26300864480436, 68.76554048527032, 137.36091552255675, 0.5120000243186951, 0.7360000349581242, 0.5600000265985727, 0.0, 0.0, 0.0, 0.0, 0.0, 1.7103907919988222E9, 0.0, 2024-03-13 21:33:11.998
72.0, 307.9919810509309, 126.26650230400264, 73.1075643338263, 137.95929951546714, 0.5120000243186951, 0.7360000349581242, 0.5600000265985727, 0.0, 0.0, 0.0, 0.0, 0.0, 1.7103907920145848E9, 0.0, 2024-03-13 21:33:12.014
72.0, 306.1182911731303, 125.93365120794624, 74.02383982297033, 142.69775275932625, 0.5120000243186951, 0.7360000349581242, 0.5600000265985727, 0.0, 0.0, 0.0, 0.0, 0.0, 1.7103907920145848E9, 0.0, 2024-03-13 21:33:12.014
73.0, 295.8148667952046, 113.6443399535492, 50.71304339915514, 126.51146575110033, 0.5120000243186951, 0.7360000349581242, 0.5600000265985727, 0.0, 0.0, 0.0, 0.0, 0.0, 1.7103907920156147E9, 0.0, 2024-03-13 21:33:12.015
73.0, 309.3046859353781, 124.62094632349908, 57.747795215807855, 126.3356904531829, 0.5120000243186951, 0.7360000349581242, 0.5600000265985727, 0.0, 0.0, 0.0, 0.0, 0.0, 1.7103907920156147E9, 0.0, 2024-03-13 21:33:12.015
74.0, 308.9157363399863, 130.14851845800877, 67.98764129448682, 137.73490551812574, 0.5120000243186951, 0.7360000349581242, 0.5600000265985727, 0.0, 0.0, 0.0, 0.0, 0.0, 1.7103907920289207E9, 0.0, 2024-03-13 21:33:12.028
74.0, 297.5838394742459, 122.24984975159168, 66.50290101207793, 138.91297400416806, 0.5120000243186951, 0.7360000349581242, 0.5600000265985727, 0.0, 0.0, 0.0, 0.0, 0.0, 1.7103907920289207E9, 0.0, 2024-03-13 21:33:12.028
75.0, 310.523893320933, 128.63011907599866, 71.57794525194913, 143.03434375533834, 0.5120000243186951, 0.7360000349581242, 0.5600000265985727, 0.0, 0.0, 0.0, 0.0, 0.0, 1.710390792044592E9, 0.0, 2024-03-13 21:33:12.044
75.0, 315.58397796098143, 131.89505173731595, 73.47033462952822, 141.4972448735498, 0.5120000243186951, 0.7360000349581242, 0.5600000265985727, 0.0, 0.0, 0.0, 0.0, 0.0, 1.710390792044592E9, 0.0, 2024-03-13 21:33:12.044
76.0, 301.4471561284736, 126.34504020307213, 65.5118275238201, 143.37093475135043, 0.5120000243186951, 0.7360000349581242, 0.5600000265985727, 0.0, 0.0, 0.0, 0.0, 0.0, 1.7103907920453217E9, 0.0, 2024-03-13 21:33:12.045
76.0, 329.72827959340066, 143.70939569734037, 74.40904951840639, 151.37806055648252, 0.5120000243186951, 0.7360000349581242, 0.5600000265985727, 0.0, 0.0, 0.0, 0.0, 0.0, 1.7103907920453217E9, 0.0, 2024-03-13 21:33:12.045
77.0, 325.6069098422304, 145.16047688014805, 81.10721033904701, 154.08574812440202, 0.5120000243186951, 0.7360000349581242, 0.5600000265985727, 0.0, 0.0, 0.0, 0.0, 0.0, 1.7103907920588338E9, 0.0, 2024-03-13 21:33:12.058
77.0, 323.9987528612837, 141.63375122193247, 82.3338975245133, 158.7269639694132, 0.5120000243186951, 0.7360000349581242, 0.5600000265985727, 0.0, 0.0, 0.0, 0.0, 0.0, 1.7103907920588338E9, 0.0, 2024-03-13 21:33:12.058
78.0, 325.7527659405023, 137.56847997009754, 67.57625229936093, 149.36973428027704, 0.5120000243186951, 0.7360000349581242, 0.5600000265985727, 0.0, 0.0, 0.0, 0.0, 0.0, 1.710390792074548E9, 0.0, 2024-03-13 21:33:12.074
78.0, 325.8126043397933, 139.2476950502023, 82.02722572814673, 154.2802229220979, 0.5120000243186951, 0.7360000349581242, 0.5600000265985727, 0.0, 0.0, 0.0, 0.0, 0.0, 1.710390792074548E9, 0.0, 2024-03-13 21:33:12.074
79.0, 315.9729275563732, 140.13031143974513, 84.04303180426359, 157.26092318678275, 0.5120000243186951, 0.7360000349581242, 0.5600000265985727, 0.0, 0.0, 0.0, 0.0, 0.0, 1.7103907920752337E9, 0.0, 2024-03-13 21:33:12.075
79.0, 314.61160397250205, 135.96032298915088, 74.16595602128655, 158.4614310725592, 0.5120000243186951, 0.7360000349581242, 0.5600000265985727, 0.0, 0.0, 0.0, 0.0, 0.0, 1.7103907920752337E9, 0.0, 2024-03-13 21:33:12.075
80.0, 321.76603258773685, 134.62517870496958, 74.37539041880518, 153.89501322666183, 0.5120000243186951, 0.7360000349581242, 0.5600000265985727, 0.0, 0.0, 0.0, 0.0, 0.0, 1.7103907920889258E9, 0.0, 2024-03-13 21:33:12.088
80.0, 322.5888105779886, 139.05696015246212, 78.4818005701527, 157.19734488753602, 0.5120000243186951, 0.7360000349581242, 0.5600000265985727, 0.0, 0.0, 0.0, 0.0, 0.0, 1.7103907920889258E9, 0.0, 2024-03-13 21:33:12.088
81.0, 312.79027269408107, 132.89360502548516, 71.48444775305688, 157.06644838908687, 0.5120000243186951, 0.7200000341981649, 0.5600000265985727, 0.0, 0.0, 0.0, 0.0, 0.0, 1.710390792104514E9, 0.0, 2024-03-13 21:33:12.104
81.0, 324.683154553175, 140.27990743797272, 76.2976989960298, 157.354420685675, 0.5120000243186951, 0.7200000341981649, 0.5600000265985727, 0.0, 0.0, 0.0, 0.0, 0.0, 1.710390792104514E9, 0.0, 2024-03-13 21:33:12.104
82.0, 332.79873745702207, 149.91014982387424, 90.61029612645507, 170.51886852970347, 0.5120000243186951, 0.7200000341981649, 0.5600000265985727, 0.0, 0.0, 0.0, 0.0, 0.0, 1.7103907921052723E9, 0.0, 2024-03-13 21:33:12.105
82.0, 320.5505651021376, 144.1806230917573, 77.42714878264815, 165.2082105926238, 0.5120000243186951, 0.7200000341981649, 0.5600000265985727, 0.0, 0.0, 0.0, 0.0, 0.0, 1.7103907921052723E9, 0.0, 2024-03-13 21:33:12.105
83.0, 327.6301957182586, 148.48898784071207, 80.03011915180832, 166.23294318048283, 0.5120000243186951, 0.7200000341981649, 0.5600000265985727, 0.0, 0.0, 0.0, 0.0, 0.0, 1.7103907921192517E9, 0.0, 2024-03-13 21:33:12.119
83.0, 341.66978015191853, 153.80712557770312, 90.64395522605628, 166.59571347618476, 0.5120000243186951, 0.7200000341981649, 0.5600000265985727, 0.0, 0.0, 0.0, 0.0, 0.0, 1.7103907921192517E9, 0.0, 2024-03-13 21:33:12.119
84.0, 333.81225034501404, 155.51251995749772, 95.61802216712385, 174.7636549794115, 0.5120000243186951, 0.7200000341981649, 0.5600000265985727, 0.0, 0.0, 0.0, 0.0, 0.0, 1.7103907921347575E9, 0.0, 2024-03-13 21:33:12.134
84.0, 324.91876825038344, 142.26205441448838, 71.63778365124017, 161.6852248343639, 0.5120000243186951, 0.7200000341981649, 0.5600000265985727, 0.0, 0.0, 0.0, 0.0, 0.0, 1.7103907921347575E9, 0.0, 2024-03-13 21:33:12.134
85.0, 329.36176939774305, 144.6294110864401, 69.8463715724647, 154.62055381806567, 0.5120000243186951, 0.7200000341981649, 0.5600000265985727, 0.0, 0.0, 0.0, 0.0, 0.0, 1.710390792135288E9, 0.0, 2024-03-13 21:33:12.135
85.0, 337.3053169036284, 154.46160806994885, 88.89742194674909, 171.14343182230368, 0.5120000243186951, 0.7200000341981649, 0.5600000265985727, 0.0, 0.0, 0.0, 0.0, 0.0, 1.710390792135288E9, 0.0, 2024-03-13 21:33:12.135
86.0, 319.1518425187096, 144.12078469246626, 73.93034232407808, 162.37336642621085, 0.5120000243186951, 0.7200000341981649, 0.5600000265985727, 0.0, 0.0, 0.0, 0.0, 0.0, 1.710390792149295E9, 0.0, 2024-03-13 21:33:12.149
86.0, 328.94664050266147, 140.34348573721945, 68.93383598327637, 160.30146185075864, 0.5120000243186951, 0.7200000341981649, 0.5600000265985727, 0.0, 0.0, 0.0, 0.0, 0.0, 1.710390792149295E9, 0.0, 2024-03-13 21:33:12.149
87.0, 331.50847197230905, 146.7723737610504, 85.32581748906523, 168.20387045713142, 0.5120000243186951, 0.7200000341981649, 0.5600000265985727, 0.0, 0.0, 0.0, 0.0, 0.0, 1.7103907921649656E9, 0.0, 2024-03-13 21:33:12.164
87.0, 304.7457478893921, 131.59585974086076, 70.31385906692594, 154.36998052103445, 0.5120000243186951, 0.7200000341981649, 0.5600000265985727, 0.0, 0.0, 0.0, 0.0, 0.0, 1.7103907921649656E9, 0.0, 2024-03-13 21:33:12.164
88.0, 305.45258898101747, 127.52310868911445, 65.01442082971334, 152.51873004296795, 0.5120000243186951, 0.7200000341981649, 0.5600000265985727, 0.0, 0.0, 0.0, 0.0, 0.0, 1.710390792165276E9, 0.0, 2024-03-13 21:33:12.165
88.0, 323.7145204646513, 140.56039993464947, 83.20903411414474, 157.07018828904256, 0.5120000243186951, 0.7200000341981649, 0.5600000265985727, 0.0, 0.0, 0.0, 0.0, 0.0, 1.710390792165276E9, 0.0, 2024-03-13 21:33:12.165
89.0, 325.61064974218607, 144.43119638878852, 86.34307027701288, 166.580753876362, 0.5120000243186951, 0.7200000341981649, 0.5600000265985727, 0.0, 0.0, 0.0, 0.0, 0.0, 1.7103907921791384E9, 0.0, 2024-03-13 21:33:12.179
89.0, 303.6200380027294, 125.08843381796032, 67.8118659965694, 158.19215827574953, 0.5120000243186951, 0.7200000341981649, 0.5600000265985727, 0.0, 0.0, 0.0, 0.0, 0.0, 1.7103907921791384E9, 0.0, 2024-03-13 21:33:12.179
90.0, 318.6432161247358, 138.41369736008346, 79.02408606372774, 155.2750363103114, 0.5120000243186951, 0.7200000341981649, 0.576000027358532, 0.0, 0.0, 0.0, 0.0, 0.0, 1.710390792195214E9, 0.0, 2024-03-13 21:33:12.195
90.0, 318.5871176254004, 134.90193130169064, 77.24389368481934, 158.45395127264783, 0.5120000243186951, 0.7200000341981649, 0.576000027358532, 0.0, 0.0, 0.0, 0.0, 0.0, 1.710390792195214E9, 0.0, 2024-03-13 21:33:12.195
91.0, 314.1515962779522, 137.15709097497165, 75.29166590794921, 155.51812980743125, 0.5120000243186951, 0.7360000349581242, 0.576000027358532, 0.0, 0.0, 0.0, 0.0, 0.0, 1.7103907921959755E9, 0.0, 2024-03-13 21:33:12.195
91.0, 322.4953130790964, 142.96515560615808, 66.2186686154455, 154.45599822001532, 0.5120000243186951, 0.7360000349581242, 0.576000027358532, 0.0, 0.0, 0.0, 0.0, 0.0, 1.7103907921959755E9, 0.0, 2024-03-13 21:33:12.195
92.0, 329.77315839286894, 146.86961115989834, 80.95387444086373, 160.94098474318162, 0.5120000243186951, 0.7360000349581242, 0.576000027358532, 0.0, 0.0, 0.0, 0.0, 0.0, 1.7103907922089844E9, 0.0, 2024-03-13 21:33:12.208
92.0, 314.61534387245774, 141.94790281821042, 71.82103874906898, 162.01433603046462, 0.5120000243186951, 0.7360000349581242, 0.576000027358532, 0.0, 0.0, 0.0, 0.0, 0.0, 1.7103907922089844E9, 0.0, 2024-03-13 21:33:12.208
93.0, 324.49989945534617, 141.53277392312884, 66.08029231708497, 159.76665615709499, 0.5120000243186951, 0.7360000349581242, 0.576000027358532, 0.0, 0.0, 0.0, 0.0, 0.0, 1.7103907922257063E9, 0.0, 2024-03-13 21:33:12.225
93.0, 327.0168521255255, 141.30837992578745, 78.07789137493819, 158.4240320730023, 0.5120000243186951, 0.7360000349581242, 0.576000027358532, 0.0, 0.0, 0.0, 0.0, 0.0, 1.7103907922257063E9, 0.0, 2024-03-13 21:33:12.225
94.0, 319.31265821680427, 140.9568293299526, 79.5177528578788, 161.65904553467408, 0.5120000243186951, 0.7360000349581242, 0.576000027358532, 0.0, 0.0, 0.0, 0.0, 0.0, 1.71039079222609E9, 0.0, 2024-03-13 21:33:12.226
94.0, 302.8159595122561, 128.8021544739604, 61.89908416662365, 152.20831834664568, 0.5120000243186951, 0.7360000349581242, 0.576000027358532, 0.0, 0.0, 0.0, 0.0, 0.0, 1.71039079222609E9, 0.0, 2024-03-13 21:33:12.226
95.0, 332.0507574658841, 142.56124641094357, 72.01177364680916, 157.9827238782309, 0.5120000243186951, 0.7360000349581242, 0.576000027358532, 0.0, 0.0, 0.0, 0.0, 0.0, 1.7103907922389052E9, 0.0, 2024-03-13 21:33:12.238
95.0, 322.0465250844136, 140.6613772334531, 80.2619929490611, 162.77727562142536, 0.5120000243186951, 0.7360000349581242, 0.576000027358532, 0.0, 0.0, 0.0, 0.0, 0.0, 1.7103907922389052E9, 0.0, 2024-03-13 21:33:12.238
96.0, 299.37899145297706, 125.06973431818187, 60.49662168323994, 153.2367908344604, 0.5120000243186951, 0.7360000349581242, 0.576000027358532, 0.0, 0.0, 0.0, 0.0, 0.0, 1.710390792254768E9, 0.0, 2024-03-13 21:33:12.254
96.0, 320.8572368985042, 133.993135612458, 66.57395911123604, 156.0192764014937, 0.5120000243186951, 0.7360000349581242, 0.576000027358532, 0.0, 0.0, 0.0, 0.0, 0.0, 1.710390792254768E9, 0.0, 2024-03-13 21:33:12.254
97.0, 323.404108768329, 136.39041148405522, 84.97800679318607, 162.22003052802756, 0.5120000243186951, 0.7360000349581242, 0.576000027358532, 0.0, 0.0, 0.0, 0.0, 0.0, 1.7103907922554574E9, 0.0, 2024-03-13 21:33:12.255
97.0, 301.57431272696704, 123.45409753732383, 66.96664860658348, 155.70512480521575, 0.5120000243186951, 0.7360000349581242, 0.576000027358532, 0.0, 0.0, 0.0, 0.0, 0.0, 1.7103907922554574E9, 0.0, 2024-03-13 21:33:12.255
98.0, 311.42520921025425, 124.66208522301167, 59.96929578948766, 155.52186970738694, 0.5120000243186951, 0.7360000349581242, 0.576000027358532, 0.0, 0.0, 0.0, 0.0, 0.0, 1.7103907922689195E9, 0.0, 2024-03-13 21:33:12.268
98.0, 324.0024927612394, 135.3619389962405, 77.68146197963506, 166.4348977780901, 0.5120000243186951, 0.7360000349581242, 0.576000027358532, 0.0, 0.0, 0.0, 0.0, 0.0, 1.7103907922689195E9, 0.0, 2024-03-13 21:33:12.268
99.0, 315.3408844638616, 134.52046150621027, 77.76747967861593, 166.04220828274265, 0.5120000243186951, 0.7360000349581242, 0.576000027358532, 0.0, 0.0, 0.0, 0.0, 0.0, 1.7103907922847812E9, 0.0, 2024-03-13 21:33:12.284
99.0, 313.418575886637, 128.97418987192214, 68.28683329094201, 161.6179066351615, 0.5120000243186951, 0.7360000349581242, 0.576000027358532, 0.0, 0.0, 0.0, 0.0, 0.0, 1.7103907922847812E9, 0.0, 2024-03-13 21:33:12.284
100.0, 319.83624421060085, 132.96092322468758, 59.419530496001244, 155.15535951172933, 0.5120000243186951, 0.7360000349581242, 0.5600000265985727, 0.0, 0.0, 0.0, 0.0, 0.0, 1.7103907922852533E9, 0.0, 2024-03-13 21:33:12.285
100.0, 314.6751822717488, 138.14816446322948, 74.25197372026742, 162.7997150211595, 0.5120000243186951, 0.7360000349581242, 0.5600000265985727, 0.0, 0.0, 0.0, 0.0, 0.0, 1.7103907922852533E9, 0.0, 2024-03-13 21:33:12.285
0.0, 303.58450895315036, 126.74520949833095, 65.88955741934478, 163.69542106054723, 0.5120000243186951, 0.7360000349581242, 0.5600000265985727, 0.0, 0.0, 0.0, 0.0, 0.0, 1.7103907922998672E9, 0.0, 2024-03-13 21:33:12.299
1.0, 317.8784065837972, 131.7342360392213, 62.31047316174954, 157.88361652940512, 0.5120000243186951, 0.7360000349581242, 0.5600000265985727, 0.0, 0.0, 0.0, 0.0, 0.0, 1.7103907923004382E9, 0.0, 2024-03-13 21:33:12.300
1.0, 322.14937233319506, 136.49138878285885, 75.43752200622112, 160.36691009998322, 0.5120000243186951, 0.7360000349581242, 0.5600000265985727, 0.0, 0.0, 0.0, 0.0, 0.0, 1.7103907923004382E9, 0.0, 2024-03-13 21:33:12.300
2.0, 307.84425500268117, 126.71155039872974, 69.12831078097224, 161.46644068695605, 0.5120000243186951, 0.7360000349581242, 0.5600000265985727, 0.0, 0.0, 0.0, 0.0, 0.0, 1.7103907923139863E9, 0.0, 2024-03-13 21:33:12.313
2.0, 309.84510147897527, 123.17360504064709, 56.169557434506714, 154.83185816556215, 0.5120000243186951, 0.7360000349581242, 0.5600000265985727, 0.0, 0.0, 0.0, 0.0, 0.0, 1.7103907923139863E9, 0.0, 2024-03-13 21:33:12.313
3.0, 318.59272747533396, 130.81422065012157, 71.45826845336705, 154.34567117132246, 0.5120000243186951, 0.7360000349581242, 0.5600000265985727, 0.0, 0.0, 0.0, 0.0, 0.0, 1.710390792329281E9, 0.0, 2024-03-13 21:33:12.329
3.0, 311.139106863644, 129.48655616585165, 73.34691793099046, 156.34277774766088, 0.5120000243186951, 0.7360000349581242, 0.5600000265985727, 0.0, 0.0, 0.0, 0.0, 0.0, 1.710390792329281E9, 0.0, 2024-03-13 21:33:12.329
4.0, 308.4538586954586, 124.86777972057462, 47.249896040186286, 145.93089627102017, 0.5120000243186951, 0.7360000349581242, 0.5600000265985727, 0.0, 0.0, 0.0, 0.0, 0.0, 1.710390792344807E9, 0.0, 2024-03-13 21:33:12.344
4.0, 314.59851432265714, 133.5780067173764, 62.23941506259143, 153.45557498186827, 0.5120000243186951, 0.7360000349581242, 0.5600000265985727, 0.0, 0.0, 0.0, 0.0, 0.0, 1.710390792344807E9, 0.0, 2024-03-13 21:33:12.344
5.0, 311.898306554649, 135.30584049690515, 72.65129653923213, 157.68540183175355, 0.5120000243186951, 0.7360000349581242, 0.5600000265985727, 0.0, 0.0, 0.0, 0.0, 0.0, 1.7103907923455908E9, 0.0, 2024-03-13 21:33:12.345
5.0, 298.70393951097503, 121.90577895566821, 55.41035774350166, 150.1457635210827, 0.5120000243186951, 0.7360000349581242, 0.5600000265985727, 0.0, 0.0, 0.0, 0.0, 0.0, 1.7103907923455908E9, 0.0, 2024-03-13 21:33:12.345
6.0, 307.21595181012526, 120.06574817746878, 45.57442086003721, 142.4340898124501, 0.5120000243186951, 0.7360000349581242, 0.5600000265985727, 0.0, 0.0, 0.0, 0.0, 0.0, 1.710390792360046E9, 0.0, 2024-03-13 21:33:12.360
6.0, 311.1952053629793, 123.6859713345766, 65.35475172568113, 149.68575582653284, 0.5120000243186951, 0.7360000349581242, 0.5600000265985727, 0.0, 0.0, 0.0, 0.0, 0.0, 1.710390792360046E9, 0.0, 2024-03-13 21:33:12.360
7.0, 290.36770250974223, 105.69705254770815, 48.880492420867085, 137.09351267572492, 0.5120000243186951, 0.7360000349581242, 0.5600000265985727, 0.0, 0.0, 0.0, 0.0, 0.0, 1.710390792360257E9, 0.0, 2024-03-13 21:33:12.360
7.0, 302.44383946666494, 117.00277011375874, 57.24664862174541, 150.05226602219045, 0.5120000243186951, 0.7360000349581242, 0.5600000265985727, 0.0, 0.0, 0.0, 0.0, 0.0, 1.710390792360257E9, 0.0, 2024-03-13 21:33:12.360
8.0, 319.2397301676683, 127.21643689274788, 73.85554432496428, 152.12791049759835, 0.5120000243186951, 0.7360000349581242, 0.5600000265985727, 0.0, 0.0, 0.0, 0.0, 0.0, 1.710390792373887E9, 0.0, 2024-03-13 21:33:12.373
8.0, 307.17855281056836, 128.05043458286673, 75.62451700400561, 161.7095341840759, 0.5120000243186951, 0.7360000349581242, 0.5600000265985727, 0.0, 0.0, 0.0, 0.0, 0.0, 1.710390792373887E9, 0.0, 2024-03-13 21:33:12.373
9.0, 297.3463558270596, 113.39376665651798, 52.37729887943715, 147.01546725817025, 0.5120000243186951, 0.7360000349581242, 0.5600000265985727, 0.0, 0.0, 0.0, 0.0, 0.0, 1.7103907923900704E9, 0.0, 2024-03-13 21:33:12.390
9.0, 318.3197147785686, 127.71384358685464, 73.37683713063598, 159.98170040454715, 0.5120000243186951, 0.7360000349581242, 0.5600000265985727, 0.0, 0.0, 0.0, 0.0, 0.0, 1.7103907923900704E9, 0.0, 2024-03-13 21:33:12.390
10.0, 318.70492447400466, 132.5420544296503, 77.07933808676898, 161.42156188748777, 0.5120000243186951, 0.7360000349581242, 0.5600000265985727, 0.0, 0.0, 0.0, 0.0, 0.0, 1.7103907923904195E9, 0.0, 2024-03-13 21:33:12.390
10.0, 300.682346587535, 120.35746037401259, 58.64911110512912, 150.32527871895581, 0.5120000243186951, 0.7360000349581242, 0.5600000265985727, 0.0, 0.0, 0.0, 0.0, 0.0, 1.7103907923904195E9, 0.0, 2024-03-13 21:33:12.390
11.0, 315.540969111491, 124.71070392243564, 67.0713658053428, 161.90774888172746, 0.5120000243186951, 0.7360000349581242, 0.5600000265985727, 0.0, 0.0, 0.0, 0.0, 0.0, 1.710390792403819E9, 0.0, 2024-03-13 21:33:12.403
11.0, 307.91905300179496, 125.69429761078209, 72.25112724397331, 156.79530564229935, 0.5120000243186951, 0.7360000349581242, 0.5600000265985727, 0.0, 0.0, 0.0, 0.0, 0.0, 1.710390792403819E9, 0.0, 2024-03-13 21:33:12.403
12.0, 296.2056863405742, 115.48063083179295, 57.22046932205558, 147.50539415236562, 0.5120000243186951, 0.7360000349581242, 0.5600000265985727, 0.0, 0.0, 0.0, 0.0, 0.0, 1.7103907924195259E9, 0.0, 2024-03-13 21:33:12.419
12.0, 297.9036009204574, 116.36324722133577, 51.62931888829917, 147.45303555298597, 0.5120000243186951, 0.7360000349581242, 0.5600000265985727, 0.0, 0.0, 0.0, 0.0, 0.0, 1.7103907924195259E9, 0.0, 2024-03-13 21:33:12.419
13.0, 315.0660018171184, 125.38762581441551, 63.735375044867396, 151.57440530415624, 0.5120000243186951, 0.7360000349581242, 0.5600000265985727, 0.0, 0.0, 0.0, 0.0, 0.0, 1.7103907924203656E9, 0.0, 2024-03-13 21:33:12.420
13.0, 313.80939543200657, 134.5129817062989, 72.92804913595319, 161.94888778124005, 0.5120000243186951, 0.7360000349581242, 0.5600000265985727, 0.0, 0.0, 0.0, 0.0, 0.0, 1.7103907924203656E9, 0.0, 2024-03-13 21:33:12.420
14.0, 300.36445509130135, 127.77368198614568, 61.2146824747324, 157.7415003310889, 0.5120000243186951, 0.7360000349581242, 0.5600000265985727, 0.0, 0.0, 0.0, 0.0, 0.0, 1.7103907924343383E9, 0.0, 2024-03-13 21:33:12.434
14.0, 323.63037271564826, 140.5454403348267, 79.65238925628364, 168.32915710564703, 0.5120000243186951, 0.7360000349581242, 0.5600000265985727, 0.0, 0.0, 0.0, 0.0, 0.0, 1.7103907924343383E9, 0.0, 2024-03-13 21:33:12.434
15.0, 329.19534384971485, 151.74644070211798, 94.66808757837862, 182.2677642405033, 0.5120000243186951, 0.7360000349581242, 0.5600000265985727, 0.0, 0.0, 0.0, 0.0, 0.0, 1.710390792449556E9, 0.0, 2024-03-13 21:33:12.449
15.0, 295.31559015112, 119.58330108318478, 59.56164669431746, 158.36606362368912, 0.5120000243186951, 0.7360000349581242, 0.5600000265985727, 0.0, 0.0, 0.0, 0.0, 0.0, 1.710390792449556E9, 0.0, 2024-03-13 21:33:12.449
16.0, 306.0603227238171, 121.15031916461885, 54.87555204983801, 150.98350111115724, 0.5120000243186951, 0.7360000349581242, 0.5600000265985727, 0.0, 0.0, 0.0, 0.0, 0.0, 1.7103907924506712E9, 0.0, 2024-03-13 21:33:12.450
16.0, 307.0513962120749, 123.43913793750107, 64.80124653223902, 157.02343953959644, 0.5120000243186951, 0.7360000349581242, 0.5600000265985727, 0.0, 0.0, 0.0, 0.0, 0.0, 1.7103907924506712E9, 0.0, 2024-03-13 21:33:12.450
17.0, 304.0893954471685, 126.07576740626246, 64.81246623210609, 162.83898397069424, 0.5120000243186951, 0.7360000349581242, 0.5600000265985727, 0.0, 0.0, 0.0, 0.0, 0.0, 1.7103907924638913E9, 0.0, 2024-03-13 21:33:12.463
17.0, 305.69381252815947, 120.26770277507603, 52.40721807908267, 154.90291626472026, 0.5120000243186951, 0.7360000349581242, 0.5600000265985727, 0.0, 0.0, 0.0, 0.0, 0.0, 1.7103907924638913E9, 0.0, 2024-03-13 21:33:12.463
18.0, 317.2014846918173, 129.38931876700372, 65.71752202138305, 152.76743339002132, 0.5120000243186951, 0.7360000349581242, 0.5600000265985727, 0.0, 0.0, 0.0, 0.0, 0.0, 1.71039079247955E9, 0.0, 2024-03-13 21:33:12.479
18.0, 306.74098451575264, 123.89166583213955, 57.92731041368097, 145.26519407890737, 0.5120000243186951, 0.7360000349581242, 0.5600000265985727, 0.0, 0.0, 0.0, 0.0, 0.0, 1.71039079247955E9, 0.0, 2024-03-13 21:33:12.479
19.0, 306.7858633152209, 122.39944574981928, 62.08233926445246, 154.98145416378975, 0.5120000243186951, 0.7360000349581242, 0.5600000265985727, 0.0, 0.0, 0.0, 0.0, 0.0, 1.7103907924802632E9, 0.0, 2024-03-13 21:33:12.480
19.0, 321.9511576355435, 135.2460020976141, 74.02009992301464, 155.3741436591372, 0.5120000243186951, 0.7360000349581242, 0.5600000265985727, 0.0, 0.0, 0.0, 0.0, 0.0, 1.7103907924802632E9, 0.0, 2024-03-13 21:33:12.480
20.0, 312.3545743492432, 130.81048075016588, 64.94336273055524, 155.95756805222481, 0.5120000243186951, 0.7360000349581242, 0.576000027358532, 0.0, 0.0, 0.0, 0.0, 0.0, 1.710390792493879E9, 0.0, 2024-03-13 21:33:12.493
20.0, 289.3018310223706, 113.56206215452403, 45.8362138569355, 146.39464386552572, 0.5120000243186951, 0.7360000349581242, 0.576000027358532, 0.0, 0.0, 0.0, 0.0, 0.0, 1.710390792493879E9, 0.0, 2024-03-13 21:33:12.493
21.0, 308.03498990042135, 119.9460713788867, 48.068934130482376, 147.4418158531189, 0.5120000243186951, 0.7200000341981649, 0.576000027358532, 0.0, 0.0, 0.0, 0.0, 0.0, 1.7103907925095143E9, 0.0, 2024-03-13 21:33:12.509
21.0, 320.208364256192, 136.11365888733417, 66.02045391779393, 153.83704477734864, 0.5120000243186951, 0.7200000341981649, 0.576000027358532, 0.0, 0.0, 0.0, 0.0, 0.0, 1.7103907925095143E9, 0.0, 2024-03-13 21:33:12.509
22.0, 309.2766366857104, 130.14851845800877, 63.383824449032545, 154.46160806994885, 0.5120000243186951, 0.7200000341981649, 0.576000027358532, 0.0, 0.0, 0.0, 0.0, 0.0, 1.710390792510254E9, 0.0, 2024-03-13 21:33:12.510
22.0, 314.5386759233661, 126.6143129998818, 59.09415919985622, 154.8468177653849, 0.5120000243186951, 0.7200000341981649, 0.576000027358532, 0.0, 0.0, 0.0, 0.0, 0.0, 1.710390792510254E9, 0.0, 2024-03-13 21:33:12.510
23.0, 328.92981095286086, 137.03367427643389, 75.5160599052906, 164.1554287550971, 0.5120000243186951, 0.7200000341981649, 0.576000027358532, 0.0, 0.0, 0.0, 0.0, 0.0, 1.7103907925242403E9, 0.0, 2024-03-13 21:33:12.524
23.0, 312.3096955497749, 130.1709578577429, 65.49312802404165, 158.93826831690967, 0.5120000243186951, 0.7200000341981649, 0.576000027358532, 0.0, 0.0, 0.0, 0.0, 0.0, 1.7103907925242403E9, 0.0, 2024-03-13 21:33:12.524
24.0, 309.59078828198835, 132.5121352300048, 59.16521729901433, 157.95841452851892, 0.5120000243186951, 0.7200000341981649, 0.576000027358532, 0.0, 0.0, 0.0, 0.0, 0.0, 1.71039079253953E9, 0.0, 2024-03-13 21:33:12.539
24.0, 322.729056826327, 135.61251229327172, 68.30553279072046, 159.60397050902247, 0.5120000243186951, 0.7200000341981649, 0.576000027358532, 0.0, 0.0, 0.0, 0.0, 0.0, 1.71039079253953E9, 0.0, 2024-03-13 21:33:12.539
25.0, 315.66438581002876, 126.64423219952732, 57.49348201882094, 149.86527102440596, 0.5120000243186951, 0.7200000341981649, 0.576000027358532, 0.0, 0.0, 0.0, 0.0, 0.0, 1.7103907925402603E9, 0.0, 2024-03-13 21:33:12.540
25.0, 309.11582098761573, 131.954890136607, 61.17354357521981, 160.598783897236, 0.5120000243186951, 0.7200000341981649, 0.576000027358532, 0.0, 0.0, 0.0, 0.0, 0.0, 1.7103907925402603E9, 0.0, 2024-03-13 21:33:12.540
26.0, 323.55931461649016, 136.5512271821499, 66.04663321748376, 160.56886469759047, 0.5120000243186951, 0.7200000341981649, 0.576000027358532, 0.0, 0.0, 0.0, 0.0, 0.0, 1.7103907925538347E9, 0.0, 2024-03-13 21:33:12.553
26.0, 314.89022651920095, 129.14248536992818, 62.179576663300395, 154.53640606906265, 0.5120000243186951, 0.7200000341981649, 0.576000027358532, 0.0, 0.0, 0.0, 0.0, 0.0, 1.7103907925538347E9, 0.0, 2024-03-13 21:33:12.553
27.0, 298.113035317976, 120.47339727263898, 53.07292027119547, 149.92884932365268, 0.5120000243186951, 0.7200000341981649, 0.576000027358532, 0.0, 0.0, 0.0, 0.0, 0.0, 1.7103907925697808E9, 0.0, 2024-03-13 21:33:12.569
27.0, 318.14393948065117, 132.5831933291629, 60.81451317947358, 158.05191202741116, 0.5120000243186951, 0.7200000341981649, 0.576000027358532, 0.0, 0.0, 0.0, 0.0, 0.0, 1.7103907925697808E9, 0.0, 2024-03-13 21:33:12.569
28.0, 337.15759085537866, 144.79770658444613, 74.98873401153833, 164.0806307559833, 0.5120000243186951, 0.7200000341981649, 0.576000027358532, 0.0, 0.0, 0.0, 0.0, 0.0, 1.71039079257033E9, 0.0, 2024-03-13 21:33:12.570
28.0, 314.59103452274576, 133.08060002326965, 72.24364744406193, 161.0400920920074, 0.5120000243186951, 0.7200000341981649, 0.576000027358532, 0.0, 0.0, 0.0, 0.0, 0.0, 1.71039079257033E9, 0.0, 2024-03-13 21:33:12.570
29.0, 309.3439548849128, 122.83327414467931, 59.07919960003346, 154.12127717398107, 0.5120000243186951, 0.7200000341981649, 0.576000027358532, 0.0, 0.0, 0.0, 0.0, 0.0, 1.7103907925844734E9, 0.0, 2024-03-13 21:33:12.584
29.0, 327.01498217554763, 137.57221987005323, 65.60532502271235, 157.2179143372923, 0.5120000243186951, 0.7200000341981649, 0.576000027358532, 0.0, 0.0, 0.0, 0.0, 0.0, 1.7103907925844734E9, 0.0, 2024-03-13 21:33:12.584
30.0, 319.243470067624, 137.03741417638958, 75.38142350688577, 166.58636372629553, 0.5120000243186951, 0.7200000341981649, 0.5600000265985727, 0.0, 0.0, 0.0, 0.0, 0.0, 1.71039079260009E9, 0.0, 2024-03-13 21:33:12.600
30.0, 303.25913765700534, 123.23344343993813, 62.949996054172516, 157.13189663831145, 0.5120000243186951, 0.7200000341981649, 0.5600000265985727, 0.0, 0.0, 0.0, 0.0, 0.0, 1.71039079260009E9, 0.0, 2024-03-13 21:33:12.600
31.0, 312.4181526484899, 124.43395132571459, 64.33375903777778, 152.72255459055305, 0.5120000243186951, 0.7200000341981649, 0.5600000265985727, 0.0, 0.0, 0.0, 0.0, 0.0, 1.7103907926003451E9, 0.0, 2024-03-13 21:33:12.600
31.0, 312.429372348357, 127.12293939385563, 69.13579058088362, 150.4748747171834, 0.5120000243186951, 0.7200000341981649, 0.5600000265985727, 0.0, 0.0, 0.0, 0.0, 0.0, 1.7103907926003451E9, 0.0, 2024-03-13 21:33:12.600
32.0, 284.87752937478945, 112.55228916648775, 55.85540583822876, 140.41454383637756, 0.5120000243186951, 0.7200000341981649, 0.5600000265985727, 0.0, 0.0, 0.0, 0.0, 0.0, 1.7103907926138997E9, 0.0, 2024-03-13 21:33:12.613
32.0, 299.96428579604253, 117.4627778083086, 48.454143825918436, 138.9559828536585, 0.5120000243186951, 0.7200000341981649, 0.5600000265985727, 0.0, 0.0, 0.0, 0.0, 0.0, 1.7103907926138997E9, 0.0, 2024-03-13 21:33:12.613
33.0, 309.22053818637505, 116.69609831739217, 63.12577135208994, 144.37509788945317, 0.5120000243186951, 0.7200000341981649, 0.5600000265985727, 0.0, 0.0, 0.0, 0.0, 0.0, 1.7103907926300108E9, 0.0, 2024-03-13 21:33:12.630
33.0, 308.0462096002884, 127.6166061880067, 71.69388215057552, 157.99581352807581, 0.5120000243186951, 0.7200000341981649, 0.5600000265985727, 0.0, 0.0, 0.0, 0.0, 0.0, 1.7103907926300108E9, 0.0, 2024-03-13 21:33:12.630
34.0, 298.5693031125702, 117.33562120981514, 59.385871396400034, 151.09943800978363, 0.5120000243186951, 0.7200000341981649, 0.5600000265985727, 0.0, 0.0, 0.0, 0.0, 0.0, 1.7103907926305814E9, 0.0, 2024-03-13 21:33:12.630
34.0, 311.77862975606695, 121.34105406235904, 57.13071172311902, 145.68032297398895, 0.5120000243186951, 0.7200000341981649, 0.5600000265985727, 0.0, 0.0, 0.0, 0.0, 0.0, 1.7103907926305814E9, 0.0, 2024-03-13 21:33:12.630
35.0, 312.07408185256645, 128.27482858020812, 69.37514417804778, 157.16555573791265, 0.5120000243186951, 0.7200000341981649, 0.5600000265985727, 0.0, 0.0, 0.0, 0.0, 0.0, 1.7103907926438942E9, 0.0, 2024-03-13 21:33:12.643
35.0, 295.62974174739793, 123.79442843329161, 67.15738350432366, 157.16929563786834, 0.5120000243186951, 0.7200000341981649, 0.5600000265985727, 0.0, 0.0, 0.0, 0.0, 0.0, 1.7103907926438942E9, 0.0, 2024-03-13 21:33:12.643
36.0, 294.7172061582096, 112.9412387618795, 56.65200452879071, 148.1823160443455, 0.5120000243186951, 0.7200000341981649, 0.5600000265985727, 0.0, 0.0, 0.0, 0.0, 0.0, 1.710390792659572E9, 0.0, 2024-03-13 21:33:12.659
36.0, 297.32765632728115, 121.76740265730768, 61.08004607632756, 145.5120274759829, 0.5120000243186951, 0.7200000341981649, 0.5600000265985727, 0.0, 0.0, 0.0, 0.0, 0.0, 1.710390792659572E9, 0.0, 2024-03-13 21:33:12.659
37.0, 293.21002647606656, 121.00446306634694, 55.66093104053289, 145.60552497487515, 0.5120000243186951, 0.7200000341981649, 0.5600000265985727, 0.0, 0.0, 0.0, 0.0, 0.0, 1.710390792660297E9, 0.0, 2024-03-13 21:33:12.660
37.0, 288.6062096306123, 110.26347039360553, 38.3152750460431, 137.56847997009754, 0.5120000243186951, 0.7200000341981649, 0.5600000265985727, 0.0, 0.0, 0.0, 0.0, 0.0, 1.710390792660297E9, 0.0, 2024-03-13 21:33:12.660
38.0, 301.36300837947056, 118.56978819519281, 63.90367054287344, 146.04309326969087, 0.5120000243186951, 0.7200000341981649, 0.5600000265985727, 0.0, 0.0, 0.0, 0.0, 0.0, 1.7103907926738856E9, 0.0, 2024-03-13 21:33:12.673
38.0, 294.2646782635711, 115.70502482913435, 58.196583210490644, 147.64751035068184, 0.5120000243186951, 0.7200000341981649, 0.5600000265985727, 0.0, 0.0, 0.0, 0.0, 0.0, 1.7103907926738856E9, 0.0, 2024-03-13 21:33:12.673
39.0, 282.1997610065155, 104.7882568584755, 40.7237706175074, 135.23104249779135, 0.5120000243186951, 0.7200000341981649, 0.5600000265985727, 0.0, 0.0, 0.0, 0.0, 0.0, 1.7103907926895971E9, 0.0, 2024-03-13 21:33:12.689
39.0, 310.29388947365806, 115.82844152767211, 53.89569826144725, 142.00774121750146, 0.5120000243186951, 0.7200000341981649, 0.5600000265985727, 0.0, 0.0, 0.0, 0.0, 0.0, 1.7103907926895971E9, 0.0, 2024-03-13 21:33:12.689
40.0, 306.59512841748074, 122.2049709521234, 63.372604749165475, 148.23841454368085, 0.5120000243186951, 0.7200000341981649, 0.576000027358532, 0.0, 0.0, 0.0, 0.0, 0.0, 1.7103907926905527E9, 0.0, 2024-03-13 21:33:12.690
40.0, 296.58715613605455, 114.25394364632666, 47.6164062358439, 146.11789126880467, 0.5120000243186951, 0.7200000341981649, 0.576000027358532, 0.0, 0.0, 0.0, 0.0, 0.0, 1.7103907926905527E9, 0.0, 2024-03-13 21:33:12.690
41.0, 297.73904532240704, 113.83507485128939, 34.93066558614373, 133.6602845164016, 0.5120000243186951, 0.7360000349581242, 0.576000027358532, 0.0, 0.0, 0.0, 0.0, 0.0, 1.7103907927042325E9, 0.0, 2024-03-13 21:33:12.704
41.0, 303.73410495137796, 115.06550193671137, 54.767094951123, 145.01088088192046, 0.5120000243186951, 0.7360000349581242, 0.576000027358532, 0.0, 0.0, 0.0, 0.0, 0.0, 1.7103907927042325E9, 0.0, 2024-03-13 21:33:12.704
42.0, 280.8533970224671, 105.29314335249364, 48.72341662272811, 140.0255942409858, 0.5120000243186951, 0.7360000349581242, 0.576000027358532, 0.0, 0.0, 0.0, 0.0, 0.0, 1.710390792720088E9, 0.0, 2024-03-13 21:33:12.720
42.0, 295.6783604468219, 112.33163506910205, 49.07870711851865, 144.79396668449044, 0.5120000243186951, 0.7360000349581242, 0.576000027358532, 0.0, 0.0, 0.0, 0.0, 0.0, 1.710390792720088E9, 0.0, 2024-03-13 21:33:12.720
43.0, 300.69730618735775, 116.77089631650597, 52.171604381874204, 137.51986127067357, 0.5120000243186951, 0.7360000349581242, 0.576000027358532, 0.0, 0.0, 0.0, 0.0, 0.0, 1.7103907927203984E9, 0.0, 2024-03-13 21:33:12.720
43.0, 287.3421234455891, 112.55976896639913, 51.50216228980571, 140.83715253137052, 0.5120000243186951, 0.7360000349581242, 0.576000027358532, 0.0, 0.0, 0.0, 0.0, 0.0, 1.7103907927203984E9, 0.0, 2024-03-13 21:33:12.720
44.0, 292.6415616828017, 111.24332418199629, 51.45728349033743, 142.64726410992444, 0.5120000243186951, 0.7360000349581242, 0.576000027358532, 0.0, 0.0, 0.0, 0.0, 0.0, 1.7103907927341485E9, 0.0, 2024-03-13 21:33:12.734
44.0, 309.1270406874828, 116.4642245201394, 58.166664010845125, 142.41165041271597, 0.5120000243186951, 0.7360000349581242, 0.576000027358532, 0.0, 0.0, 0.0, 0.0, 0.0, 1.7103907927341485E9, 0.0, 2024-03-13 21:33:12.734
45.0, 300.0951822944917, 117.67595210578293, 54.84563285019249, 142.37051151320338, 0.5120000243186951, 0.7360000349581242, 0.576000027358532, 0.0, 0.0, 0.0, 0.0, 0.0, 1.7103907927498946E9, 0.0, 2024-03-13 21:33:12.749
45.0, 282.3418772048317, 106.00746424403042, 43.43145818542689, 134.22874930966645, 0.5120000243186951, 0.7360000349581242, 0.576000027358532, 0.0, 0.0, 0.0, 0.0, 0.0, 1.7103907927498946E9, 0.0, 2024-03-13 21:33:12.749
46.0, 308.5997147937305, 123.53263543639332, 59.15399759914726, 145.16421678010374, 0.5120000243186951, 0.7360000349581242, 0.576000027358532, 0.0, 0.0, 0.0, 0.0, 0.0, 1.710390792750576E9, 0.0, 2024-03-13 21:33:12.750
46.0, 295.3342896508984, 113.34514795709401, 55.15978444647044, 139.83111944328994, 0.5120000243186951, 0.7360000349581242, 0.576000027358532, 0.0, 0.0, 0.0, 0.0, 0.0, 1.710390792750576E9, 0.0, 2024-03-13 21:33:12.750
47.0, 297.32391642732546, 115.92193902656436, 49.56115421280265, 147.0005076583475, 0.5120000243186951, 0.7360000349581242, 0.576000027358532, 0.0, 0.0, 0.0, 0.0, 0.0, 1.7103907927802644E9, 0.0, 2024-03-13 21:33:12.780
47.0, 298.0457171187736, 118.42393209692091, 52.79990757443011, 148.63858383893967, 0.5120000243186951, 0.7360000349581242, 0.576000027358532, 0.0, 0.0, 0.0, 0.0, 0.0, 1.7103907927802644E9, 0.0, 2024-03-13 21:33:12.780
48.0, 320.2719425554387, 132.75522872712463, 70.33629846666008, 157.64800283219665, 0.5120000243186951, 0.7360000349581242, 0.576000027358532, 0.0, 0.0, 0.0, 0.0, 0.0, 1.710390792780936E9, 0.0, 2024-03-13 21:33:12.780
48.0, 299.91940699657425, 120.41355887334794, 62.06363976467401, 145.02210058178753, 0.5120000243186951, 0.7360000349581242, 0.576000027358532, 0.0, 0.0, 0.0, 0.0, 0.0, 1.710390792780936E9, 0.0, 2024-03-13 21:33:12.780
49.0, 293.277344675269, 115.24875703454018, 48.01657553110272, 144.03850689344108, 0.5120000243186951, 0.7360000349581242, 0.576000027358532, 0.0, 0.0, 0.0, 0.0, 0.0, 1.71039079278168E9, 0.0, 2024-03-13 21:33:12.781
49.0, 320.1298263571225, 135.48161579482257, 66.35704491380602, 154.94779506418854, 0.5120000243186951, 0.7360000349581242, 0.576000027358532, 0.0, 0.0, 0.0, 0.0, 0.0, 1.71039079278168E9, 0.0, 2024-03-13 21:33:12.781
50.0, 305.0505497357808, 123.52515563648194, 62.175836763344705, 149.3716042302549, 0.5120000243186951, 0.7360000349581242, 0.5600000265985727, 0.0, 0.0, 0.0, 0.0, 0.0, 1.710390792793849E9, 0.0, 2024-03-13 21:33:12.793
50.0, 295.40534775005654, 117.32066160999238, 47.85201993305236, 145.16795668005943, 0.5120000243186951, 0.7360000349581242, 0.5600000265985727, 0.0, 0.0, 0.0, 0.0, 0.0, 1.710390792793849E9, 0.0, 2024-03-13 21:33:12.793
51.0, 309.4636316834949, 121.63650615885854, 51.756475486792624, 139.3299728492275, 0.5120000243186951, 0.7200000341981649, 0.5600000265985727, 0.0, 0.0, 0.0, 0.0, 0.0, 1.7103907928095508E9, 0.0, 2024-03-13 21:33:12.809
51.0, 299.54915690096095, 119.1307731885463, 53.11779907066375, 134.63265850488096, 0.5120000243186951, 0.7200000341981649, 0.5600000265985727, 0.0, 0.0, 0.0, 0.0, 0.0, 1.7103907928095508E9, 0.0, 2024-03-13 21:33:12.809
52.0, 293.21750627597794, 117.6497728060931, 46.14288565330207, 136.07251998782158, 0.5120000243186951, 0.7200000341981649, 0.5600000265985727, 0.0, 0.0, 0.0, 0.0, 0.0, 1.710390792810274E9, 0.0, 2024-03-13 21:33:12.810
52.0, 303.59198875306174, 125.15575201716274, 46.78988834563643, 144.027287193574, 0.5120000243186951, 0.7200000341981649, 0.5600000265985727, 0.0, 0.0, 0.0, 0.0, 0.0, 1.710390792810274E9, 0.0, 2024-03-13 21:33:12.810
53.0, 304.3885874436237, 121.89455925580114, 53.52918806578964, 137.5834395699203, 0.5120000243186951, 0.7200000341981649, 0.5600000265985727, 0.0, 0.0, 0.0, 0.0, 0.0, 1.7103907928241951E9, 0.0, 2024-03-13 21:33:12.824
53.0, 297.1331815295853, 120.06948807742447, 54.32578675635159, 143.19702940341085, 0.5120000243186951, 0.7200000341981649, 0.5600000265985727, 0.0, 0.0, 0.0, 0.0, 0.0, 1.7103907928241951E9, 0.0, 2024-03-13 21:33:12.824
54.0, 296.8639087327756, 118.73434379324317, 52.32868018001318, 144.89868388324976, 0.5120000243186951, 0.7200000341981649, 0.5600000265985727, 0.0, 0.0, 0.0, 0.0, 0.0, 1.7103907928395095E9, 0.0, 2024-03-13 21:33:12.839
54.0, 306.580168817658, 121.87959965597838, 64.19538273941725, 150.86008441261947, 0.5120000243186951, 0.7200000341981649, 0.5600000265985727, 0.0, 0.0, 0.0, 0.0, 0.0, 1.7103907928395095E9, 0.0, 2024-03-13 21:33:12.839
55.0, 299.22004570486024, 117.43659850861877, 49.89400530885905, 141.01666772924364, 0.5120000243186951, 0.7200000341981649, 0.5600000265985727, 0.0, 0.0, 0.0, 0.0, 0.0, 1.7103907928407528E9, 0.0, 2024-03-13 21:33:12.840
55.0, 288.2770984345116, 105.1996458536014, 35.244817182421684, 133.89589821361005, 0.5120000243186951, 0.7200000341981649, 0.5600000265985727, 0.0, 0.0, 0.0, 0.0, 0.0, 1.7103907928407528E9, 0.0, 2024-03-13 21:33:12.840
56.0, 297.58570942422375, 104.87053465750068, 43.53243548423052, 132.08578663505614, 0.5120000243186951, 0.7200000341981649, 0.5600000265985727, 0.0, 0.0, 0.0, 0.0, 0.0, 1.7103907928538992E9, 0.0, 2024-03-13 21:33:12.853
56.0, 294.6723273587413, 105.46891865041107, 53.746102263219655, 134.22500940971076, 0.5120000243186951, 0.7200000341981649, 0.5600000265985727, 0.0, 0.0, 0.0, 0.0, 0.0, 1.7103907928538992E9, 0.0, 2024-03-13 21:33:12.853
57.0, 283.35912999277934, 100.7865639058873, 40.858407015912235, 125.19689091667533, 0.5120000243186951, 0.7200000341981649, 0.5600000265985727, 0.0, 0.0, 0.0, 0.0, 0.0, 1.7103907928695352E9, 0.0, 2024-03-13 21:33:12.869
57.0, 297.91856052028015, 112.3129355693236, 47.3920122385025, 136.13235838711262, 0.5120000243186951, 0.7200000341981649, 0.5600000265985727, 0.0, 0.0, 0.0, 0.0, 0.0, 1.7103907928695352E9, 0.0, 2024-03-13 21:33:12.869
58.0, 311.730011056643, 128.75727567449212, 69.24050777964294, 147.05660615768284, 0.5120000243186951, 0.7200000341981649, 0.5600000265985727, 0.0, 0.0, 0.0, 0.0, 0.0, 1.7103907928702507E9, 0.0, 2024-03-13 21:33:12.870
58.0, 297.3164366274141, 122.01049615442753, 63.2155289510265, 153.5939512802288, 0.5120000243186951, 0.7200000341981649, 0.5600000265985727, 0.0, 0.0, 0.0, 0.0, 0.0, 1.7103907928702507E9, 0.0, 2024-03-13 21:33:12.870
59.0, 282.98140009725466, 106.74048463534564, 35.10270098410547, 130.96007674839348, 0.5120000243186951, 0.7200000341981649, 0.5600000265985727, 0.0, 0.0, 0.0, 0.0, 0.0, 1.7103907928843167E9, 0.0, 2024-03-13 21:33:12.884
59.0, 304.17541314614937, 120.99324336647987, 60.593859082087874, 148.52264694031328, 0.5120000243186951, 0.7200000341981649, 0.5600000265985727, 0.0, 0.0, 0.0, 0.0, 0.0, 1.7103907928843167E9, 0.0, 2024-03-13 21:33:12.884
60.0, 297.29025732772425, 116.83821451570839, 59.378391596488655, 145.81869927234948, 0.5120000243186951, 0.7200000341981649, 0.5600000265985727, 0.0, 0.0, 0.0, 0.0, 0.0, 1.7103907928998494E9, 0.0, 2024-03-13 21:33:12.899
60.0, 286.8671561512165, 105.2707039527595, 44.078460877761245, 138.552073658444, 0.5120000243186951, 0.7200000341981649, 0.5600000265985727, 0.0, 0.0, 0.0, 0.0, 0.0, 1.7103907928998494E9, 0.0, 2024-03-13 21:33:12.899
61.0, 299.5753362006508, 112.55228916648775, 50.42507110256702, 143.52614059951156, 0.5120000243186951, 0.7200000341981649, 0.5600000265985727, 0.0, 0.0, 0.0, 0.0, 0.0, 1.7103907929005868E9, 0.0, 2024-03-13 21:33:12.900
61.0, 303.3451553559862, 120.0545284776017, 66.94794910680503, 146.46944186463952, 0.5120000243186951, 0.7200000341981649, 0.5600000265985727, 0.0, 0.0, 0.0, 0.0, 0.0, 1.7103907929005868E9, 0.0, 2024-03-13 21:33:12.900
62.0, 288.83434352790937, 109.69874550029635, 45.249049563892186, 139.44964964780957, 0.5120000243186951, 0.7200000341981649, 0.5600000265985727, 0.0, 0.0, 0.0, 0.0, 0.0, 1.710390792930282E9, 0.0, 2024-03-13 21:33:12.930
62.0, 293.12026887713, 116.71853771712631, 41.93549820315093, 134.55786050576717, 0.5120000243186951, 0.7200000341981649, 0.5600000265985727, 0.0, 0.0, 0.0, 0.0, 0.0, 1.710390792930282E9, 0.0, 2024-03-13 21:33:12.930
63.0, 313.40174633683637, 135.8817850900814, 64.82368593197316, 151.70904170256108, 0.5120000243186951, 0.7200000341981649, 0.5600000265985727, 0.0, 0.0, 0.0, 0.0, 0.0, 1.7103907929310706E9, 0.0, 2024-03-13 21:33:12.931
63.0, 297.9671792197041, 129.01532877143472, 62.01502106525004, 156.1894418494776, 0.5120000243186951, 0.7200000341981649, 0.5600000265985727, 0.0, 0.0, 0.0, 0.0, 0.0, 1.7103907929310706E9, 0.0, 2024-03-13 21:33:12.931
64.0, 298.21775251673535, 122.43684474937618, 52.534374677576125, 149.98494782298803, 0.5120000243186951, 0.7200000341981649, 0.5600000265985727, 0.0, 0.0, 0.0, 0.0, 0.0, 1.7103907929316626E9, 0.0, 2024-03-13 21:33:12.931
64.0, 314.70697142137215, 134.4344438072294, 65.79232002049685, 156.02862615138292, 0.5120000243186951, 0.7200000341981649, 0.5600000265985727, 0.0, 0.0, 0.0, 0.0, 0.0, 1.7103907929316626E9, 0.0, 2024-03-13 21:33:12.931
65.0, 318.652565874625, 137.81157346721739, 74.82417841348797, 161.15602899063379, 0.5120000243186951, 0.7200000341981649, 0.5600000265985727, 0.0, 0.0, 0.0, 0.0, 0.0, 1.7103907929438598E9, 0.0, 2024-03-13 21:33:12.943
65.0, 299.1340280058794, 120.47339727263898, 54.909211149439216, 150.1121044214815, 0.5120000243186951, 0.7200000341981649, 0.5600000265985727, 0.0, 0.0, 0.0, 0.0, 0.0, 1.7103907929438598E9, 0.0, 2024-03-13 21:33:12.943
66.0, 305.940645925235, 123.97394363116473, 59.771081091836095, 152.21018829662353, 0.5120000243186951, 0.7200000341981649, 0.5600000265985727, 0.0, 0.0, 0.0, 0.0, 0.0, 1.7103907929597857E9, 0.0, 2024-03-13 21:33:12.959
66.0, 309.5309498826973, 131.00495554786175, 67.7707270970568, 155.2245476609096, 0.5120000243186951, 0.7200000341981649, 0.5600000265985727, 0.0, 0.0, 0.0, 0.0, 0.0, 1.7103907929597857E9, 0.0, 2024-03-13 21:33:12.959
67.0, 288.47157323220745, 118.0910810008645, 51.38248549122363, 145.2165753794834, 0.5120000243186951, 0.7200000341981649, 0.5600000265985727, 0.0, 0.0, 0.0, 0.0, 0.0, 1.7103907929602728E9, 0.0, 2024-03-13 21:33:12.960
67.0, 303.80516305053607, 126.94342419598252, 57.24664862174541, 152.80483238957822, 0.5120000243186951, 0.7200000341981649, 0.5600000265985727, 0.0, 0.0, 0.0, 0.0, 0.0, 1.7103907929602728E9, 0.0, 2024-03-13 21:33:12.960
68.0, 302.7542511629872, 116.0565754249692, 54.39310495555401, 144.44989588856697, 0.5120000243186951, 0.7200000341981649, 0.5600000265985727, 0.0, 0.0, 0.0, 0.0, 0.0, 1.7103907929740107E9, 0.0, 2024-03-13 21:33:12.974
68.0, 301.8716347734444, 125.89625220838934, 67.75202759727836, 154.98519406374544, 0.5120000243186951, 0.7200000341981649, 0.5600000265985727, 0.0, 0.0, 0.0, 0.0, 0.0, 1.7103907929740107E9, 0.0, 2024-03-13 21:33:12.974
69.0, 305.192665934097, 126.27024220395833, 64.7339283330366, 159.90316250547767, 0.5120000243186951, 0.7200000341981649, 0.5600000265985727, 0.0, 0.0, 0.0, 0.0, 0.0, 1.7103907929895728E9, 0.0, 2024-03-13 21:33:12.989
69.0, 315.33901451388374, 126.56943420041353, 67.0302269058302, 156.71676774322987, 0.5120000243186951, 0.7200000341981649, 0.5600000265985727, 0.0, 0.0, 0.0, 0.0, 0.0, 1.7103907929895728E9, 0.0, 2024-03-13 21:33:12.989
70.0, 303.1731199580245, 125.71299711056054, 66.00923421792686, 158.93826831690967, 0.5120000243186951, 0.7200000341981649, 0.576000027358532, 0.0, 0.0, 0.0, 0.0, 0.0, 1.7103907929902925E9, 0.0, 2024-03-13 21:33:12.990
70.0, 297.3800149266608, 124.11605982948095, 57.60941891744733, 154.93283546436578, 0.5120000243186951, 0.7200000341981649, 0.576000027358532, 0.0, 0.0, 0.0, 0.0, 0.0, 1.7103907929902925E9, 0.0, 2024-03-13 21:33:12.990
71.0, 302.3166828681715, 121.56544805970043, 49.4302577143535, 141.989041717723, 0.5120000243186951, 0.7200000341981649, 0.576000027358532, 0.0, 0.0, 0.0, 0.0, 0.0, 1.710390793003904E9, 0.0, 2024-03-13 21:33:13.003
71.0, 314.9463250185363, 130.7319428510964, 69.93238927144557, 153.49671388138086, 0.5120000243186951, 0.7200000341981649, 0.576000027358532, 0.0, 0.0, 0.0, 0.0, 0.0, 1.710390793003904E9, 0.0, 2024-03-13 21:33:13.003
72.0, 287.39822194492444, 112.85896096285433, 54.565140353515744, 145.85983817186207, 0.5120000243186951, 0.7200000341981649, 0.576000027358532, 0.0, 0.0, 0.0, 0.0, 0.0, 1.7103907930198424E9, 0.0, 2024-03-13 21:33:13.019
72.0, 298.44214651407674, 115.84714102745056, 48.472843325696886, 147.67368965037167, 0.5120000243186951, 0.7200000341981649, 0.576000027358532, 0.0, 0.0, 0.0, 0.0, 0.0, 1.7103907930198424E9, 0.0, 2024-03-13 21:33:13.019
