%OpenBCI Raw EXG Data
%Number of channels = 4
%Sample Rate = 200 Hz
%Board = OpenBCI_GUI$BoardGanglionBLE
Sample Index, EXG Channel 0, EXG Channel 1, EXG Channel 2, EXG Channel 3, Accel Channel 0, Accel Channel 1, Accel Channel 2, Other, Other, Other, Other, Other, Timestamp, Other, Timestamp (Formatted)
2.0, 2.6777683682739735, -1.4735205825418234, -3.2724124612286687, -0.40764909517019987, 0.5440000258386135, 0.0, 0.0, 0.0, 0.0, 0.0, 0.0, 0.0, 1.710390746301558E9, 0.0, 2024-03-13 21:32:26.301
2.0, 0.8302577901631594, -11.829303559847176, -7.008572516962886, -5.5724509339779615, 0.5440000258386135, 0.0, 0.0, 0.0, 0.0, 0.0, 0.0, 0.0, 1.710390746301558E9, 0.0, 2024-03-13 21:32:26.301
3.0, -6.750519420020282, -9.297391289845109, -12.794197748415172, -10.583916874602437, 0.5440000258386135, 0.0, 0.0, 0.0, 0.0, 0.0, 0.0, 0.0, 1.7103907463161068E9, 0.0, 2024-03-13 21:32:26.316
3.0, 4.43178144749254, -6.268072325736284, -8.751365896314383, -0.8414774900302291, 0.5440000258386135, 0.0, 0.0, 0.0, 0.0, 0.0, 0.0, 0.0, 1.7103907463161068E9, 0.0, 2024-03-13 21:32:26.316
4.0, 6.967433617450297, 4.229826849885285, -3.3621700601652265, -3.134036162868142, 0.5440000258386135, 0.0, 0.0, 0.0, 0.0, 0.0, 0.0, 0.0, 1.7103907463168244E9, 0.0, 2024-03-13 21:32:26.316
4.0, 4.603816845454276, 1.3127048844471574, -1.2005078857764602, -3.7959984550252557, 0.5440000258386135, 0.0, 0.0, 0.0, 0.0, 0.0, 0.0, 0.0, 1.7103907463168244E9, 0.0, 2024-03-13 21:32:26.316
5.0, 12.629642150364816, 6.571004222147167, -8.755105796270072, 1.727833779528737, 0.5440000258386135, 0.0, 0.0, 0.0, 0.0, 0.0, 0.0, 0.0, 1.7103907463304317E9, 0.0, 2024-03-13 21:32:26.330
5.0, 16.350842606276274, 4.802031543105841, -0.2056944975629449, 4.398122347891331, 0.5440000258386135, 0.0, 0.0, 0.0, 0.0, 0.0, 0.0, 0.0, 1.7103907463304317E9, 0.0, 2024-03-13 21:32:26.330
6.0, 13.560877239331603, 1.9223085772246122, 2.4346748711541295, 4.43178144749254, 0.5440000258386135, 0.0, 0.0, 0.0, 0.0, 0.0, 0.0, 0.0, 1.71039074634641E9, 0.0, 2024-03-13 21:32:26.346
6.0, -0.11219699867069721, -4.44300114735961, -7.24792611412704, -2.894682565703988, 0.5440000258386135, 0.0, 0.0, 0.0, 0.0, 0.0, 0.0, 0.0, 1.71039074634641E9, 0.0, 2024-03-13 21:32:26.346
7.0, 6.761739119887352, -2.449634470976889, -6.260592525824904, 0.056098499335348606, 0.5440000258386135, 0.0, 0.0, 0.0, 0.0, 0.0, 0.0, 0.0, 1.710390746346894E9, 0.0, 2024-03-13 21:32:26.346
7.0, 3.22753366176039, -6.9823932172730565, -8.669088097289205, -4.43926124740392, 0.5440000258386135, 0.0, 0.0, 0.0, 0.0, 0.0, 0.0, 0.0, 1.710390746346894E9, 0.0, 2024-03-13 21:32:26.346
8.0, 1.5782377813011408, -2.487033470533788, -14.159261232241988, -7.472320111468434, 0.5440000258386135, 0.0, 0.0, 0.0, 0.0, 0.0, 0.0, 0.0, 1.7103907463604434E9, 0.0, 2024-03-13 21:32:26.360
8.0, 3.990473252721131, -2.6403693687170744, -13.478599440306425, -4.02787225227803, 0.5440000258386135, 0.0, 0.0, 0.0, 0.0, 0.0, 0.0, 0.0, 1.7103907463604434E9, 0.0, 2024-03-13 21:32:26.360
9.0, 12.8577760476619, 3.0031396644189954, -3.818437854759395, 5.116183139383793, 0.5440000258386135, 0.0, 0.0, 0.0, 0.0, 0.0, 0.0, 0.0, 1.7103907463761258E9, 0.0, 2024-03-13 21:32:26.376
9.0, -1.8026317786425352, 0.29919199645519257, -1.6418160805478692, -5.864163130521774, 0.5440000258386135, 0.0, 0.0, 0.0, 0.0, 0.0, 0.0, 0.0, 1.7103907463761258E9, 0.0, 2024-03-13 21:32:26.376
10.0, 3.938114653341472, 0.7591996910050511, -9.67512118536979, -4.723493644036353, 0.5440000258386135, 0.0, 0.4800000227987766, 0.0, 0.0, 0.0, 0.0, 0.0, 1.7103907463768256E9, 0.0, 2024-03-13 21:32:26.376
10.0, 9.873335883021355, 1.4436013828963041, -12.700700249522924, -6.092297027818859, 0.5440000258386135, 0.0, 0.4800000227987766, 0.0, 0.0, 0.0, 0.0, 0.0, 1.7103907463768256E9, 0.0, 2024-03-13 21:32:26.376
11.0, 1.7128741797059774, -4.502839546650648, -7.861269706860185, -9.301131189800799, 0.5440000258386135, 0.7680000364780426, 0.4800000227987766, 0.0, 0.0, 0.0, 0.0, 0.0, 1.710390746390406E9, 0.0, 2024-03-13 21:32:26.390
11.0, -3.6127433571964502, -9.817237383686006, -10.269765278324485, -7.7079338086768985, 0.5440000258386135, 0.7680000364780426, 0.4800000227987766, 0.0, 0.0, 0.0, 0.0, 0.0, 1.710390746390406E9, 0.0, 2024-03-13 21:32:26.390
12.0, 7.408741812221706, -3.0741977635771036, -10.4492804761976, -2.9171219654381275, 0.5440000258386135, 0.7680000364780426, 0.4800000227987766, 0.0, 0.0, 0.0, 0.0, 0.0, 1.71039074640622E9, 0.0, 2024-03-13 21:32:26.406
12.0, 3.459407459013164, -2.1018237750977278, -4.749672943726182, -0.7479799911379814, 0.5440000258386135, 0.7680000364780426, 0.4800000227987766, 0.0, 0.0, 0.0, 0.0, 0.0, 1.71039074640622E9, 0.0, 2024-03-13 21:32:26.406
13.0, -1.8362908782437444, -8.47461329959333, -13.29908424243331, -9.387148888781667, 0.5440000258386135, 0.7680000364780426, 0.4800000227987766, 0.0, 0.0, 0.0, 0.0, 0.0, 1.7103907464068232E9, 0.0, 2024-03-13 21:32:26.406
13.0, 7.034751816652715, -3.3135513607412577, -16.814590200781822, -3.5940438574180007, 0.5440000258386135, 0.7680000364780426, 0.4800000227987766, 0.0, 0.0, 0.0, 0.0, 0.0, 1.7103907464068232E9, 0.0, 2024-03-13 21:32:26.406
14.0, 14.649188126437366, -0.08227779902517796, -2.7600461672991514, -1.0284724878147244, 0.5440000258386135, 0.7680000364780426, 0.4800000227987766, 0.0, 0.0, 0.0, 0.0, 0.0, 1.7103907464207735E9, 0.0, 2024-03-13 21:32:26.420
14.0, 6.716860320419073, 0.11967679858207703, 0.08227779902517796, -5.022685640491545, 0.5440000258386135, 0.7680000364780426, 0.4800000227987766, 0.0, 0.0, 0.0, 0.0, 0.0, 1.7103907464207735E9, 0.0, 2024-03-13 21:32:26.420
15.0, 8.325017301365733, -5.168541738763452, -13.732912637293339, -6.376529424451292, 0.5440000258386135, 0.7680000364780426, 0.4800000227987766, 0.0, 0.0, 0.0, 0.0, 0.0, 1.7103907464358368E9, 0.0, 2024-03-13 21:32:26.435
15.0, 11.941500558517873, -3.107856863178313, -6.881415918469429, 0.5983839929103851, 0.5440000258386135, 0.7680000364780426, 0.4800000227987766, 0.0, 0.0, 0.0, 0.0, 0.0, 1.7103907464358368E9, 0.0, 2024-03-13 21:32:26.435
16.0, 6.3391304248943925, -4.977806841023266, -3.665101956576109, -5.968880329281092, 0.5440000258386135, 0.7680000364780426, 0.4800000227987766, 0.0, 0.0, 0.0, 0.0, 0.0, 1.7103907464511073E9, 0.0, 2024-03-13 21:32:26.451
16.0, -0.725540591403842, -3.7286802558228374, -10.84944977145642, -6.5410850225016475, 0.5440000258386135, 0.7680000364780426, 0.4800000227987766, 0.0, 0.0, 0.0, 0.0, 0.0, 1.7103907464511073E9, 0.0, 2024-03-13 21:32:26.451
17.0, 4.454220847226679, -10.546517875045538, -13.24672564305365, -7.1020700158551335, 0.5440000258386135, 0.7680000364780426, 0.4800000227987766, 0.0, 0.0, 0.0, 0.0, 0.0, 1.7103907464518332E9, 0.0, 2024-03-13 21:32:26.451
17.0, 9.203893790952861, 3.2013543620705605, 4.981546740978956, -4.671135044656694, 0.5440000258386135, 0.7680000364780426, 0.4800000227987766, 0.0, 0.0, 0.0, 0.0, 0.0, 1.7103907464518332E9, 0.0, 2024-03-13 21:32:26.451
18.0, -2.2813389729708433, -7.001092717051506, -4.951627541333437, -10.0416313810274, 0.5440000258386135, 0.7680000364780426, 0.4800000227987766, 0.0, 0.0, 0.0, 0.0, 0.0, 1.710390746466092E9, 0.0, 2024-03-13 21:32:26.466
18.0, -3.0068795643746853, -10.135128879919648, -14.256498631089926, -8.250219302251935, 0.5440000258386135, 0.7680000364780426, 0.4800000227987766, 0.0, 0.0, 0.0, 0.0, 0.0, 1.710390746466092E9, 0.0, 2024-03-13 21:32:26.466
19.0, 2.8460638662800193, -6.376529424451292, -8.220300102606416, -7.23670641425997, 0.5440000258386135, 0.7680000364780426, 0.4800000227987766, 0.0, 0.0, 0.0, 0.0, 0.0, 1.7103907464668367E9, 0.0, 2024-03-13 21:32:26.466
19.0, 1.9784070765599608, -4.02039245236665, -4.2036475501954556, -5.961400529369712, 0.5440000258386135, 0.7680000364780426, 0.4800000227987766, 0.0, 0.0, 0.0, 0.0, 0.0, 1.7103907464668367E9, 0.0, 2024-03-13 21:32:26.466
20.0, 3.4818468587473035, -0.7704193908721209, -14.720246225595474, -4.525278946384788, 0.5440000258386135, 0.7680000364780426, 0.4800000227987766, 0.0, 0.0, 0.0, 0.0, 0.0, 1.7103907464804108E9, 0.0, 2024-03-13 21:32:26.480
20.0, 8.728926496580243, 4.342023848555982, -9.809757583774626, 1.3875028835609555, 0.5440000258386135, 0.7680000364780426, 0.4800000227987766, 0.0, 0.0, 0.0, 0.0, 0.0, 1.7103907464804108E9, 0.0, 2024-03-13 21:32:26.480
21.0, 6.84775681886822, 2.0008464762941003, 1.9858868764713407, 0.684401691891253, 0.5440000258386135, 0.7680000364780426, 0.4800000227987766, 0.0, 0.0, 0.0, 0.0, 0.0, 1.71039074649582E9, 0.0, 2024-03-13 21:32:26.495
21.0, 3.582824157550931, -3.9642939530313015, -2.81240476667881, -2.621669868938625, 0.5440000258386135, 0.7680000364780426, 0.4800000227987766, 0.0, 0.0, 0.0, 0.0, 0.0, 1.71039074649582E9, 0.0, 2024-03-13 21:32:26.495
22.0, 13.69177373778075, 0.4338283948600292, -0.40390919521450996, 3.747379755601287, 0.5440000258386135, 0.7680000364780426, 0.4800000227987766, 0.0, 0.0, 0.0, 0.0, 0.0, 1.7103907465110755E9, 0.0, 2024-03-13 21:32:26.511
22.0, 18.774297777563334, 6.170834926888347, 7.64809540938586, 3.182654862292111, 0.5440000258386135, 0.7680000364780426, 0.4800000227987766, 0.0, 0.0, 0.0, 0.0, 0.0, 1.7103907465110755E9, 0.0, 2024-03-13 21:32:26.511
23.0, 4.794551743194461, 2.4309349711984396, 3.096637163311243, 0.8826163895428181, 0.5440000258386135, 0.7680000364780426, 0.4800000227987766, 0.0, 0.0, 0.0, 0.0, 0.0, 1.7103907465118496E9, 0.0, 2024-03-13 21:32:26.511
23.0, 7.434921111911535, 6.5410850225016475, 0.3777298955246806, 7.764032308012247, 0.5440000258386135, 0.7680000364780426, 0.4800000227987766, 0.0, 0.0, 0.0, 0.0, 0.0, 1.7103907465118496E9, 0.0, 2024-03-13 21:32:26.511
24.0, 13.422500940971076, 11.593689862638712, 10.797091172076762, 12.614682550542057, 0.5440000258386135, 0.7680000364780426, 0.4800000227987766, 0.0, 0.0, 0.0, 0.0, 0.0, 1.7103907465261047E9, 0.0, 2024-03-13 21:32:26.526
24.0, 10.378222377039492, 7.66305500920862, 11.227179666981101, 7.296544813551009, 0.5440000258386135, 0.7680000364780426, 0.4800000227987766, 0.0, 0.0, 0.0, 0.0, 0.0, 1.7103907465261047E9, 0.0, 2024-03-13 21:32:26.526
25.0, 5.587410533800721, 3.62770295701921, -1.492220082320273, 6.324170825071633, 0.5440000258386135, 0.7680000364780426, 0.4800000227987766, 0.0, 0.0, 0.0, 0.0, 0.0, 1.710390746526814E9, 0.0, 2024-03-13 21:32:26.526
25.0, 18.344209282658994, 10.501639075577259, 12.46508655231446, 15.32611001841724, 0.5440000258386135, 0.7680000364780426, 0.4800000227987766, 0.0, 0.0, 0.0, 0.0, 0.0, 1.710390746526814E9, 0.0, 2024-03-13 21:32:26.526
26.0, 13.351442841812968, 13.70673333760351, 16.650034602731466, 13.893728335388005, 0.5440000258386135, 0.7680000364780426, 0.4800000227987766, 0.0, 0.0, 0.0, 0.0, 0.0, 1.710390746540454E9, 0.0, 2024-03-13 21:32:26.540
26.0, 17.091342797502875, 11.358076165430248, 11.870442459359765, 15.66270101442933, 0.5440000258386135, 0.7680000364780426, 0.4800000227987766, 0.0, 0.0, 0.0, 0.0, 0.0, 1.710390746540454E9, 0.0, 2024-03-13 21:32:26.540
27.0, 18.254451683722436, 17.416714093647897, 13.082170045003295, 21.72881874255836, 0.5440000258386135, 0.7680000364780426, 0.4800000227987766, 0.0, 0.0, 0.0, 0.0, 0.0, 1.7103907465562012E9, 0.0, 2024-03-13 21:32:26.556
27.0, 7.65183530934155, 2.247679873369634, 13.228026143275201, 10.187487479299307, 0.5440000258386135, 0.7680000364780426, 0.4800000227987766, 0.0, 0.0, 0.0, 0.0, 0.0, 1.7103907465562012E9, 0.0, 2024-03-13 21:32:26.556
28.0, 5.056344740092754, 7.517198910936713, 12.940053846687078, 12.188333955593407, 0.5440000258386135, 0.7680000364780426, 0.4800000227987766, 0.0, 0.0, 0.0, 0.0, 0.0, 1.7103907465568151E9, 0.0, 2024-03-13 21:32:26.556
28.0, 9.966833381913602, 11.440353964455426, 0.08975759893655777, 11.896621759049594, 0.5440000258386135, 0.7680000364780426, 0.4800000227987766, 0.0, 0.0, 0.0, 0.0, 0.0, 1.7103907465568151E9, 0.0, 2024-03-13 21:32:26.556
29.0, 15.064317021518946, 12.943793746642768, 10.0416313810274, 13.093389744870365, 0.5440000258386135, 0.7680000364780426, 0.4800000227987766, 0.0, 0.0, 0.0, 0.0, 0.0, 1.710390746570835E9, 0.0, 2024-03-13 21:32:26.570
29.0, 8.149242003448308, 12.921354346908629, 7.524678710848093, 8.313797601498663, 0.5440000258386135, 0.7680000364780426, 0.4800000227987766, 0.0, 0.0, 0.0, 0.0, 0.0, 1.710390746570835E9, 0.0, 2024-03-13 21:32:26.570
30.0, 16.05165060982108, 15.31489031855017, 3.1639553625136614, 17.065163497813046, 0.5440000258386135, 0.7680000364780426, 0.4800000227987766, 0.0, 0.0, 0.0, 0.0, 0.0, 1.710390746602797E9, 0.0, 2024-03-13 21:32:26.602
30.0, 16.175067308358848, 13.25046554300934, 9.798537883907557, 17.35313579440117, 0.5440000258386135, 0.7680000364780426, 0.4800000227987766, 0.0, 0.0, 0.0, 0.0, 0.0, 1.710390746602797E9, 0.0, 2024-03-13 21:32:26.602
31.0, 16.47425930481404, 13.65811463817954, 17.65232779085636, 16.739792201668024, 0.5440000258386135, 0.7680000364780426, 0.4800000227987766, 0.0, 0.0, 0.0, 0.0, 0.0, 1.7103907466035275E9, 0.0, 2024-03-13 21:32:26.603
31.0, 7.0646710162982345, 6.896375518292189, 3.9680338529869914, 11.922801058739424, 0.5440000258386135, 0.7680000364780426, 0.4800000227987766, 0.0, 0.0, 0.0, 0.0, 0.0, 1.7103907466035275E9, 0.0, 2024-03-13 21:32:26.603
32.0, 7.3863024124875665, 5.564971134066582, 0.9162754891440272, 16.45555980503559, 0.5440000258386135, 0.7680000364780426, 0.4800000227987766, 0.0, 0.0, 0.0, 0.0, 0.0, 1.7103907466041775E9, 0.0, 2024-03-13 21:32:26.604
32.0, 13.362662541680038, 13.976006134413183, 11.515151963569224, 18.011358186602592, 0.5440000258386135, 0.7680000364780426, 0.4800000227987766, 0.0, 0.0, 0.0, 0.0, 0.0, 1.7103907466041775E9, 0.0, 2024-03-13 21:32:26.604
33.0, 2.098083875142038, 13.377622141502798, 10.206186979077756, 10.86814927123487, 0.5440000258386135, 0.7680000364780426, 0.4800000227987766, 0.0, 0.0, 0.0, 0.0, 0.0, 1.7103907466048937E9, 0.0, 2024-03-13 21:32:26.604
33.0, 19.552196968346834, 21.75873794220388, 2.3636167719960213, 19.582116167992353, 0.5440000258386135, 0.7680000364780426, 0.4800000227987766, 0.0, 0.0, 0.0, 0.0, 0.0, 1.7103907466048937E9, 0.0, 2024-03-13 21:32:26.604
34.0, 20.53579065669328, 17.532650992274284, 10.927987670525908, 21.579222744330764, 0.5440000258386135, 0.7680000364780426, 0.4800000227987766, 0.0, 0.0, 0.0, 0.0, 0.0, 1.7103907466156473E9, 0.0, 2024-03-13 21:32:26.615
34.0, 11.129942268133163, 13.946086934767663, 8.085663704201579, 14.316337030380964, 0.5440000258386135, 0.7680000364780426, 0.4800000227987766, 0.0, 0.0, 0.0, 0.0, 0.0, 1.7103907466156473E9, 0.0, 2024-03-13 21:32:26.615
35.0, 10.542777975089848, 10.08277028053999, -2.2327202735468745, 13.961046534590423, 0.5440000258386135, 0.7680000364780426, 0.4800000227987766, 0.0, 0.0, 0.0, 0.0, 0.0, 1.710390746630541E9, 0.0, 2024-03-13 21:32:26.630
35.0, 19.25674487184733, 25.154567101970315, 10.557737574912608, 20.666687155142426, 0.5440000258386135, 0.7680000364780426, 0.4800000227987766, 0.0, 0.0, 0.0, 0.0, 0.0, 1.710390746630541E9, 0.0, 2024-03-13 21:32:26.630
36.0, 13.572096939198673, 16.003031910397112, 14.043324333615601, 17.31573679484427, 0.5440000258386135, 0.7680000364780426, 0.4800000227987766, 0.0, 0.0, 0.0, 0.0, 0.0, 1.7103907466461384E9, 0.0, 2024-03-13 21:32:26.646
36.0, 6.615883021615446, 6.8215775191783905, 2.861023466102779, 8.115582903847098, 0.5440000258386135, 0.7680000364780426, 0.4800000227987766, 0.0, 0.0, 0.0, 0.0, 0.0, 1.7103907466461384E9, 0.0, 2024-03-13 21:32:26.646
37.0, 11.750765660777688, 6.915075018070638, -3.900715653784573, 8.568110798485577, 0.5440000258386135, 0.7680000364780426, 0.4800000227987766, 0.0, 0.0, 0.0, 0.0, 0.0, 1.710390746646855E9, 0.0, 2024-03-13 21:32:26.646
37.0, 7.494759511202574, 3.7660792553797364, 4.794551743194461, 7.274105413816869, 0.5440000258386135, 0.7680000364780426, 0.4800000227987766, 0.0, 0.0, 0.0, 0.0, 0.0, 1.710390746646855E9, 0.0, 2024-03-13 21:32:26.646
38.0, 5.086263939738274, 5.329357436858118, 7.068410916253924, 10.651235073804855, 0.5440000258386135, 0.7680000364780426, 0.4800000227987766, 0.0, 0.0, 0.0, 0.0, 0.0, 1.710390746660407E9, 0.0, 2024-03-13 21:32:26.660
38.0, 11.384255465120077, 5.550011534243822, 0.6918814918026328, 14.810003824532032, 0.5440000258386135, 0.7680000364780426, 0.4800000227987766, 0.0, 0.0, 0.0, 0.0, 0.0, 1.710390746660407E9, 0.0, 2024-03-13 21:32:26.660
39.0, 7.049711416475475, -5.205940738320351, 4.82447094283998, 9.297391289845109, 0.5440000258386135, 0.7680000364780426, 0.4800000227987766, 0.0, 0.0, 0.0, 0.0, 0.0, 1.7103907466761453E9, 0.0, 2024-03-13 21:32:26.676
39.0, 4.581377445720136, 4.476660246960819, 2.337437472306192, 4.955367441289127, 0.5440000258386135, 0.7680000364780426, 0.4800000227987766, 0.0, 0.0, 0.0, 0.0, 0.0, 1.7103907466761453E9, 0.0, 2024-03-13 21:32:26.676
40.0, 3.62396305706352, 2.5094728702679276, -3.3135513607412577, 6.43636782374233, 0.5440000258386135, 0.7680000364780426, 0.4640000220388174, 0.0, 0.0, 0.0, 0.0, 0.0, 1.710390746677092E9, 0.0, 2024-03-13 21:32:26.677
40.0, 16.388241605833173, 17.973959187045693, 8.141762203536928, 14.660407826304436, 0.5440000258386135, 0.7680000364780426, 0.4640000220388174, 0.0, 0.0, 0.0, 0.0, 0.0, 1.710390746677092E9, 0.0, 2024-03-13 21:32:26.677
41.0, 6.174574826844037, 6.5822239220142365, 11.178560967557132, 8.669088097289205, 0.5440000258386135, 0.7680000364780426, 0.4640000220388174, 0.0, 0.0, 0.0, 0.0, 0.0, 1.7103907466905518E9, 0.0, 2024-03-13 21:32:26.690
41.0, -1.088310887105763, 1.290265484713018, 4.514059246517718, 6.930034617893398, 0.5440000258386135, 0.7680000364780426, 0.4640000220388174, 0.0, 0.0, 0.0, 0.0, 0.0, 1.7103907466905518E9, 0.0, 2024-03-13 21:32:26.690
42.0, 9.600323186255991, 12.86899574752897, 7.715413608588278, 18.007618286646903, 0.5440000258386135, 0.7680000364780426, 0.4640000220388174, 0.0, 0.0, 0.0, 0.0, 0.0, 1.7103907467064836E9, 0.0, 2024-03-13 21:32:26.706
42.0, -1.0509118875488639, 1.6193766808137298, 8.108103103935719, 8.740146196447313, 0.5440000258386135, 0.7680000364780426, 0.4640000220388174, 0.0, 0.0, 0.0, 0.0, 0.0, 1.7103907467064836E9, 0.0, 2024-03-13 21:32:26.706
43.0, 2.2738591730594635, -1.9858868764713407, 7.105809915810823, 8.85982299502939, 0.5440000258386135, 0.7680000364780426, 0.4640000220388174, 0.0, 0.0, 0.0, 0.0, 0.0, 1.7103907467070217E9, 0.0, 2024-03-13 21:32:26.707
43.0, 11.189780667424202, 6.406448624096811, -3.1489957626909018, 14.91098112333566, 0.5440000258386135, 0.7680000364780426, 0.4640000220388174, 0.0, 0.0, 0.0, 0.0, 0.0, 1.7103907467070217E9, 0.0, 2024-03-13 21:32:26.707
44.0, 2.6441092686727643, 7.161908415146172, 6.148395527154207, 10.673674473538995, 0.5440000258386135, 0.7680000364780426, 0.4640000220388174, 0.0, 0.0, 0.0, 0.0, 0.0, 1.7103907467204456E9, 0.0, 2024-03-13 21:32:26.720
44.0, -4.701054244302213, -2.292558672837913, 7.296544813551009, 7.277845313772559, 0.5440000258386135, 0.7680000364780426, 0.4640000220388174, 0.0, 0.0, 0.0, 0.0, 0.0, 1.7103907467204456E9, 0.0, 2024-03-13 21:32:26.720
45.0, -9.839676783420146, -14.682847226038575, -9.005679093301296, -0.4899268941953778, 0.5440000258386135, 0.7680000364780426, 0.4640000220388174, 0.0, 0.0, 0.0, 0.0, 0.0, 1.710390746736272E9, 0.0, 2024-03-13 21:32:26.736
45.0, 7.191827614791691, 3.171435162425041, 5.456514035351574, 16.687433602288365, 0.5440000258386135, 0.7680000364780426, 0.4640000220388174, 0.0, 0.0, 0.0, 0.0, 0.0, 1.710390746736272E9, 0.0, 2024-03-13 21:32:26.736
46.0, 3.61648325715214, 6.275552125647664, 8.354936501011252, 10.699853773228824, 0.5440000258386135, 0.7680000364780426, 0.4640000220388174, 0.0, 0.0, 0.0, 0.0, 0.0, 1.710390746751187E9, 0.0, 2024-03-13 21:32:26.751
46.0, 2.569311269558966, 1.1032704869285226, 0.5722046932205558, 13.078430145047605, 0.5440000258386135, 0.7680000364780426, 0.4640000220388174, 0.0, 0.0, 0.0, 0.0, 0.0, 1.710390746751187E9, 0.0, 2024-03-13 21:32:26.751
47.0, 14.282677930779755, 11.088803368620574, 3.6090034572407603, 20.07578296214342, 0.5440000258386135, 0.7680000364780426, 0.4640000220388174, 0.0, 0.0, 0.0, 0.0, 0.0, 1.7103907467518504E9, 0.0, 2024-03-13 21:32:26.751
47.0, 10.228626378811896, 5.475213535130024, 7.382562512531877, 15.146594820544124, 0.5440000258386135, 0.7680000364780426, 0.4640000220388174, 0.0, 0.0, 0.0, 0.0, 0.0, 1.7103907467518504E9, 0.0, 2024-03-13 21:32:26.751
48.0, 12.177114255726337, 6.43636782374233, 5.146102339029312, 10.565217374823987, 0.5440000258386135, 0.7680000364780426, 0.4640000220388174, 0.0, 0.0, 0.0, 0.0, 0.0, 1.7103907467661295E9, 0.0, 2024-03-13 21:32:26.766
48.0, 8.212820302695036, 3.1153366630896926, -6.473766823299229, 10.236106178723276, 0.5440000258386135, 0.7680000364780426, 0.4640000220388174, 0.0, 0.0, 0.0, 0.0, 0.0, 1.7103907467661295E9, 0.0, 2024-03-13 21:32:26.766
49.0, 7.449880711734295, 1.9073489774018526, 4.573897645808756, 9.203893790952861, 0.5440000258386135, 0.7680000364780426, 0.4640000220388174, 0.0, 0.0, 0.0, 0.0, 0.0, 1.710390746766834E9, 0.0, 2024-03-13 21:32:26.766
49.0, 7.390042312443256, 7.169388215057552, 11.391735265031457, 13.231766043230891, 0.5440000258386135, 0.7680000364780426, 0.4640000220388174, 0.0, 0.0, 0.0, 0.0, 0.0, 1.710390746766834E9, 0.0, 2024-03-13 21:32:26.766
50.0, 10.931727570481598, 12.584763350896537, 9.65268178563565, 24.11113501433283, 0.5440000258386135, 0.7680000364780426, 0.4640000220388174, 0.0, 0.0, 0.0, 0.0, 0.0, 1.710390746780414E9, 0.0, 2024-03-13 21:32:26.780
50.0, 3.3696498600766063, 1.2341669853776693, -1.1331896865740418, 12.618422450497746, 0.5440000258386135, 0.7680000364780426, 0.4640000220388174, 0.0, 0.0, 0.0, 0.0, 0.0, 1.710390746780414E9, 0.0, 2024-03-13 21:32:26.780
51.0, -2.610450169071555, -1.970927276648581, 0.6395228924229741, 2.165402074344456, 0.5440000258386135, 0.7680000364780426, 0.4640000220388174, 0.0, 0.0, 0.0, 0.0, 0.0, 1.7103907467961612E9, 0.0, 2024-03-13 21:32:26.796
51.0, -11.821823759935796, 1.6567756803706288, -3.784778755158186, 1.9671873766928911, 0.5440000258386135, 0.7680000364780426, 0.4640000220388174, 0.0, 0.0, 0.0, 0.0, 0.0, 1.7103907467961612E9, 0.0, 2024-03-13 21:32:26.796
52.0, 9.899515182711184, 10.310904177837074, 4.775852243416011, 10.957906870171428, 0.5440000258386135, 0.7680000364780426, 0.4640000220388174, 0.0, 0.0, 0.0, 0.0, 0.0, 1.7103907467971313E9, 0.0, 2024-03-13 21:32:26.797
52.0, 12.89143514726311, 11.848003059625626, 7.921108106151223, 14.761385125108063, 0.5440000258386135, 0.7680000364780426, 0.4640000220388174, 0.0, 0.0, 0.0, 0.0, 0.0, 1.7103907467971313E9, 0.0, 2024-03-13 21:32:26.797
53.0, 5.763185831718147, 11.358076165430248, 6.769218919798732, 12.801677548326552, 0.5440000258386135, 0.7680000364780426, 0.4640000220388174, 0.0, 0.0, 0.0, 0.0, 0.0, 1.7103907468104248E9, 0.0, 2024-03-13 21:32:26.810
53.0, 14.024624833837152, 14.817483624443412, 3.661362056620419, 21.870934940874577, 0.5440000258386135, 0.7680000364780426, 0.4640000220388174, 0.0, 0.0, 0.0, 0.0, 0.0, 1.7103907468104248E9, 0.0, 2024-03-13 21:32:26.810
54.0, 16.777191201224923, 19.099669073708355, 16.713612901978195, 20.202939560636878, 0.5440000258386135, 0.7680000364780426, 0.4640000220388174, 0.0, 0.0, 0.0, 0.0, 0.0, 1.7103907468264475E9, 0.0, 2024-03-13 21:32:26.826
54.0, 11.219699867069721, 9.981792981736362, 13.478599440306425, 12.356629453599453, 0.5440000258386135, 0.7680000364780426, 0.4640000220388174, 0.0, 0.0, 0.0, 0.0, 0.0, 1.7103907468264475E9, 0.0, 2024-03-13 21:32:26.826
55.0, 18.183393584564328, 16.52287800423801, 6.275552125647664, 17.29329739511013, 0.5440000258386135, 0.7680000364780426, 0.4640000220388174, 0.0, 0.0, 0.0, 0.0, 0.0, 1.7103907468269093E9, 0.0, 2024-03-13 21:32:26.826
55.0, 18.706979578360915, 11.67970756161958, 4.069011151790619, 10.310904177837074, 0.5440000258386135, 0.7680000364780426, 0.4640000220388174, 0.0, 0.0, 0.0, 0.0, 0.0, 1.7103907468269093E9, 0.0, 2024-03-13 21:32:26.826
56.0, 13.422500940971076, 3.62770295701921, 14.940900322981179, 9.828457083553076, 0.5440000258386135, 0.7680000364780426, 0.4640000220388174, 0.0, 0.0, 0.0, 0.0, 0.0, 1.71039074684049E9, 0.0, 2024-03-13 21:32:26.840
56.0, 3.7922585550695658, 4.155028850771487, 6.802878019399941, 4.555198146030307, 0.5440000258386135, 0.7680000364780426, 0.4640000220388174, 0.0, 0.0, 0.0, 0.0, 0.0, 1.71039074684049E9, 0.0, 2024-03-13 21:32:26.840
57.0, 10.120169280096889, 5.190981138497591, 5.23212003801018, 3.0741977635771036, 0.5440000258386135, 0.7680000364780426, 0.4640000220388174, 0.0, 0.0, 0.0, 0.0, 0.0, 1.7103907468566155E9, 0.0, 2024-03-13 21:32:26.856
57.0, -0.07479799911379814, 4.903008841909468, 8.631689097732306, 7.872489406727254, 0.5440000258386135, 0.7680000364780426, 0.4640000220388174, 0.0, 0.0, 0.0, 0.0, 0.0, 1.7103907468566155E9, 0.0, 2024-03-13 21:32:26.856
58.0, 1.7390534793958068, -0.35529049579054117, 5.093743739649653, 2.775005767121911, 0.5440000258386135, 0.7680000364780426, 0.4640000220388174, 0.0, 0.0, 0.0, 0.0, 0.0, 1.7103907468570054E9, 0.0, 2024-03-13 21:32:26.857
58.0, 7.098330115899444, 1.0396921876817942, -1.5520584816113114, 10.44180067628622, 0.5440000258386135, 0.7680000364780426, 0.4640000220388174, 0.0, 0.0, 0.0, 0.0, 0.0, 1.7103907468570054E9, 0.0, 2024-03-13 21:32:26.857
59.0, 16.825809900648892, 3.4855867587029934, 5.63976913318038, 11.051404369063675, 0.5440000258386135, 0.7680000364780426, 0.4640000220388174, 0.0, 0.0, 0.0, 0.0, 0.0, 1.7103907468704135E9, 0.0, 2024-03-13 21:32:26.870
59.0, -5.262039237655699, -2.7226471677422523, -0.35155059583485126, 4.517799146473408, 0.5440000258386135, 0.7680000364780426, 0.4640000220388174, 0.0, 0.0, 0.0, 0.0, 0.0, 1.7103907468704135E9, 0.0, 2024-03-13 21:32:26.870
60.0, 5.168541738763452, 3.459407459013164, -2.0681646754965186, 6.473766823299229, 0.5440000258386135, 0.7680000364780426, 0.4640000220388174, 0.0, 0.0, 0.0, 0.0, 0.0, 1.7103907468861072E9, 0.0, 2024-03-13 21:32:26.886
60.0, 20.19171986076981, 6.922554817982018, 3.653882256709039, 9.159014991484582, 0.5440000258386135, 0.7680000364780426, 0.4640000220388174, 0.0, 0.0, 0.0, 0.0, 0.0, 1.7103907468861072E9, 0.0, 2024-03-13 21:32:26.886
61.0, 4.4056021478027105, -0.8003385905176401, 5.946440929546952, 6.615883021615446, 0.5440000258386135, 0.7680000364780426, 0.4640000220388174, 0.0, 0.0, 0.0, 0.0, 0.0, 1.7103907468870175E9, 0.0, 2024-03-13 21:32:26.887
61.0, 1.1818083859980106, 1.372543283738196, 6.279292025603354, 11.840523259714246, 0.5440000258386135, 0.7680000364780426, 0.4640000220388174, 0.0, 0.0, 0.0, 0.0, 0.0, 1.7103907468870175E9, 0.0, 2024-03-13 21:32:26.887
62.0, 8.227779902517796, 4.01291265245527, 0.011219699867069721, 8.216560202650726, 0.5440000258386135, 0.7680000364780426, 0.4640000220388174, 0.0, 0.0, 0.0, 0.0, 0.0, 1.7103907469004183E9, 0.0, 2024-03-13 21:32:26.900
62.0, -1.323924584314227, 2.81240476667881, 3.818437854759395, 7.958507105708122, 0.5440000258386135, 0.7680000364780426, 0.4640000220388174, 0.0, 0.0, 0.0, 0.0, 0.0, 1.7103907469004183E9, 0.0, 2024-03-13 21:32:26.900
63.0, -12.135975356213748, -11.68344746157527, -6.716860320419073, 2.4832935705780983, 0.5440000258386135, 0.7680000364780426, 0.4640000220388174, 0.0, 0.0, 0.0, 0.0, 0.0, 1.7103907469161713E9, 0.0, 2024-03-13 21:32:26.916
63.0, -6.959953817538917, -4.667395144701004, -12.364109253510833, 1.7540130792185664, 0.5440000258386135, 0.7680000364780426, 0.4640000220388174, 0.0, 0.0, 0.0, 0.0, 0.0, 1.7103907469161713E9, 0.0, 2024-03-13 21:32:26.916
64.0, -5.722046932205558, -0.02617929968982935, -0.6881415918469429, 4.9291881415992975, 0.5440000258386135, 0.7680000364780426, 0.4640000220388174, 0.0, 0.0, 0.0, 0.0, 0.0, 1.7103907469169784E9, 0.0, 2024-03-13 21:32:26.916
64.0, -5.703347432427108, 0.80407849047333, 0.6918814918026328, 6.316691025160253, 0.5440000258386135, 0.7680000364780426, 0.4640000220388174, 0.0, 0.0, 0.0, 0.0, 0.0, 1.7103907469169784E9, 0.0, 2024-03-13 21:32:26.916
65.0, 0.9873335883021355, -0.2056944975629449, -9.68634088523686, 6.496206223033369, 0.5440000258386135, 0.7680000364780426, 0.4640000220388174, 0.0, 0.0, 0.0, 0.0, 0.0, 1.7103907469304094E9, 0.0, 2024-03-13 21:32:26.930
65.0, 11.904101558960974, 2.7937052669003606, 0.5572450933977962, 8.238999602384865, 0.5440000258386135, 0.7680000364780426, 0.4640000220388174, 0.0, 0.0, 0.0, 0.0, 0.0, 1.7103907469304094E9, 0.0, 2024-03-13 21:32:26.930
66.0, -1.1070103868842125, 3.062978063710034, 5.722046932205558, 9.67512118536979, 0.5440000258386135, 0.7680000364780426, 0.4640000220388174, 0.0, 0.0, 0.0, 0.0, 0.0, 1.7103907469460888E9, 0.0, 2024-03-13 21:32:26.946
66.0, -7.9098884062841535, -1.1930280858650804, -3.1564755626022816, 6.671981520950794, 0.5440000258386135, 0.7680000364780426, 0.4640000220388174, 0.0, 0.0, 0.0, 0.0, 0.0, 1.7103907469460888E9, 0.0, 2024-03-13 21:32:26.946
67.0, 3.463147358968854, 2.341177372261882, -0.9312350889667869, 11.014005369506776, 0.5440000258386135, 0.7680000364780426, 0.4640000220388174, 0.0, 0.0, 0.0, 0.0, 0.0, 1.7103907469468448E9, 0.0, 2024-03-13 21:32:26.946
67.0, -7.692974208854139, -0.6544824922457337, 5.269519037567079, 15.797337412834167, 0.5440000258386135, 0.7680000364780426, 0.4640000220388174, 0.0, 0.0, 0.0, 0.0, 0.0, 1.7103907469468448E9, 0.0, 2024-03-13 21:32:26.946
68.0, -16.410681005567312, -3.5678645577281713, -1.2715659849345684, 9.66764138545841, 0.5440000258386135, 0.7680000364780426, 0.4640000220388174, 0.0, 0.0, 0.0, 0.0, 0.0, 1.7103907469604497E9, 0.0, 2024-03-13 21:32:26.960
68.0, -3.4855867587029934, 2.135482874698937, -3.4107887595891953, 13.908687935210764, 0.5440000258386135, 0.7680000364780426, 0.4640000220388174, 0.0, 0.0, 0.0, 0.0, 0.0, 1.7103907469604497E9, 0.0, 2024-03-13 21:32:26.960
69.0, -7.487279711291194, -3.425748359411955, 2.857283566147089, 12.831596747972071, 0.5440000258386135, 0.7680000364780426, 0.4640000220388174, 0.0, 0.0, 0.0, 0.0, 0.0, 1.710390746976072E9, 0.0, 2024-03-13 21:32:26.976
69.0, -23.39681412279606, -8.908441694453359, 3.855836854316294, 10.744732572697103, 0.5440000258386135, 0.7680000364780426, 0.4640000220388174, 0.0, 0.0, 0.0, 0.0, 0.0, 1.710390746976072E9, 0.0, 2024-03-13 21:32:26.976
70.0, -10.340823377482593, -3.3920892598107457, -6.526125422678888, 12.827856848016381, 0.5440000258386135, 0.7680000364780426, 0.4640000220388174, 0.0, 0.0, 0.0, 0.0, 0.0, 1.7103907469768257E9, 0.0, 2024-03-13 21:32:26.976
70.0, -2.9881800645962358, 4.644955744966865, 4.401862247847021, 19.70179296657443, 0.5440000258386135, 0.7680000364780426, 0.4640000220388174, 0.0, 0.0, 0.0, 0.0, 0.0, 1.7103907469768257E9, 0.0, 2024-03-13 21:32:26.976
71.0, -10.980346269905567, 0.4226086949929595, 6.810357819311321, 18.834136176854372, 0.5440000258386135, 0.7680000364780426, 0.4640000220388174, 0.0, 0.0, 0.0, 0.0, 0.0, 1.71039074699044E9, 0.0, 2024-03-13 21:32:26.990
71.0, -1.170588686130941, 11.417914564721286, 8.257699102163315, 30.56620233785361, 0.5440000258386135, 0.7680000364780426, 0.4640000220388174, 0.0, 0.0, 0.0, 0.0, 0.0, 1.71039074699044E9, 0.0, 2024-03-13 21:32:26.990
72.0, 12.764278548769653, 17.977699087001383, 6.7430396201089025, 26.452312386594713, 0.5440000258386135, 0.7680000364780426, 0.4640000220388174, 0.0, 0.0, 0.0, 0.0, 0.0, 1.7103907470064616E9, 0.0, 2024-03-13 21:32:27.006
72.0, 0.482447094283998, 7.034751816652715, 10.46424007602036, 25.41262019891292, 0.5440000258386135, 0.7680000364780426, 0.4640000220388174, 0.0, 0.0, 0.0, 0.0, 0.0, 1.7103907470064616E9, 0.0, 2024-03-13 21:32:27.006
73.0, 4.054051551967859, 8.564370898529887, 9.499345887452364, 21.72133894264698, 0.5440000258386135, 0.7680000364780426, 0.4640000220388174, 0.0, 0.0, 0.0, 0.0, 0.0, 1.7103907470070207E9, 0.0, 2024-03-13 21:32:27.007
73.0, 2.0382454758509994, 3.2424932615831494, 0.1645555980503559, 19.623255067504942, 0.5440000258386135, 0.7680000364780426, 0.4640000220388174, 0.0, 0.0, 0.0, 0.0, 0.0, 1.7103907470070207E9, 0.0, 2024-03-13 21:32:27.007
74.0, 5.823024231009185, 7.8276106072589755, 8.02582530491054, 19.37642167042941, 0.5440000258386135, 0.7680000364780426, 0.4640000220388174, 0.0, 0.0, 0.0, 0.0, 0.0, 1.7103907470207677E9, 0.0, 2024-03-13 21:32:27.020
74.0, -2.180361674167216, 7.775252007879317, 12.150934956036508, 19.36520197056234, 0.5440000258386135, 0.7680000364780426, 0.4640000220388174, 0.0, 0.0, 0.0, 0.0, 0.0, 1.7103907470207677E9, 0.0, 2024-03-13 21:32:27.020
75.0, 11.100023068487644, 8.250219302251935, 7.382562512531877, 22.416960334405303, 0.5440000258386135, 0.7680000364780426, 0.4640000220388174, 0.0, 0.0, 0.0, 0.0, 0.0, 1.7103907470361805E9, 0.0, 2024-03-13 21:32:27.036
75.0, 21.145394349470735, 14.731465925462544, 14.48089262843132, 22.49549823347479, 0.5440000258386135, 0.7680000364780426, 0.4640000220388174, 0.0, 0.0, 0.0, 0.0, 0.0, 1.7103907470361805E9, 0.0, 2024-03-13 21:32:27.036
76.0, 11.900361659005284, 10.295944578014314, 21.571742944419384, 25.431319698691368, 0.5440000258386135, 0.7680000364780426, 0.4640000220388174, 0.0, 0.0, 0.0, 0.0, 0.0, 1.7103907470367997E9, 0.0, 2024-03-13 21:32:27.036
76.0, 14.45471332874149, 15.352289318107069, 11.481492863968015, 20.030904162675142, 0.5440000258386135, 0.7680000364780426, 0.4640000220388174, 0.0, 0.0, 0.0, 0.0, 0.0, 1.7103907470367997E9, 0.0, 2024-03-13 21:32:27.036
77.0, 20.831242753192782, 13.018591745756567, 1.4024624833837152, 12.696960349567235, 0.5440000258386135, 0.7680000364780426, 0.4640000220388174, 0.0, 0.0, 0.0, 0.0, 0.0, 1.710390747050488E9, 0.0, 2024-03-13 21:32:27.050
77.0, 20.86864175274968, 10.972866469994187, 15.31115041859448, 20.408634058199823, 0.5440000258386135, 0.7680000364780426, 0.4640000220388174, 0.0, 0.0, 0.0, 0.0, 0.0, 1.710390747050488E9, 0.0, 2024-03-13 21:32:27.050
78.0, 10.797091172076762, 3.3509503602981567, 6.357829924672842, 14.237799131311476, 0.5440000258386135, 0.7680000364780426, 0.4640000220388174, 0.0, 0.0, 0.0, 0.0, 0.0, 1.710390747066097E9, 0.0, 2024-03-13 21:32:27.066
78.0, 18.51998458057642, 10.86066947132349, 4.371943048201501, 16.219946107827127, 0.5440000258386135, 0.7680000364780426, 0.4640000220388174, 0.0, 0.0, 0.0, 0.0, 0.0, 1.710390747066097E9, 0.0, 2024-03-13 21:32:27.066
79.0, 19.641954567283392, 11.582470162771642, 15.67766061425209, 17.929080387577415, 0.5440000258386135, 0.7680000364780426, 0.4640000220388174, 0.0, 0.0, 0.0, 0.0, 0.0, 1.710390747066826E9, 0.0, 2024-03-13 21:32:27.066
79.0, 13.149488244205713, 9.476906487718225, 16.373282006010413, 22.630134631879628, 0.5440000258386135, 0.7680000364780426, 0.4640000220388174, 0.0, 0.0, 0.0, 0.0, 0.0, 1.710390747066826E9, 0.0, 2024-03-13 21:32:27.066
80.0, 19.963585963472724, 13.127048844471574, 1.529619081877172, 10.112689480185509, 0.5440000258386135, 0.7680000364780426, 0.4640000220388174, 0.0, 0.0, 0.0, 0.0, 0.0, 1.7103907470803738E9, 0.0, 2024-03-13 21:32:27.080
80.0, 37.12598686013371, 21.26507114805281, 10.793351272121072, 18.011358186602592, 0.5440000258386135, 0.7680000364780426, 0.4640000220388174, 0.0, 0.0, 0.0, 0.0, 0.0, 1.7103907470803738E9, 0.0, 2024-03-13 21:32:27.080
81.0, 23.33323582354933, 15.931973811239004, 18.08989608567208, 20.034644062630832, 0.5440000258386135, 0.7680000364780426, 0.4640000220388174, 0.0, 0.0, 0.0, 0.0, 0.0, 1.7103907470960536E9, 0.0, 2024-03-13 21:32:27.096
81.0, 17.861762188374996, 11.593689862638712, 8.657868397422135, 15.969372810795903, 0.5440000258386135, 0.7680000364780426, 0.4640000220388174, 0.0, 0.0, 0.0, 0.0, 0.0, 1.7103907470960536E9, 0.0, 2024-03-13 21:32:27.096
82.0, 31.145886830985546, 19.241785272024572, 13.28786454256624, 16.02921121008694, 0.5440000258386135, 0.7680000364780426, 0.4640000220388174, 0.0, 0.0, 0.0, 0.0, 0.0, 1.7103907470967674E9, 0.0, 2024-03-13 21:32:27.096
82.0, 17.162400896660984, 13.168187743984163, 20.05708346236497, 16.87816850002855, 0.5440000258386135, 0.7680000364780426, 0.4640000220388174, 0.0, 0.0, 0.0, 0.0, 0.0, 1.7103907470967674E9, 0.0, 2024-03-13 21:32:27.096
83.0, 8.807464395649731, 9.144055391661823, 10.84944977145642, 14.136821832507849, 0.5440000258386135, 0.7680000364780426, 0.4640000220388174, 0.0, 0.0, 0.0, 0.0, 0.0, 1.710390747110584E9, 0.0, 2024-03-13 21:32:27.110
83.0, 23.464132321998477, 15.823516712523997, 4.8880492420867085, 14.750165425240993, 0.5440000258386135, 0.7680000364780426, 0.4640000220388174, 0.0, 0.0, 0.0, 0.0, 0.0, 1.710390747110584E9, 0.0, 2024-03-13 21:32:27.110
84.0, 17.599969191476703, 14.839923024177551, 13.25420544296503, 16.709873002022505, 0.5440000258386135, 0.7680000364780426, 0.4640000220388174, 0.0, 0.0, 0.0, 0.0, 0.0, 1.710390747126083E9, 0.0, 2024-03-13 21:32:27.126
84.0, 9.129095791839063, 17.528911092318594, 14.944640222936869, 22.824609429575503, 0.5440000258386135, 0.7680000364780426, 0.4640000220388174, 0.0, 0.0, 0.0, 0.0, 0.0, 1.710390747126083E9, 0.0, 2024-03-13 21:32:27.126
85.0, 18.14225468505174, 16.07782990951091, 5.22090033814311, 19.006171574816108, 0.5440000258386135, 0.7680000364780426, 0.4640000220388174, 0.0, 0.0, 0.0, 0.0, 0.0, 1.7103907471268198E9, 0.0, 2024-03-13 21:32:27.126
85.0, 21.919553640298545, 16.620115403085947, 15.771158113144338, 18.018837986513972, 0.5440000258386135, 0.7680000364780426, 0.4640000220388174, 0.0, 0.0, 0.0, 0.0, 0.0, 1.7103907471268198E9, 0.0, 2024-03-13 21:32:27.126
86.0, 10.827010371722281, 11.522631763480604, 14.447233528830111, 16.14140820875764, 0.5440000258386135, 0.7680000364780426, 0.4640000220388174, 0.0, 0.0, 0.0, 0.0, 0.0, 1.71039074714038E9, 0.0, 2024-03-13 21:32:27.140
86.0, 6.866456318646669, 5.778145431540906, 2.453374370932579, 7.599476709961891, 0.5440000258386135, 0.7680000364780426, 0.4640000220388174, 0.0, 0.0, 0.0, 0.0, 0.0, 1.71039074714038E9, 0.0, 2024-03-13 21:32:27.140
87.0, 17.038984198123217, 11.444093864411116, 5.520092334598303, 11.574990362860262, 0.5440000258386135, 0.7680000364780426, 0.4640000220388174, 0.0, 0.0, 0.0, 0.0, 0.0, 1.710390747156448E9, 0.0, 2024-03-13 21:32:27.156
87.0, 9.551704486832023, 9.372189288958907, 10.08651018049568, 11.002785669639707, 0.5440000258386135, 0.7680000364780426, 0.4640000220388174, 0.0, 0.0, 0.0, 0.0, 0.0, 1.710390747156448E9, 0.0, 2024-03-13 21:32:27.156
88.0, 4.600076945498586, 8.549411298707128, 4.910488641820848, 12.966233146376908, 0.5440000258386135, 0.7680000364780426, 0.4640000220388174, 0.0, 0.0, 0.0, 0.0, 0.0, 1.7103907471569672E9, 0.0, 2024-03-13 21:32:27.156
88.0, 28.96552515681833, 21.949472839944065, 5.703347432427108, 17.72712578997016, 0.5440000258386135, 0.7680000364780426, 0.4640000220388174, 0.0, 0.0, 0.0, 0.0, 0.0, 1.7103907471569672E9, 0.0, 2024-03-13 21:32:27.156
89.0, 27.671519772149622, 23.434213122352958, 13.871288935653865, 24.365448211319745, 0.5440000258386135, 0.7680000364780426, 0.4640000220388174, 0.0, 0.0, 0.0, 0.0, 0.0, 1.710390747170452E9, 0.0, 2024-03-13 21:32:27.170
89.0, 10.04537128098309, 14.349996129982173, 13.175667543895543, 12.88021544739604, 0.5440000258386135, 0.7680000364780426, 0.4640000220388174, 0.0, 0.0, 0.0, 0.0, 0.0, 1.710390747170452E9, 0.0, 2024-03-13 21:32:27.170
90.0, 9.039338192902505, 2.861023466102779, -0.8078183904290199, 6.750519420020282, 0.5440000258386135, 0.7680000364780426, 0.4640000220388174, 0.0, 0.0, 0.0, 0.0, 0.0, 1.7103907471860645E9, 0.0, 2024-03-13 21:32:27.186
90.0, 11.795644460245967, 7.883709106594324, 8.164201603271067, 7.902408606372774, 0.5440000258386135, 0.7680000364780426, 0.4640000220388174, 0.0, 0.0, 0.0, 0.0, 0.0, 1.7103907471860645E9, 0.0, 2024-03-13 21:32:27.186
91.0, 1.488480182364583, 1.406202383339405, 4.282185449264944, 9.989272781647742, 0.5440000258386135, 0.7680000364780426, 0.4640000220388174, 0.0, 0.0, 0.0, 0.0, 0.0, 1.7103907471867633E9, 0.0, 2024-03-13 21:32:27.186
91.0, 0.2580530969426036, -5.153582138940692, -8.156721803359687, 2.6665486684069037, 0.5440000258386135, 0.7680000364780426, 0.4640000220388174, 0.0, 0.0, 0.0, 0.0, 0.0, 1.7103907471867633E9, 0.0, 2024-03-13 21:32:27.186
92.0, 6.02871872857213, -4.551458246074617, -6.372789524495602, -1.3501038840040565, 0.5440000258386135, 0.7680000364780426, 0.4640000220388174, 0.0, 0.0, 0.0, 0.0, 0.0, 1.7103907472003949E9, 0.0, 2024-03-13 21:32:27.200
92.0, 5.882862630300224, -3.534205458126962, 1.7427933793514967, 4.379422848112881, 0.5440000258386135, 0.7680000364780426, 0.4640000220388174, 0.0, 0.0, 0.0, 0.0, 0.0, 1.7103907472003949E9, 0.0, 2024-03-13 21:32:27.200
93.0, 0.003739899955689907, -2.647849168628454, 1.129449786618352, 7.0646710162982345, 0.5440000258386135, 0.7680000364780426, 0.4640000220388174, 0.0, 0.0, 0.0, 0.0, 0.0, 1.7103907472162623E9, 0.0, 2024-03-13 21:32:27.216
93.0, 6.107256627641618, -0.6470026923343539, -6.784178519621491, -1.8811696777120233, 0.5440000258386135, 0.7680000364780426, 0.4640000220388174, 0.0, 0.0, 0.0, 0.0, 0.0, 1.7103907472162623E9, 0.0, 2024-03-13 21:32:27.216
94.0, 12.382808753289282, 1.5408387817442417, 4.42804154753685, 2.5992304692044854, 0.5440000258386135, 0.7680000364780426, 0.4640000220388174, 0.0, 0.0, 0.0, 0.0, 0.0, 1.710390747216852E9, 0.0, 2024-03-13 21:32:27.216
94.0, 6.802878019399941, 0.7180607914924622, 3.896975753828883, 5.602370133623481, 0.5440000258386135, 0.7680000364780426, 0.4640000220388174, 0.0, 0.0, 0.0, 0.0, 0.0, 1.710390747216852E9, 0.0, 2024-03-13 21:32:27.216
95.0, 11.713366661220789, -0.2056944975629449, -5.5761908339336514, 0.40764909517019987, 0.5440000258386135, 0.7680000364780426, 0.4640000220388174, 0.0, 0.0, 0.0, 0.0, 0.0, 1.710390747230416E9, 0.0, 2024-03-13 21:32:27.230
95.0, 17.177360496483743, 7.165648315101862, 5.321877636946738, 9.850896483287215, 0.5440000258386135, 0.7680000364780426, 0.4640000220388174, 0.0, 0.0, 0.0, 0.0, 0.0, 1.710390747230416E9, 0.0, 2024-03-13 21:32:27.230
96.0, 13.68803383782506, 6.720600220374763, 13.587056539021432, 13.493559040129185, 0.5440000258386135, 0.7680000364780426, 0.4640000220388174, 0.0, 0.0, 0.0, 0.0, 0.0, 1.710390747246204E9, 0.0, 2024-03-13 21:32:27.246
96.0, 10.748472472652793, 6.488726423121989, 4.936667941510677, 10.542777975089848, 0.5440000258386135, 0.7680000364780426, 0.4640000220388174, 0.0, 0.0, 0.0, 0.0, 0.0, 1.710390747246204E9, 0.0, 2024-03-13 21:32:27.246
97.0, 25.72677179519087, 14.09568293299526, 6.866456318646669, 13.545917639508843, 0.5440000258386135, 0.7680000364780426, 0.4640000220388174, 0.0, 0.0, 0.0, 0.0, 0.0, 1.7103907472468207E9, 0.0, 2024-03-13 21:32:27.246
97.0, 13.448680240660906, 9.787318184040487, 14.028364733792841, 16.0815698094666, 0.5440000258386135, 0.7680000364780426, 0.4640000220388174, 0.0, 0.0, 0.0, 0.0, 0.0, 1.7103907472468207E9, 0.0, 2024-03-13 21:32:27.246
98.0, 6.612143121659756, 8.388595600612462, 5.998799528926611, 8.42225470021367, 0.5440000258386135, 0.7680000364780426, 0.4640000220388174, 0.0, 0.0, 0.0, 0.0, 0.0, 1.7103907472604012E9, 0.0, 2024-03-13 21:32:27.260
98.0, 19.196906472556293, 9.562924186699092, -0.2094343975186348, 6.342870324850082, 0.5440000258386135, 0.7680000364780426, 0.4640000220388174, 0.0, 0.0, 0.0, 0.0, 0.0, 1.7103907472604012E9, 0.0, 2024-03-13 21:32:27.260
99.0, 22.424440134316683, 11.67970756161958, 21.31742974743247, 17.29703729506582, 0.5440000258386135, 0.7680000364780426, 0.4640000220388174, 0.0, 0.0, 0.0, 0.0, 0.0, 1.710390747276405E9, 0.0, 2024-03-13 21:32:27.276
99.0, 6.5410850225016475, 3.6763216564431787, 16.201246608048677, 16.04043090995401, 0.5440000258386135, 0.7680000364780426, 0.4640000220388174, 0.0, 0.0, 0.0, 0.0, 0.0, 1.710390747276405E9, 0.0, 2024-03-13 21:32:27.276
100.0, 10.4492804761976, 6.092297027818859, 0.12715659849345684, 11.64978836197406, 0.5440000258386135, 0.7680000364780426, 0.4640000220388174, 0.0, 0.0, 0.0, 0.0, 0.0, 1.7103907472768812E9, 0.0, 2024-03-13 21:32:27.276
100.0, 11.309457466006279, 4.760892643593252, 17.151181196793914, 13.27664484269917, 0.5440000258386135, 0.7680000364780426, 0.4640000220388174, 0.0, 0.0, 0.0, 0.0, 0.0, 1.7103907472768812E9, 0.0, 2024-03-13 21:32:27.276
0.0, 319.7128275120631, 141.64497092179954, 94.91866087540984, 171.6053094668314, 0.5440000258386135, 0.7680000364780426, 0.4640000220388174, 0.0, 0.0, 0.0, 0.0, 0.0, 1.7103907473075747E9, 0.0, 2024-03-13 21:32:27.307
1.0, 314.4021695749834, 133.31247382052243, 81.58965743333101, 168.08980350848287, 0.5440000258386135, 0.7680000364780426, 0.4640000220388174, 0.0, 0.0, 0.0, 0.0, 0.0, 1.710390747308158E9, 0.0, 2024-03-13 21:32:27.308
1.0, 327.5628775190562, 141.87684471905231, 81.06981133949012, 162.77540567144752, 0.5440000258386135, 0.7680000364780426, 0.4640000220388174, 0.0, 0.0, 0.0, 0.0, 0.0, 1.710390747308158E9, 0.0, 2024-03-13 21:32:27.308
2.0, 323.87159626279026, 136.23707558587193, 87.61463626194745, 164.5219389507547, 0.5440000258386135, 0.7680000364780426, 0.4640000220388174, 0.0, 0.0, 0.0, 0.0, 0.0, 1.7103907473089218E9, 0.0, 2024-03-13 21:32:27.308
2.0, 317.5661249374971, 138.33515946101397, 82.73032691981643, 166.69108092505485, 0.5440000258386135, 0.7680000364780426, 0.4640000220388174, 0.0, 0.0, 0.0, 0.0, 0.0, 1.7103907473089218E9, 0.0, 2024-03-13 21:32:27.308
3.0, 321.040491996333, 139.97697554156184, 81.51111953426152, 164.54063845053315, 0.5440000258386135, 0.7680000364780426, 0.4640000220388174, 0.0, 0.0, 0.0, 0.0, 0.0, 1.7103907473097217E9, 0.0, 2024-03-13 21:32:27.309
3.0, 326.66156162973493, 143.6570370979607, 91.36575591750443, 170.95456687454134, 0.5440000258386135, 0.7680000364780426, 0.4640000220388174, 0.0, 0.0, 0.0, 0.0, 0.0, 1.7103907473097217E9, 0.0, 2024-03-13 21:32:27.309
4.0, 320.95073439739645, 139.08687935210764, 90.58037692680955, 172.05035756155849, 0.5440000258386135, 0.7680000364780426, 0.4640000220388174, 0.0, 0.0, 0.0, 0.0, 0.0, 1.710390747320712E9, 0.0, 2024-03-13 21:32:27.320
4.0, 321.8258709870279, 142.11619831621647, 76.60437079239637, 166.33953032922, 0.5440000258386135, 0.7680000364780426, 0.4640000220388174, 0.0, 0.0, 0.0, 0.0, 0.0, 1.710390747320712E9, 0.0, 2024-03-13 21:32:27.320
5.0, 331.96099986694753, 148.9564753351733, 86.82177747134119, 168.00004590954632, 0.5440000258386135, 0.7680000364780426, 0.4640000220388174, 0.0, 0.0, 0.0, 0.0, 0.0, 1.7103907473357077E9, 0.0, 2024-03-13 21:32:27.335
5.0, 324.8626697510481, 148.54508634004742, 98.37058853451163, 173.55753724370152, 0.5440000258386135, 0.7680000364780426, 0.4640000220388174, 0.0, 0.0, 0.0, 0.0, 0.0, 1.7103907473357077E9, 0.0, 2024-03-13 21:32:27.335
6.0, 311.50000720936805, 139.78624064382166, 77.68520187959075, 159.22998051345348, 0.5440000258386135, 0.7680000364780426, 0.4640000220388174, 0.0, 0.0, 0.0, 0.0, 0.0, 1.710390747351091E9, 0.0, 2024-03-13 21:32:27.351
6.0, 327.61523611843586, 141.7683876203373, 76.27151969633996, 157.35255073569715, 0.5440000258386135, 0.7680000364780426, 0.4640000220388174, 0.0, 0.0, 0.0, 0.0, 0.0, 1.710390747351091E9, 0.0, 2024-03-13 21:32:27.351
7.0, 317.83165783435106, 139.5805461462587, 83.05195831600577, 161.95636758115143, 0.5440000258386135, 0.7680000364780426, 0.4640000220388174, 0.0, 0.0, 0.0, 0.0, 0.0, 1.710390747351795E9, 0.0, 2024-03-13 21:32:27.351
7.0, 314.79111917037517, 136.24081548582762, 75.5197998052463, 162.0723044797778, 0.5440000258386135, 0.7680000364780426, 0.4640000220388174, 0.0, 0.0, 0.0, 0.0, 0.0, 1.710390747351795E9, 0.0, 2024-03-13 21:32:27.351
8.0, 322.487833279185, 144.00484779383987, 73.82562512531877, 159.31225831247866, 0.5440000258386135, 0.7680000364780426, 0.4640000220388174, 0.0, 0.0, 0.0, 0.0, 0.0, 1.7103907473655264E9, 0.0, 2024-03-13 21:32:27.365
8.0, 329.9751129904762, 141.03536722902209, 85.05654469225556, 161.21586738992482, 0.5440000258386135, 0.7680000364780426, 0.4640000220388174, 0.0, 0.0, 0.0, 0.0, 0.0, 1.7103907473655264E9, 0.0, 2024-03-13 21:32:27.365
9.0, 318.49736002646387, 145.33999207802117, 86.51510567497462, 166.70230062492192, 0.5440000258386135, 0.7680000364780426, 0.4640000220388174, 0.0, 0.0, 0.0, 0.0, 0.0, 1.7103907473811035E9, 0.0, 2024-03-13 21:32:27.381
9.0, 316.8218848463148, 135.96780278906226, 75.80777210183442, 163.31769116502255, 0.5440000258386135, 0.7680000364780426, 0.4640000220388174, 0.0, 0.0, 0.0, 0.0, 0.0, 1.7103907473811035E9, 0.0, 2024-03-13 21:32:27.381
10.0, 313.3736970871687, 138.9597227536142, 85.79330498352647, 164.99690624512732, 0.5440000258386135, 0.7680000364780426, 0.4640000220388174, 0.0, 0.0, 0.0, 0.0, 0.0, 1.7103907473818047E9, 0.0, 2024-03-13 21:32:27.381
10.0, 308.76240044180304, 133.22271622158587, 88.45985365193337, 163.7477796599269, 0.5440000258386135, 0.7680000364780426, 0.4640000220388174, 0.0, 0.0, 0.0, 0.0, 0.0, 1.7103907473818047E9, 0.0, 2024-03-13 21:32:27.381
11.0, 310.1461634254083, 135.79576739110053, 79.7421468552202, 162.0349054802209, 0.5440000258386135, 0.7680000364780426, 0.4640000220388174, 0.0, 0.0, 0.0, 0.0, 0.0, 1.710390747395414E9, 0.0, 2024-03-13 21:32:27.395
11.0, 325.32641734555364, 141.78334722016007, 83.519445810467, 162.08726407960057, 0.5440000258386135, 0.7680000364780426, 0.4640000220388174, 0.0, 0.0, 0.0, 0.0, 0.0, 1.710390747395414E9, 0.0, 2024-03-13 21:32:27.395
12.0, 318.8227313226089, 142.8080798080191, 93.5984761910513, 168.13842220790684, 0.5440000258386135, 0.7680000364780426, 0.4640000220388174, 0.0, 0.0, 0.0, 0.0, 0.0, 1.710390747411146E9, 0.0, 2024-03-13 21:32:27.411
12.0, 309.2560672359541, 136.8055403791368, 86.41786827612668, 165.18390124291182, 0.5440000258386135, 0.7680000364780426, 0.4640000220388174, 0.0, 0.0, 0.0, 0.0, 0.0, 1.710390747411146E9, 0.0, 2024-03-13 21:32:27.411
13.0, 317.8279179343954, 137.99856846500188, 76.08826459851116, 161.56367808580399, 0.5440000258386135, 0.7680000364780426, 0.4640000220388174, 0.0, 0.0, 0.0, 0.0, 0.0, 1.7103907474118145E9, 0.0, 2024-03-13 21:32:27.411
13.0, 322.8880025744438, 138.22296246234328, 93.60969589091837, 171.1976603716612, 0.5440000258386135, 0.7680000364780426, 0.4640000220388174, 0.0, 0.0, 0.0, 0.0, 0.0, 1.7103907474118145E9, 0.0, 2024-03-13 21:32:27.411
14.0, 315.42316226288676, 141.35699862521142, 87.49121956340969, 169.75779888872057, 0.5440000258386135, 0.7680000364780426, 0.4640000220388174, 0.0, 0.0, 0.0, 0.0, 0.0, 1.710390747425712E9, 0.0, 2024-03-13 21:32:27.425
14.0, 333.5018386486918, 150.81894551310688, 88.83384364750236, 174.2681182352826, 0.5440000258386135, 0.7680000364780426, 0.4640000220388174, 0.0, 0.0, 0.0, 0.0, 0.0, 1.710390747425712E9, 0.0, 2024-03-13 21:32:27.425
15.0, 329.8965750914067, 151.5145669048652, 90.84964972361922, 170.21780658327043, 0.5440000258386135, 0.7680000364780426, 0.4640000220388174, 0.0, 0.0, 0.0, 0.0, 0.0, 1.7103907474412692E9, 0.0, 2024-03-13 21:32:27.441
15.0, 313.64296988397837, 141.34577892534435, 90.06801063288003, 171.70254686567932, 0.5440000258386135, 0.7680000364780426, 0.4640000220388174, 0.0, 0.0, 0.0, 0.0, 0.0, 1.7103907474412692E9, 0.0, 2024-03-13 21:32:27.441
16.0, 307.0420464621857, 134.0305346120149, 72.19876864459366, 163.99461305700243, 0.5440000258386135, 0.7680000364780426, 0.4640000220388174, 0.0, 0.0, 0.0, 0.0, 0.0, 1.7103907474420276E9, 0.0, 2024-03-13 21:32:27.442
16.0, 317.5997840370983, 136.15853768680245, 71.84347814880311, 163.14565576706082, 0.5440000258386135, 0.7680000364780426, 0.4640000220388174, 0.0, 0.0, 0.0, 0.0, 0.0, 1.7103907474420276E9, 0.0, 2024-03-13 21:32:27.442
17.0, 311.61220420803875, 138.0322275646031, 83.37732961215079, 167.76817211229354, 0.5440000258386135, 0.7680000364780426, 0.4640000220388174, 0.0, 0.0, 0.0, 0.0, 0.0, 1.710390747455686E9, 0.0, 2024-03-13 21:32:27.455
17.0, 304.6223311908543, 133.79866081476212, 77.40096948295832, 163.05215826816857, 0.5440000258386135, 0.7680000364780426, 0.4640000220388174, 0.0, 0.0, 0.0, 0.0, 0.0, 1.710390747455686E9, 0.0, 2024-03-13 21:32:27.455
18.0, 316.3768367515877, 135.45543649513274, 67.7370679974556, 163.1157365674153, 0.5440000258386135, 0.7680000364780426, 0.4640000220388174, 0.0, 0.0, 0.0, 0.0, 0.0, 1.710390747471378E9, 0.0, 2024-03-13 21:32:27.471
18.0, 315.2623465647921, 137.695636568591, 80.81175824254751, 159.73486700747162, 0.5440000258386135, 0.7680000364780426, 0.4640000220388174, 0.0, 0.0, 0.0, 0.0, 0.0, 1.710390747471378E9, 0.0, 2024-03-13 21:32:27.471
19.0, 306.4698417689651, 137.19822987448424, 85.2996381893754, 167.786871612072, 0.5440000258386135, 0.7680000364780426, 0.4640000220388174, 0.0, 0.0, 0.0, 0.0, 0.0, 1.710390747472052E9, 0.0, 2024-03-13 21:32:27.472
19.0, 315.0678717670962, 139.43095014803112, 76.6679490916431, 164.51445915084332, 0.5440000258386135, 0.7680000364780426, 0.4640000220388174, 0.0, 0.0, 0.0, 0.0, 0.0, 1.710390747472052E9, 0.0, 2024-03-13 21:32:27.472
20.0, 324.39518225658685, 142.05635991692543, 85.9279413819313, 166.3432702291757, 0.5440000258386135, 0.7680000364780426, 0.4640000220388174, 0.0, 0.0, 0.0, 0.0, 0.0, 1.710390747485549E9, 0.0, 2024-03-13 21:32:27.485
20.0, 311.69074210710824, 142.20595591515303, 90.05679093301296, 170.5656172791496, 0.5440000258386135, 0.7680000364780426, 0.4640000220388174, 0.0, 0.0, 0.0, 0.0, 0.0, 1.710390747485549E9, 0.0, 2024-03-13 21:32:27.485
21.0, 309.86941082868725, 136.86163887847215, 85.5988301858306, 167.36052301712334, 0.5440000258386135, 0.7680000364780426, 0.4640000220388174, 0.0, 0.0, 0.0, 0.0, 0.0, 1.7103907475014126E9, 0.0, 2024-03-13 21:32:27.501
21.0, 320.7525196997449, 138.86622525472194, 82.83878401853144, 164.83983044698834, 0.5440000258386135, 0.7680000364780426, 0.4640000220388174, 0.0, 0.0, 0.0, 0.0, 0.0, 1.7103907475014126E9, 0.0, 2024-03-13 21:32:27.501
22.0, 311.2195147126913, 134.29980740882456, 97.79464394133538, 170.20658688340336, 0.5440000258386135, 0.7680000364780426, 0.4640000220388174, 0.0, 0.0, 0.0, 0.0, 0.0, 1.710390747501904E9, 0.0, 2024-03-13 21:32:27.501
22.0, 306.98220806289464, 138.4772756593302, 88.6730279494077, 168.59095010254532, 0.5440000258386135, 0.7680000364780426, 0.4640000220388174, 0.0, 0.0, 0.0, 0.0, 0.0, 1.710390747501904E9, 0.0, 2024-03-13 21:32:27.501
23.0, 317.0387990437448, 138.60817215777934, 77.7039013793692, 164.38356265239418, 0.5440000258386135, 0.7680000364780426, 0.4640000220388174, 0.0, 0.0, 0.0, 0.0, 0.0, 1.7103907475318573E9, 0.0, 2024-03-13 21:32:27.531
23.0, 314.76867977064103, 133.02824142389, 86.01769898086786, 162.97736026905477, 0.5440000258386135, 0.7680000364780426, 0.4640000220388174, 0.0, 0.0, 0.0, 0.0, 0.0, 1.7103907475318573E9, 0.0, 2024-03-13 21:32:27.531
24.0, 304.6335508907214, 128.23368968069553, 85.54273168649524, 165.87578273471445, 0.5440000258386135, 0.7680000364780426, 0.4640000220388174, 0.0, 0.0, 0.0, 0.0, 0.0, 1.7103907475327845E9, 0.0, 2024-03-13 21:32:27.532
24.0, 312.9585681920871, 132.15684473421425, 77.54308568127453, 163.79265845939517, 0.5440000258386135, 0.7680000364780426, 0.4640000220388174, 0.0, 0.0, 0.0, 0.0, 0.0, 1.7103907475327845E9, 0.0, 2024-03-13 21:32:27.532
25.0, 329.2383526992053, 145.65414367429912, 85.93542118184268, 173.06761034950614, 0.5440000258386135, 0.7680000364780426, 0.4640000220388174, 0.0, 0.0, 0.0, 0.0, 0.0, 1.7103907475333111E9, 0.0, 2024-03-13 21:32:27.533
25.0, 309.57769863214344, 137.78539416752756, 87.53609836287796, 175.36390892229974, 0.5440000258386135, 0.7680000364780426, 0.4640000220388174, 0.0, 0.0, 0.0, 0.0, 0.0, 1.7103907475333111E9, 0.0, 2024-03-13 21:32:27.533
26.0, 306.555859467946, 137.57221987005323, 74.55864551663399, 171.83718326408416, 0.5440000258386135, 0.7680000364780426, 0.4640000220388174, 0.0, 0.0, 0.0, 0.0, 0.0, 1.7103907475454006E9, 0.0, 2024-03-13 21:32:27.545
26.0, 325.0421849489212, 146.4432625649497, 82.21048082597554, 170.8573294756934, 0.5440000258386135, 0.7680000364780426, 0.4640000220388174, 0.0, 0.0, 0.0, 0.0, 0.0, 1.7103907475454006E9, 0.0, 2024-03-13 21:32:27.545
27.0, 314.1815154775977, 143.87021139543504, 82.74902641959488, 169.6343821901828, 0.5440000258386135, 0.7680000364780426, 0.4640000220388174, 0.0, 0.0, 0.0, 0.0, 0.0, 1.7103907475611296E9, 0.0, 2024-03-13 21:32:27.561
27.0, 309.5141203328967, 132.1755442339927, 74.3305116193369, 162.4836934749037, 0.5440000258386135, 0.7680000364780426, 0.4640000220388174, 0.0, 0.0, 0.0, 0.0, 0.0, 1.7103907475611296E9, 0.0, 2024-03-13 21:32:27.561
28.0, 322.06148468423635, 135.94536338932812, 73.37309723068029, 163.57200436200947, 0.5440000258386135, 0.7680000364780426, 0.4640000220388174, 0.0, 0.0, 0.0, 0.0, 0.0, 1.7103907475618496E9, 0.0, 2024-03-13 21:32:27.561
28.0, 333.0493107540533, 146.9556288588792, 91.37323571741581, 175.4200074216351, 0.5440000258386135, 0.7680000364780426, 0.4640000220388174, 0.0, 0.0, 0.0, 0.0, 0.0, 1.7103907475618496E9, 0.0, 2024-03-13 21:32:27.561
29.0, 324.76917225215584, 149.9550286233425, 97.76472474168986, 180.94383965618908, 0.5440000258386135, 0.7680000364780426, 0.4640000220388174, 0.0, 0.0, 0.0, 0.0, 0.0, 1.710390747575467E9, 0.0, 2024-03-13 21:32:27.575
29.0, 322.24847968202084, 151.89977660030127, 89.16669474355876, 178.4530662856996, 0.5440000258386135, 0.7680000364780426, 0.4640000220388174, 0.0, 0.0, 0.0, 0.0, 0.0, 1.710390747575467E9, 0.0, 2024-03-13 21:32:27.575
30.0, 323.47516686748713, 140.52300093509257, 90.26248543057591, 172.58142335526645, 0.5440000258386135, 0.7680000364780426, 0.4640000220388174, 0.0, 0.0, 0.0, 0.0, 0.0, 1.710390747591122E9, 0.0, 2024-03-13 21:32:27.591
30.0, 303.5228006038815, 131.10593284666538, 82.76024611946195, 160.02657920401543, 0.5440000258386135, 0.7680000364780426, 0.4640000220388174, 0.0, 0.0, 0.0, 0.0, 0.0, 1.710390747591122E9, 0.0, 2024-03-13 21:32:27.591
31.0, 296.3234931891784, 122.33212755061686, 59.68880329281092, 147.68864925019443, 0.5440000258386135, 0.7680000364780426, 0.4640000220388174, 0.0, 0.0, 0.0, 0.0, 0.0, 1.7103907475918648E9, 0.0, 2024-03-13 21:32:27.591
31.0, 307.3599379584193, 120.9857635665685, 61.334359273314476, 143.08857230469584, 0.5440000258386135, 0.7680000364780426, 0.4640000220388174, 0.0, 0.0, 0.0, 0.0, 0.0, 1.7103907475918648E9, 0.0, 2024-03-13 21:32:27.591
32.0, 307.49083445686847, 120.9446246670559, 74.71198141481727, 150.87130411248654, 0.5440000258386135, 0.7680000364780426, 0.4640000220388174, 0.0, 0.0, 0.0, 0.0, 0.0, 1.710390747621951E9, 0.0, 2024-03-13 21:32:27.621
32.0, 302.1390376202762, 125.05477471835911, 74.42774901818484, 155.0375526631251, 0.5440000258386135, 0.7680000364780426, 0.4640000220388174, 0.0, 0.0, 0.0, 0.0, 0.0, 1.710390747621951E9, 0.0, 2024-03-13 21:32:27.621
33.0, 306.68675596639514, 127.13041919376701, 69.63319727499038, 151.30139260739088, 0.5440000258386135, 0.7680000364780426, 0.4640000220388174, 0.0, 0.0, 0.0, 0.0, 0.0, 1.7103907476225889E9, 0.0, 2024-03-13 21:32:27.622
33.0, 304.39045739360154, 126.6891109989956, 80.63972284458578, 159.7460867073387, 0.5440000258386135, 0.7680000364780426, 0.4640000220388174, 0.0, 0.0, 0.0, 0.0, 0.0, 1.7103907476225889E9, 0.0, 2024-03-13 21:32:27.622
34.0, 298.60857206210494, 125.54844151251018, 80.96135424077511, 158.86347031779587, 0.5440000258386135, 0.7680000364780426, 0.4640000220388174, 0.0, 0.0, 0.0, 0.0, 0.0, 1.7103907476236908E9, 0.0, 2024-03-13 21:32:27.623
34.0, 298.8516655592248, 120.18916487600654, 66.38322421349585, 152.1840089969337, 0.5440000258386135, 0.7680000364780426, 0.4640000220388174, 0.0, 0.0, 0.0, 0.0, 0.0, 1.7103907476236908E9, 0.0, 2024-03-13 21:32:27.623
35.0, 309.6225774316117, 124.65460542310029, 71.74624074995518, 152.1092109978199, 0.5440000258386135, 0.7680000364780426, 0.4640000220388174, 0.0, 0.0, 0.0, 0.0, 0.0, 1.710390747635563E9, 0.0, 2024-03-13 21:32:27.635
35.0, 298.077506268397, 122.17879165243357, 72.4792611412704, 147.50539415236562, 0.5440000258386135, 0.7680000364780426, 0.4640000220388174, 0.0, 0.0, 0.0, 0.0, 0.0, 1.710390747635563E9, 0.0, 2024-03-13 21:32:27.635
36.0, 298.93394335824996, 124.56110792420805, 73.68350892700255, 153.08532488625497, 0.5440000258386135, 0.7680000364780426, 0.4640000220388174, 0.0, 0.0, 0.0, 0.0, 0.0, 1.7103907476514318E9, 0.0, 2024-03-13 21:32:27.651
36.0, 312.5471791969612, 126.24032300431281, 69.98100797086954, 152.17652919702232, 0.5440000258386135, 0.7680000364780426, 0.4640000220388174, 0.0, 0.0, 0.0, 0.0, 0.0, 1.7103907476514318E9, 0.0, 2024-03-13 21:32:27.651
37.0, 301.5219541275874, 123.11750654131174, 73.95652162376791, 151.91847610007972, 0.5440000258386135, 0.7680000364780426, 0.4640000220388174, 0.0, 0.0, 0.0, 0.0, 0.0, 1.7103907476520076E9, 0.0, 2024-03-13 21:32:27.652
37.0, 297.0752130802721, 120.6865715701133, 72.40820304211229, 153.8856634767726, 0.5440000258386135, 0.7680000364780426, 0.4640000220388174, 0.0, 0.0, 0.0, 0.0, 0.0, 1.7103907476520076E9, 0.0, 2024-03-13 21:32:27.652
38.0, 316.5638317493722, 134.12403211090714, 66.35704491380602, 154.89543646480888, 0.5440000258386135, 0.7680000364780426, 0.4640000220388174, 0.0, 0.0, 0.0, 0.0, 0.0, 1.7103907476656177E9, 0.0, 2024-03-13 21:32:27.665
38.0, 314.24509377684444, 129.30704096797854, 71.54802605230361, 148.01776044629514, 0.5440000258386135, 0.7680000364780426, 0.4640000220388174, 0.0, 0.0, 0.0, 0.0, 0.0, 1.7103907476656177E9, 0.0, 2024-03-13 21:32:27.665
39.0, 302.4756286162883, 123.0576681420207, 74.97751431167126, 151.98579429928213, 0.5440000258386135, 0.7680000364780426, 0.4640000220388174, 0.0, 0.0, 0.0, 0.0, 0.0, 1.7103907476814003E9, 0.0, 2024-03-13 21:32:27.681
39.0, 305.9911345746368, 121.07926106546074, 70.53825306426734, 152.94694858789444, 0.5440000258386135, 0.7680000364780426, 0.4640000220388174, 0.0, 0.0, 0.0, 0.0, 0.0, 1.7103907476814003E9, 0.0, 2024-03-13 21:32:27.681
40.0, 312.0796917025, 123.89914563205093, 81.7429933315143, 155.82293165381998, 0.5440000258386135, 0.7680000364780426, 0.4640000220388174, 0.0, 0.0, 0.0, 0.0, 0.0, 1.7103907476820855E9, 0.0, 2024-03-13 21:32:27.682
40.0, 305.2281949836761, 125.16697171702981, 85.25101948995143, 160.90545569360256, 0.5440000258386135, 0.7680000364780426, 0.4640000220388174, 0.0, 0.0, 0.0, 0.0, 0.0, 1.7103907476820855E9, 0.0, 2024-03-13 21:32:27.682
41.0, 301.83610572386533, 129.3593995673582, 78.11903027445078, 161.0438319919631, 0.5440000258386135, 0.7680000364780426, 0.4640000220388174, 0.0, 0.0, 0.0, 0.0, 0.0, 1.7103907476956906E9, 0.0, 2024-03-13 21:32:27.695
41.0, 318.77037272322923, 130.97503634821624, 74.29311261978, 157.28149263653904, 0.5440000258386135, 0.7680000364780426, 0.4640000220388174, 0.0, 0.0, 0.0, 0.0, 0.0, 1.7103907476956906E9, 0.0, 2024-03-13 21:32:27.695
42.0, 314.177775577642, 134.0641937116161, 84.20758740231395, 161.41782198753208, 0.5440000258386135, 0.7680000364780426, 0.4640000220388174, 0.0, 0.0, 0.0, 0.0, 0.0, 1.7103907477110803E9, 0.0, 2024-03-13 21:32:27.711
42.0, 308.83719844091684, 128.42068467848003, 71.49566745292395, 158.21272772550583, 0.5440000258386135, 0.7680000364780426, 0.4640000220388174, 0.0, 0.0, 0.0, 0.0, 0.0, 1.7103907477110803E9, 0.0, 2024-03-13 21:32:27.711
43.0, 309.88437042851, 126.23284320440143, 67.02274710591882, 150.5534126162529, 0.5440000258386135, 0.7680000364780426, 0.4640000220388174, 0.0, 0.0, 0.0, 0.0, 0.0, 1.7103907477118127E9, 0.0, 2024-03-13 21:32:27.711
43.0, 312.0796917025, 131.3265869440511, 79.87678325362504, 155.16096936166286, 0.5440000258386135, 0.7680000364780426, 0.4640000220388174, 0.0, 0.0, 0.0, 0.0, 0.0, 1.7103907477118127E9, 0.0, 2024-03-13 21:32:27.711
44.0, 309.027933338657, 131.34902634378523, 83.93457470554858, 160.34821060020477, 0.5440000258386135, 0.7680000364780426, 0.4640000220388174, 0.0, 0.0, 0.0, 0.0, 0.0, 1.7103907477257352E9, 0.0, 2024-03-13 21:32:27.725
44.0, 309.01297373883426, 126.73024989850819, 66.01297411788255, 152.08677159808576, 0.5440000258386135, 0.7680000364780426, 0.4640000220388174, 0.0, 0.0, 0.0, 0.0, 0.0, 1.7103907477257352E9, 0.0, 2024-03-13 21:32:27.725
45.0, 310.79690601769835, 132.04464773554355, 75.89378980081528, 150.1457635210827, 0.5440000258386135, 0.7680000364780426, 0.4640000220388174, 0.0, 0.0, 0.0, 0.0, 0.0, 1.710390747741081E9, 0.0, 2024-03-13 21:32:27.741
45.0, 306.12951087299734, 129.49403596576303, 80.36671014782041, 156.93368194065988, 0.5440000258386135, 0.7680000364780426, 0.4640000220388174, 0.0, 0.0, 0.0, 0.0, 0.0, 1.710390747741081E9, 0.0, 2024-03-13 21:32:27.741
46.0, 303.3395455060527, 128.81711407378316, 69.06473248172551, 150.82642531301826, 0.5440000258386135, 0.7680000364780426, 0.4640000220388174, 0.0, 0.0, 0.0, 0.0, 0.0, 1.7103907477419455E9, 0.0, 2024-03-13 21:32:27.741
46.0, 322.09514378383756, 134.6962368041277, 70.52329346444458, 156.94864154048264, 0.5440000258386135, 0.7680000364780426, 0.4640000220388174, 0.0, 0.0, 0.0, 0.0, 0.0, 1.7103907477419455E9, 0.0, 2024-03-13 21:32:27.741
47.0, 321.6388759892434, 135.11136569920927, 87.5622776625678, 159.52917250990868, 0.5440000258386135, 0.7680000364780426, 0.4640000220388174, 0.0, 0.0, 0.0, 0.0, 0.0, 1.7103907477558076E9, 0.0, 2024-03-13 21:32:27.755
47.0, 304.86168478801847, 130.4364907545969, 77.19527498539537, 156.94490164052695, 0.5440000258386135, 0.7680000364780426, 0.4640000220388174, 0.0, 0.0, 0.0, 0.0, 0.0, 1.7103907477558076E9, 0.0, 2024-03-13 21:32:27.755
48.0, 314.8546974696219, 129.9091648608446, 68.178376192227, 148.23093474376947, 0.5440000258386135, 0.7680000364780426, 0.4640000220388174, 0.0, 0.0, 0.0, 0.0, 0.0, 1.710390747771094E9, 0.0, 2024-03-13 21:32:27.771
48.0, 314.5293261734769, 133.79492091480643, 79.54767205752432, 154.0689185746014, 0.5440000258386135, 0.7680000364780426, 0.4640000220388174, 0.0, 0.0, 0.0, 0.0, 0.0, 1.710390747771094E9, 0.0, 2024-03-13 21:32:27.771
49.0, 306.8176524648443, 127.77742188610137, 69.95108877122402, 147.90556344762444, 0.5440000258386135, 0.7680000364780426, 0.4640000220388174, 0.0, 0.0, 0.0, 0.0, 0.0, 1.7103907477717957E9, 0.0, 2024-03-13 21:32:27.771
49.0, 313.7850860822946, 131.05357424728572, 67.00404760614038, 146.1852094680071, 0.5440000258386135, 0.7680000364780426, 0.4640000220388174, 0.0, 0.0, 0.0, 0.0, 0.0, 1.7103907477717957E9, 0.0, 2024-03-13 21:32:27.771
50.0, 324.4849398555234, 139.18411675095558, 78.74733346700668, 154.71592126693577, 0.5440000258386135, 0.7680000364780426, 0.4640000220388174, 0.0, 0.0, 0.0, 0.0, 0.0, 1.7103907477854164E9, 0.0, 2024-03-13 21:32:27.785
50.0, 313.86736388131976, 131.1321121463552, 82.3750364240259, 157.02717943955213, 0.5440000258386135, 0.7680000364780426, 0.4640000220388174, 0.0, 0.0, 0.0, 0.0, 0.0, 1.7103907477854164E9, 0.0, 2024-03-13 21:32:27.785
51.0, 309.5253400327638, 130.0213618595153, 72.38202374242246, 154.3681105710566, 0.5440000258386135, 0.7680000364780426, 0.4640000220388174, 0.0, 0.0, 0.0, 0.0, 0.0, 1.7103907478013465E9, 0.0, 2024-03-13 21:32:27.801
51.0, 328.61752930656075, 136.70456308033317, 78.26862627267838, 155.47512095794082, 0.5440000258386135, 0.7680000364780426, 0.4640000220388174, 0.0, 0.0, 0.0, 0.0, 0.0, 1.7103907478013465E9, 0.0, 2024-03-13 21:32:27.801
52.0, 307.8573446525261, 123.5027162367478, 78.39578287117183, 146.52180046401918, 0.5440000258386135, 0.7680000364780426, 0.4640000220388174, 0.0, 0.0, 0.0, 0.0, 0.0, 1.7103907478020737E9, 0.0, 2024-03-13 21:32:27.802
52.0, 302.15773712005466, 122.81083474494517, 74.06123882252723, 151.5183068048209, 0.5440000258386135, 0.7680000364780426, 0.4640000220388174, 0.0, 0.0, 0.0, 0.0, 0.0, 1.7103907478020737E9, 0.0, 2024-03-13 21:32:27.802
53.0, 317.5997840370983, 134.41574430745095, 65.49686792399734, 145.15673698019236, 0.5440000258386135, 0.7680000364780426, 0.4640000220388174, 0.0, 0.0, 0.0, 0.0, 0.0, 1.7103907478154552E9, 0.0, 2024-03-13 21:32:27.815
53.0, 326.87099602725357, 141.8095265198499, 83.94205450545996, 153.39573658257723, 0.5440000258386135, 0.7680000364780426, 0.4640000220388174, 0.0, 0.0, 0.0, 0.0, 0.0, 1.7103907478154552E9, 0.0, 2024-03-13 21:32:27.815
54.0, 318.2168675297871, 141.18870312720537, 88.20180055499077, 159.69372810795903, 0.5440000258386135, 0.7680000364780426, 0.4640000220388174, 0.0, 0.0, 0.0, 0.0, 0.0, 1.7103907478311682E9, 0.0, 2024-03-13 21:32:27.831
54.0, 326.98693292587996, 142.57620601076633, 72.43064244184643, 152.180269096978, 0.5440000258386135, 0.7680000364780426, 0.4640000220388174, 0.0, 0.0, 0.0, 0.0, 0.0, 1.7103907478311682E9, 0.0, 2024-03-13 21:32:27.831
55.0, 334.3732353383675, 148.87045763619244, 80.34053084813058, 162.86890317033976, 0.5440000258386135, 0.7680000364780426, 0.4640000220388174, 0.0, 0.0, 0.0, 0.0, 0.0, 1.7103907478321445E9, 0.0, 2024-03-13 21:32:27.832
55.0, 315.91682905703783, 133.63410521671176, 81.1146901389584, 159.01680621597916, 0.5440000258386135, 0.7680000364780426, 0.4640000220388174, 0.0, 0.0, 0.0, 0.0, 0.0, 1.7103907478321445E9, 0.0, 2024-03-13 21:32:27.832
56.0, 315.31844506412745, 131.1358520463109, 73.9976605232805, 158.4483414227143, 0.5440000258386135, 0.7680000364780426, 0.4640000220388174, 0.0, 0.0, 0.0, 0.0, 0.0, 1.7103907478617828E9, 0.0, 2024-03-13 21:32:27.861
56.0, 330.6782141821459, 138.11450536362827, 75.1121507100761, 154.00534027535468, 0.5440000258386135, 0.7680000364780426, 0.4640000220388174, 0.0, 0.0, 0.0, 0.0, 0.0, 1.7103907478617828E9, 0.0, 2024-03-13 21:32:27.861
57.0, 322.64864897727966, 132.55327412951738, 84.94060779362917, 156.57091164495796, 0.5440000258386135, 0.7680000364780426, 0.4640000220388174, 0.0, 0.0, 0.0, 0.0, 0.0, 1.7103907478624885E9, 0.0, 2024-03-13 21:32:27.862
57.0, 310.8118656175211, 133.18157732207328, 81.49242003448308, 160.7820389950648, 0.5440000258386135, 0.7680000364780426, 0.4640000220388174, 0.0, 0.0, 0.0, 0.0, 0.0, 1.7103907478624885E9, 0.0, 2024-03-13 21:32:27.862
58.0, 319.80632501095533, 134.81965350266546, 68.17463629227132, 155.56113865692168, 0.5440000258386135, 0.7680000364780426, 0.4640000220388174, 0.0, 0.0, 0.0, 0.0, 0.0, 1.7103907478632443E9, 0.0, 2024-03-13 21:32:27.863
58.0, 327.05799102503806, 136.9925353769213, 85.69606758467853, 159.9667408047244, 0.5440000258386135, 0.7680000364780426, 0.4640000220388174, 0.0, 0.0, 0.0, 0.0, 0.0, 1.7103907478632443E9, 0.0, 2024-03-13 21:32:27.863
59.0, 310.57999182026833, 128.2411694806069, 76.75396679062396, 156.0735049508512, 0.5440000258386135, 0.7680000364780426, 0.4640000220388174, 0.0, 0.0, 0.0, 0.0, 0.0, 1.710390747875642E9, 0.0, 2024-03-13 21:32:27.875
59.0, 316.3656170517206, 130.9488570485264, 64.26644083857536, 151.57814520411193, 0.5440000258386135, 0.7680000364780426, 0.4640000220388174, 0.0, 0.0, 0.0, 0.0, 0.0, 1.710390747875642E9, 0.0, 2024-03-13 21:32:27.875
60.0, 330.7043934818357, 138.57451305817813, 81.67941503226757, 159.52917250990868, 0.5440000258386135, 0.7680000364780426, 0.4640000220388174, 0.0, 0.0, 0.0, 0.0, 0.0, 1.7103907478911045E9, 0.0, 2024-03-13 21:32:27.891
60.0, 315.4007228631526, 140.4407231360674, 87.49121956340969, 165.96180043369532, 0.5440000258386135, 0.7680000364780426, 0.4640000220388174, 0.0, 0.0, 0.0, 0.0, 0.0, 1.7103907478911045E9, 0.0, 2024-03-13 21:32:27.891
61.0, 315.0304727675393, 137.39270467218012, 82.04966512788087, 167.59239681437612, 0.5440000258386135, 0.7680000364780426, 0.4640000220388174, 0.0, 0.0, 0.0, 0.0, 0.0, 1.710390747891812E9, 0.0, 2024-03-13 21:32:27.891
61.0, 323.8154977634549, 133.55556731764227, 77.70016147941351, 158.91582891717553, 0.5440000258386135, 0.7680000364780426, 0.4640000220388174, 0.0, 0.0, 0.0, 0.0, 0.0, 1.710390747891812E9, 0.0, 2024-03-13 21:32:27.891
62.0, 308.968094939366, 125.2829086156562, 83.14171591494232, 156.9636011403054, 0.5440000258386135, 0.7680000364780426, 0.4640000220388174, 0.0, 0.0, 0.0, 0.0, 0.0, 1.7103907479056463E9, 0.0, 2024-03-13 21:32:27.905
62.0, 309.2598071359098, 128.79093477409333, 77.04941888712347, 159.72738720756024, 0.5440000258386135, 0.7680000364780426, 0.4640000220388174, 0.0, 0.0, 0.0, 0.0, 0.0, 1.7103907479056463E9, 0.0, 2024-03-13 21:32:27.905
63.0, 318.5160595262423, 131.19195054564625, 70.18670246843249, 153.86322407703847, 0.5440000258386135, 0.7680000364780426, 0.4640000220388174, 0.0, 0.0, 0.0, 0.0, 0.0, 1.710390747921468E9, 0.0, 2024-03-13 21:32:27.921
63.0, 328.57639040704817, 139.90965734235942, 88.38879555277526, 166.6387223256752, 0.5440000258386135, 0.7680000364780426, 0.4640000220388174, 0.0, 0.0, 0.0, 0.0, 0.0, 1.710390747921468E9, 0.0, 2024-03-13 21:32:27.921
64.0, 318.8863096218556, 141.68236992135644, 89.85109643545002, 173.31070384662598, 0.5440000258386135, 0.7680000364780426, 0.4640000220388174, 0.0, 0.0, 0.0, 0.0, 0.0, 1.7103907479221015E9, 0.0, 2024-03-13 21:32:27.922
64.0, 324.526078755036, 141.12886472791433, 73.39927653037012, 159.06168501544744, 0.5440000258386135, 0.7680000364780426, 0.4640000220388174, 0.0, 0.0, 0.0, 0.0, 0.0, 1.7103907479221015E9, 0.0, 2024-03-13 21:32:27.922
65.0, 329.9003149913624, 141.94416291825473, 76.7053480912, 159.15892241429538, 0.5440000258386135, 0.7680000364780426, 0.4640000220388174, 0.0, 0.0, 0.0, 0.0, 0.0, 1.7103907479355211E9, 0.0, 2024-03-13 21:32:27.935
65.0, 319.35753701627254, 140.4706423357129, 84.61897639743984, 164.02453225664794, 0.5440000258386135, 0.7680000364780426, 0.4640000220388174, 0.0, 0.0, 0.0, 0.0, 0.0, 1.7103907479355211E9, 0.0, 2024-03-13 21:32:27.935
66.0, 321.848310386762, 136.82797977887094, 74.02009992301464, 165.79350493568927, 0.5440000258386135, 0.7680000364780426, 0.4640000220388174, 0.0, 0.0, 0.0, 0.0, 0.0, 1.7103907479511E9, 0.0, 2024-03-13 21:32:27.951
66.0, 335.1249552294612, 139.11679855175316, 76.47347429394722, 158.69517481978983, 0.5440000258386135, 0.7680000364780426, 0.4640000220388174, 0.0, 0.0, 0.0, 0.0, 0.0, 1.7103907479511E9, 0.0, 2024-03-13 21:32:27.951
67.0, 321.31724459305406, 132.4747362304479, 80.98379364050925, 159.90316250547767, 0.5440000258386135, 0.7680000364780426, 0.4640000220388174, 0.0, 0.0, 0.0, 0.0, 0.0, 1.7103907479518354E9, 0.0, 2024-03-13 21:32:27.951
67.0, 316.05146545544267, 136.90277777798474, 76.99332038778812, 158.3361444240436, 0.5440000258386135, 0.7680000364780426, 0.4640000220388174, 0.0, 0.0, 0.0, 0.0, 0.0, 1.7103907479518354E9, 0.0, 2024-03-13 21:32:27.951
68.0, 325.7789452401921, 136.4352902835235, 74.43522881809622, 159.24120021332055, 0.5440000258386135, 0.7680000364780426, 0.4640000220388174, 0.0, 0.0, 0.0, 0.0, 0.0, 1.7103907479654624E9, 0.0, 2024-03-13 21:32:27.965
68.0, 327.0916501246393, 135.0627469997853, 82.8911426179111, 160.0789378033951, 0.5440000258386135, 0.7680000364780426, 0.4640000220388174, 0.0, 0.0, 0.0, 0.0, 0.0, 1.7103907479654624E9, 0.0, 2024-03-13 21:32:27.965
69.0, 322.921661674045, 137.89385126624256, 85.20988059043884, 164.73137334827334, 0.5440000258386135, 0.7680000364780426, 0.4640000220388174, 0.0, 0.0, 0.0, 0.0, 0.0, 1.7103907479811137E9, 0.0, 2024-03-13 21:32:27.981
69.0, 334.24981863982975, 143.12223140429705, 76.32761819567531, 163.6655018609017, 0.5440000258386135, 0.7680000364780426, 0.4640000220388174, 0.0, 0.0, 0.0, 0.0, 0.0, 1.7103907479811137E9, 0.0, 2024-03-13 21:32:27.981
70.0, 342.5748359411955, 146.8883106596768, 89.12929574400187, 170.39732178114355, 0.5440000258386135, 0.7680000364780426, 0.4800000227987766, 0.0, 0.0, 0.0, 0.0, 0.0, 1.7103907479818108E9, 0.0, 2024-03-13 21:32:27.981
70.0, 326.2314731348306, 146.82099246047437, 93.01131189800799, 176.747671905905, 0.5440000258386135, 0.7680000364780426, 0.4800000227987766, 0.0, 0.0, 0.0, 0.0, 0.0, 1.7103907479818108E9, 0.0, 2024-03-13 21:32:27.981
71.0, 315.7111345594749, 141.2148824268952, 79.10636386275291, 168.04866460897028, 0.5440000258386135, 0.7680000364780426, 0.4800000227987766, 0.0, 0.0, 0.0, 0.0, 0.0, 1.710390747995717E9, 0.0, 2024-03-13 21:32:27.995
71.0, 334.17128074076027, 141.1026854282245, 77.28877248428762, 164.95576734561473, 0.5440000258386135, 0.7680000364780426, 0.4800000227987766, 0.0, 0.0, 0.0, 0.0, 0.0, 1.710390747995717E9, 0.0, 2024-03-13 21:32:27.995
72.0, 323.8154977634549, 140.75487473234534, 87.7455327603966, 169.58202359080315, 0.5440000258386135, 0.7680000364780426, 0.4800000227987766, 0.0, 0.0, 0.0, 0.0, 0.0, 1.7103907480112233E9, 0.0, 2024-03-13 21:32:28.011
72.0, 317.8129583345726, 138.9896419532597, 82.93602141737938, 165.01186584495008, 0.5440000258386135, 0.7680000364780426, 0.4800000227987766, 0.0, 0.0, 0.0, 0.0, 0.0, 1.7103907480112233E9, 0.0, 2024-03-13 21:32:28.011
73.0, 337.7129659987986, 147.11644455697387, 78.36586367152631, 163.05215826816857, 0.5440000258386135, 0.7680000364780426, 0.4800000227987766, 0.0, 0.0, 0.0, 0.0, 0.0, 1.7103907480118864E9, 0.0, 2024-03-13 21:32:28.011
73.0, 343.5771291293204, 149.90267002396286, 95.48338576871902, 170.79749107640237, 0.5440000258386135, 0.7680000364780426, 0.4800000227987766, 0.0, 0.0, 0.0, 0.0, 0.0, 1.7103907480118864E9, 0.0, 2024-03-13 21:32:28.011
74.0, 328.8868021033704, 147.76718714926392, 93.77799138892442, 174.40649453364313, 0.5440000258386135, 0.7680000364780426, 0.4800000227987766, 0.0, 0.0, 0.0, 0.0, 0.0, 1.710390748025443E9, 0.0, 2024-03-13 21:32:28.025
74.0, 325.7901649400592, 149.06119253393263, 83.79245850723237, 169.86999588739127, 0.5440000258386135, 0.7680000364780426, 0.4800000227987766, 0.0, 0.0, 0.0, 0.0, 0.0, 1.710390748025443E9, 0.0, 2024-03-13 21:32:28.025
75.0, 336.03749081864953, 150.2168216202408, 91.97909951023757, 171.66888776607811, 0.5440000258386135, 0.7680000364780426, 0.4800000227987766, 0.0, 0.0, 0.0, 0.0, 0.0, 1.7103907480411367E9, 0.0, 2024-03-13 21:32:28.041
75.0, 319.86990331020206, 141.08398592844605, 87.12470936775208, 166.40684852842242, 0.5440000258386135, 0.7680000364780426, 0.4800000227987766, 0.0, 0.0, 0.0, 0.0, 0.0, 1.7103907480411367E9, 0.0, 2024-03-13 21:32:28.041
76.0, 310.9539818158373, 123.93280473165214, 70.58313186373562, 152.27002669591457, 0.5440000258386135, 0.7680000364780426, 0.4800000227987766, 0.0, 0.0, 0.0, 0.0, 0.0, 1.7103907480418544E9, 0.0, 2024-03-13 21:32:28.041
76.0, 326.2651322344318, 140.05177354067564, 76.84372438956052, 158.7026546197012, 0.5440000258386135, 0.7680000364780426, 0.4800000227987766, 0.0, 0.0, 0.0, 0.0, 0.0, 1.7103907480418544E9, 0.0, 2024-03-13 21:32:28.041
77.0, 322.4466943796724, 144.04972659330815, 94.1557212844491, 171.13408207241446, 0.5440000258386135, 0.7680000364780426, 0.4800000227987766, 0.0, 0.0, 0.0, 0.0, 0.0, 1.7103907480559409E9, 0.0, 2024-03-13 21:32:28.055
77.0, 321.0741510959342, 141.88806441891938, 94.11084248498082, 178.61014208383858, 0.5440000258386135, 0.7680000364780426, 0.4800000227987766, 0.0, 0.0, 0.0, 0.0, 0.0, 1.7103907480559409E9, 0.0, 2024-03-13 21:32:28.055
78.0, 333.3335431506857, 150.71422831434757, 88.82636384759098, 178.63258148357272, 0.5440000258386135, 0.7680000364780426, 0.4800000227987766, 0.0, 0.0, 0.0, 0.0, 0.0, 1.7103907480713737E9, 0.0, 2024-03-13 21:32:28.071
78.0, 333.8945281440392, 151.23033450823277, 100.96607910376042, 177.35727559868246, 0.5440000258386135, 0.7680000364780426, 0.4800000227987766, 0.0, 0.0, 0.0, 0.0, 0.0, 1.7103907480713737E9, 0.0, 2024-03-13 21:32:28.071
79.0, 317.76059973519295, 140.04429374076426, 92.18479400780052, 171.38091546949, 0.5440000258386135, 0.7680000364780426, 0.4800000227987766, 0.0, 0.0, 0.0, 0.0, 0.0, 1.7103907480718293E9, 0.0, 2024-03-13 21:32:28.071
79.0, 331.95725996699184, 139.44216984789819, 81.87762972991914, 165.71870693657547, 0.5440000258386135, 0.7680000364780426, 0.4800000227987766, 0.0, 0.0, 0.0, 0.0, 0.0, 1.7103907480718293E9, 0.0, 2024-03-13 21:32:28.071
80.0, 327.8508498156443, 144.5845322869718, 87.3378836652264, 167.0052325213328, 0.5440000258386135, 0.7680000364780426, 0.4800000227987766, 0.0, 0.0, 0.0, 0.0, 0.0, 1.710390748085504E9, 0.0, 2024-03-13 21:32:28.085
80.0, 319.6043704133481, 143.82907249592245, 95.91347426362336, 174.6757673304528, 0.5440000258386135, 0.7680000364780426, 0.4800000227987766, 0.0, 0.0, 0.0, 0.0, 0.0, 1.710390748085504E9, 0.0, 2024-03-13 21:32:28.085
81.0, 325.03096524905413, 144.31525949016213, 82.41243542358279, 173.23590584751219, 0.5440000258386135, 0.7680000364780426, 0.4800000227987766, 0.0, 0.0, 0.0, 0.0, 0.0, 1.7103907481013227E9, 0.0, 2024-03-13 21:32:28.101
81.0, 344.7626774152741, 151.06203901022673, 89.88101563509554, 172.1513348603621, 0.5440000258386135, 0.7680000364780426, 0.4800000227987766, 0.0, 0.0, 0.0, 0.0, 0.0, 1.7103907481013227E9, 0.0, 2024-03-13 21:32:28.101
82.0, 331.5608305716887, 153.39573658257723, 100.25175821222365, 181.40384735073894, 0.5440000258386135, 0.7680000364780426, 0.4800000227987766, 0.0, 0.0, 0.0, 0.0, 0.0, 1.7103907481021032E9, 0.0, 2024-03-13 21:32:28.102
82.0, 323.40036886837333, 145.07819908112288, 89.94833383429796, 173.68469384219497, 0.5440000258386135, 0.7680000364780426, 0.4800000227987766, 0.0, 0.0, 0.0, 0.0, 0.0, 1.7103907481021032E9, 0.0, 2024-03-13 21:32:28.102
83.0, 340.3196762679145, 152.52807979285717, 82.1880414262414, 174.87024212814867, 0.5440000258386135, 0.7680000364780426, 0.4800000227987766, 0.0, 0.0, 0.0, 0.0, 0.0, 1.7103907481157472E9, 0.0, 2024-03-13 21:32:28.115
83.0, 350.6567597454414, 161.29814518895, 102.20024608913809, 183.0531432311982, 0.5440000258386135, 0.7680000364780426, 0.4800000227987766, 0.0, 0.0, 0.0, 0.0, 0.0, 1.7103907481157472E9, 0.0, 2024-03-13 21:32:28.115
84.0, 322.5140125788748, 142.69214290939271, 100.77534420602024, 174.14096163678914, 0.5440000258386135, 0.7680000364780426, 0.4800000227987766, 0.0, 0.0, 0.0, 0.0, 0.0, 1.7103907481311572E9, 0.0, 2024-03-13 21:32:28.131
84.0, 331.0110652782023, 149.9961675228551, 92.2296728072688, 174.03998433798552, 0.5440000258386135, 0.7680000364780426, 0.4800000227987766, 0.0, 0.0, 0.0, 0.0, 0.0, 1.7103907481311572E9, 0.0, 2024-03-13 21:32:28.131
85.0, 341.3780679553747, 151.75766040198505, 93.09732959698886, 166.68360112514347, 0.5440000258386135, 0.7680000364780426, 0.4800000227987766, 0.0, 0.0, 0.0, 0.0, 0.0, 1.7103907481319077E9, 0.0, 2024-03-13 21:32:28.131
85.0, 325.9696801379323, 144.79396668449044, 96.4557597571984, 167.5250786151737, 0.5440000258386135, 0.7680000364780426, 0.4800000227987766, 0.0, 0.0, 0.0, 0.0, 0.0, 1.7103907481319077E9, 0.0, 2024-03-13 21:32:28.131
86.0, 327.3796224212274, 142.87539800722152, 84.59279709775001, 165.95806053373963, 0.5440000258386135, 0.7680000364780426, 0.4800000227987766, 0.0, 0.0, 0.0, 0.0, 0.0, 1.7103907481456892E9, 0.0, 2024-03-13 21:32:28.145
86.0, 335.98887211922556, 144.02354729361832, 87.81659085955471, 165.24373964220285, 0.5440000258386135, 0.7680000364780426, 0.4800000227987766, 0.0, 0.0, 0.0, 0.0, 0.0, 1.7103907481456892E9, 0.0, 2024-03-13 21:32:28.145
87.0, 325.0833238484338, 143.27556730248034, 93.9724661866203, 169.43242759257555, 0.5440000258386135, 0.7680000364780426, 0.4800000227987766, 0.0, 0.0, 0.0, 0.0, 0.0, 1.7103907481777737E9, 0.0, 2024-03-13 21:32:28.177
87.0, 320.1167367072776, 141.60009212233126, 85.98029998131096, 168.6694880016148, 0.5440000258386135, 0.7680000364780426, 0.4800000227987766, 0.0, 0.0, 0.0, 0.0, 0.0, 1.7103907481777737E9, 0.0, 2024-03-13 21:32:28.177
88.0, 330.5211383840069, 148.30947264283895, 80.49760664626956, 165.47935333941132, 0.5440000258386135, 0.7680000364780426, 0.4800000227987766, 0.0, 0.0, 0.0, 0.0, 0.0, 1.7103907481783595E9, 0.0, 2024-03-13 21:32:28.178
88.0, 332.62670205906034, 152.93198898807168, 95.28143117111176, 170.03829138539732, 0.5440000258386135, 0.7680000364780426, 0.4800000227987766, 0.0, 0.0, 0.0, 0.0, 0.0, 1.7103907481783595E9, 0.0, 2024-03-13 21:32:28.178
89.0, 320.79365859925747, 143.38776430115104, 91.10770282056183, 168.83030369970948, 0.5440000258386135, 0.7680000364780426, 0.4800000227987766, 0.0, 0.0, 0.0, 0.0, 0.0, 1.7103907481790075E9, 0.0, 2024-03-13 21:32:28.179
89.0, 323.5948436660692, 143.6944360975176, 75.89378980081528, 161.38042298797518, 0.5440000258386135, 0.7680000364780426, 0.4800000227987766, 0.0, 0.0, 0.0, 0.0, 0.0, 1.7103907481790075E9, 0.0, 2024-03-13 21:32:28.179
90.0, 329.9676331905648, 148.4366292413324, 84.73117339611053, 163.98713325709105, 0.5440000258386135, 0.7680000364780426, 0.4800000227987766, 0.0, 0.0, 0.0, 0.0, 0.0, 1.7103907481796966E9, 0.0, 2024-03-13 21:32:28.179
90.0, 323.27695216983557, 146.60407826304436, 91.04786442127079, 169.63064229022712, 0.5440000258386135, 0.7680000364780426, 0.4800000227987766, 0.0, 0.0, 0.0, 0.0, 0.0, 1.7103907481796966E9, 0.0, 2024-03-13 21:32:28.179
91.0, 317.79799873474985, 139.23647535033524, 74.9251557122916, 161.72075388394296, 0.5440000258386135, 0.7680000364780426, 0.4800000227987766, 0.0, 0.0, 0.0, 0.0, 0.0, 1.710390748190503E9, 0.0, 2024-03-13 21:32:28.190
91.0, 335.85049582086504, 149.01257383450866, 82.04592522792518, 167.24832601845264, 0.5440000258386135, 0.7680000364780426, 0.4800000227987766, 0.0, 0.0, 0.0, 0.0, 0.0, 1.710390748190503E9, 0.0, 2024-03-13 21:32:28.190
92.0, 332.05823726579547, 147.07530565746129, 95.47590596880764, 170.16918788384646, 0.5440000258386135, 0.7680000364780426, 0.4800000227987766, 0.0, 0.0, 0.0, 0.0, 0.0, 1.710390748205809E9, 0.0, 2024-03-13 21:32:28.205
92.0, 325.1581218475476, 146.12537106871605, 93.20578669570386, 171.88954186346382, 0.5440000258386135, 0.7680000364780426, 0.4800000227987766, 0.0, 0.0, 0.0, 0.0, 0.0, 1.710390748205809E9, 0.0, 2024-03-13 21:32:28.205
93.0, 334.6462480351329, 143.78045379649848, 78.71741426736116, 160.57260459754616, 0.5440000258386135, 0.7680000364780426, 0.4800000227987766, 0.0, 0.0, 0.0, 0.0, 0.0, 1.7103907482215998E9, 0.0, 2024-03-13 21:32:28.221
93.0, 331.7029467700049, 142.11619831621647, 92.76073860097677, 162.52857227437198, 0.5440000258386135, 0.7680000364780426, 0.4800000227987766, 0.0, 0.0, 0.0, 0.0, 0.0, 1.7103907482215998E9, 0.0, 2024-03-13 21:32:28.221
94.0, 323.76687906403095, 140.3958443365991, 97.10650234948844, 169.91113478690386, 0.5440000258386135, 0.7680000364780426, 0.4800000227987766, 0.0, 0.0, 0.0, 0.0, 0.0, 1.7103907482220838E9, 0.0, 2024-03-13 21:32:28.222
94.0, 329.5712037952617, 142.38921101298183, 87.32292406540364, 173.4528200449422, 0.5440000258386135, 0.7680000364780426, 0.4800000227987766, 0.0, 0.0, 0.0, 0.0, 0.0, 1.7103907482220838E9, 0.0, 2024-03-13 21:32:28.222
95.0, 333.8646089443937, 148.86297783628106, 94.68678707815707, 172.2261328594759, 0.5440000258386135, 0.7680000364780426, 0.4800000227987766, 0.0, 0.0, 0.0, 0.0, 0.0, 1.7103907482356951E9, 0.0, 2024-03-13 21:32:28.235
95.0, 316.87050354573876, 141.9553826181218, 98.69221993070096, 171.31733717024326, 0.5440000258386135, 0.7680000364780426, 0.4800000227987766, 0.0, 0.0, 0.0, 0.0, 0.0, 1.7103907482356951E9, 0.0, 2024-03-13 21:32:28.235
96.0, 319.57445121370256, 143.4737820001319, 89.20409374311566, 171.40709476917982, 0.5440000258386135, 0.7680000364780426, 0.4800000227987766, 0.0, 0.0, 0.0, 0.0, 0.0, 1.710390748251593E9, 0.0, 2024-03-13 21:32:28.251
96.0, 337.4287336021662, 152.180269096978, 89.26019224245101, 173.02273155003786, 0.5440000258386135, 0.7680000364780426, 0.4800000227987766, 0.0, 0.0, 0.0, 0.0, 0.0, 1.710390748251593E9, 0.0, 2024-03-13 21:32:28.251
97.0, 325.58073054254055, 141.03536722902209, 99.22328572440892, 176.59059610776603, 0.5440000258386135, 0.7680000364780426, 0.4800000227987766, 0.0, 0.0, 0.0, 0.0, 0.0, 1.710390748252079E9, 0.0, 2024-03-13 21:32:28.252
97.0, 323.7556593641639, 146.4432625649497, 93.32920339424163, 174.14844143670052, 0.5440000258386135, 0.7680000364780426, 0.4800000227987766, 0.0, 0.0, 0.0, 0.0, 0.0, 1.710390748252079E9, 0.0, 2024-03-13 21:32:28.252
98.0, 340.9704188602045, 154.9627546640113, 84.7049940964207, 170.70399357751012, 0.5440000258386135, 0.7680000364780426, 0.4800000227987766, 0.0, 0.0, 0.0, 0.0, 0.0, 1.7103907482654357E9, 0.0, 2024-03-13 21:32:28.265
98.0, 339.58291597664356, 152.17278929706663, 95.33378977049142, 169.84381658770144, 0.5440000258386135, 0.7680000364780426, 0.4800000227987766, 0.0, 0.0, 0.0, 0.0, 0.0, 1.7103907482654357E9, 0.0, 2024-03-13 21:32:28.265
99.0, 326.1828544354066, 146.50310096424073, 96.81853005290031, 177.46573269739747, 0.5440000258386135, 0.7680000364780426, 0.4800000227987766, 0.0, 0.0, 0.0, 0.0, 0.0, 1.7103907482811522E9, 0.0, 2024-03-13 21:32:28.281
99.0, 332.10311606526375, 150.3664176184684, 86.94145426992327, 175.61448221933097, 0.5440000258386135, 0.7680000364780426, 0.4800000227987766, 0.0, 0.0, 0.0, 0.0, 0.0, 1.7103907482811522E9, 0.0, 2024-03-13 21:32:28.281
100.0, 345.36106140818447, 154.08761807437986, 93.08984979707748, 178.95047297980636, 0.5440000258386135, 0.7680000364780426, 0.4800000227987766, 0.0, 0.0, 0.0, 0.0, 0.0, 1.710390748281908E9, 0.0, 2024-03-13 21:32:28.281
100.0, 335.47650582529604, 155.90146955288947, 102.828549281694, 184.7959366105497, 0.5440000258386135, 0.7680000364780426, 0.4800000227987766, 0.0, 0.0, 0.0, 0.0, 0.0, 1.710390748281908E9, 0.0, 2024-03-13 21:32:28.281
0.0, 331.48416262259707, 158.15662922617048, 98.00033843889832, 185.71782194962725, 0.5440000258386135, 0.7680000364780426, 0.4800000227987766, 0.0, 0.0, 0.0, 0.0, 0.0, 1.7103907482961648E9, 0.0, 2024-03-13 21:32:28.296
1.0, 347.9322426277213, 163.9646938573569, 99.98622531536967, 184.8426853599958, 0.5440000258386135, 0.7680000364780426, 0.4800000227987766, 0.0, 0.0, 0.0, 0.0, 0.0, 1.7103907482968895E9, 0.0, 2024-03-13 21:32:28.296
1.0, 335.82992637110874, 160.42300859931856, 111.36300098057836, 186.26758724311367, 0.5440000258386135, 0.7680000364780426, 0.4800000227987766, 0.0, 0.0, 0.0, 0.0, 0.0, 1.7103907482968895E9, 0.0, 2024-03-13 21:32:28.296
2.0, 336.2113961665891, 161.01017289236188, 113.0534357605502, 193.0704652625136, 0.5440000258386135, 0.7680000364780426, 0.4800000227987766, 0.0, 0.0, 0.0, 0.0, 0.0, 1.7103907483105035E9, 0.0, 2024-03-13 21:32:28.310
2.0, 348.7325812182389, 164.38356265239418, 97.68992674257606, 183.37290467740968, 0.5440000258386135, 0.7680000364780426, 0.4800000227987766, 0.0, 0.0, 0.0, 0.0, 0.0, 1.7103907483105035E9, 0.0, 2024-03-13 21:32:28.310
3.0, 357.1585758184083, 172.14759496040642, 115.08046153653413, 193.42575575830415, 0.5440000258386135, 0.7680000364780426, 0.4800000227987766, 0.0, 0.0, 0.0, 0.0, 0.0, 1.710390748326151E9, 0.0, 2024-03-13 21:32:28.326
3.0, 344.6336508668028, 171.64270846638829, 114.51573664322495, 197.8500574058853, 0.5440000258386135, 0.7680000364780426, 0.4800000227987766, 0.0, 0.0, 0.0, 0.0, 0.0, 1.710390748326151E9, 0.0, 2024-03-13 21:32:28.326
4.0, 368.72608638135716, 181.4225468505174, 112.93375896196812, 201.45532096317038, 0.5440000258386135, 0.7680000364780426, 0.4800000227987766, 0.0, 0.0, 0.0, 0.0, 0.0, 1.7103907483271263E9, 0.0, 2024-03-13 21:32:28.327
4.0, 361.2911652694456, 180.76058455836028, 116.8681337153539, 199.88082308182493, 0.5440000258386135, 0.7680000364780426, 0.4800000227987766, 0.0, 0.0, 0.0, 0.0, 0.0, 1.7103907483271263E9, 0.0, 2024-03-13 21:32:28.327
5.0, 347.6592299309559, 182.54077693726867, 120.26022297516465, 207.1923274951987, 0.5440000258386135, 0.7680000364780426, 0.4800000227987766, 0.0, 0.0, 0.0, 0.0, 0.0, 1.7103907483404124E9, 0.0, 2024-03-13 21:32:28.340
5.0, 349.3646243107505, 179.96398586779833, 117.60489400662482, 204.35374342883006, 0.5440000258386135, 0.7680000364780426, 0.4800000227987766, 0.0, 0.0, 0.0, 0.0, 0.0, 1.7103907483404124E9, 0.0, 2024-03-13 21:32:28.340
6.0, 359.16316219465807, 179.51519787311554, 109.66134650073946, 198.77007279498503, 0.5440000258386135, 0.7680000364780426, 0.4800000227987766, 0.0, 0.0, 0.0, 0.0, 0.0, 1.71039074835617E9, 0.0, 2024-03-13 21:32:28.356
6.0, 347.9621618273668, 175.1544745247811, 118.71190439350903, 201.42166186356917, 0.5440000258386135, 0.7680000364780426, 0.4800000227987766, 0.0, 0.0, 0.0, 0.0, 0.0, 1.71039074835617E9, 0.0, 2024-03-13 21:32:28.356
7.0, 345.46016875701025, 172.7085799537599, 113.53962275478989, 198.7064944957383, 0.5440000258386135, 0.7680000364780426, 0.4800000227987766, 0.0, 0.0, 0.0, 0.0, 0.0, 1.7103907483568623E9, 0.0, 2024-03-13 21:32:28.356
7.0, 355.4793607383035, 171.13034217245877, 101.85243539325893, 193.30981885967776, 0.5440000258386135, 0.7680000364780426, 0.4800000227987766, 0.0, 0.0, 0.0, 0.0, 0.0, 1.7103907483568623E9, 0.0, 2024-03-13 21:32:28.356
8.0, 348.5530660203658, 167.16978811938316, 109.02556350827217, 191.47352798143402, 0.5440000258386135, 0.7680000364780426, 0.4800000227987766, 0.0, 0.0, 0.0, 0.0, 0.0, 1.7103907483710988E9, 0.0, 2024-03-13 21:32:28.371
8.0, 340.86757161142305, 173.43038064520806, 116.08649462461472, 198.69527479587123, 0.5440000258386135, 0.7680000364780426, 0.4800000227987766, 0.0, 0.0, 0.0, 0.0, 0.0, 1.7103907483710988E9, 0.0, 2024-03-13 21:32:28.371
9.0, 341.04708680929616, 165.6663483371958, 98.52018453273922, 189.45024210540578, 0.5440000258386135, 0.7680000364780426, 0.4800000227987766, 0.0, 0.0, 0.0, 0.0, 0.0, 1.7103907483864293E9, 0.0, 2024-03-13 21:32:28.386
9.0, 339.42023032857105, 160.90171579364687, 100.8239629054442, 187.43443602928892, 0.5440000258386135, 0.7680000364780426, 0.4800000227987766, 0.0, 0.0, 0.0, 0.0, 0.0, 1.7103907483864293E9, 0.0, 2024-03-13 21:32:28.386
10.0, 326.6148128802888, 158.65403592027724, 108.21400521788746, 187.02304703416303, 0.5440000258386135, 0.7680000364780426, 0.4800000227987766, 0.0, 0.0, 0.0, 0.0, 0.0, 1.7103907483871248E9, 0.0, 2024-03-13 21:32:28.387
10.0, 326.4278178825043, 155.3704037591815, 100.4200537102297, 184.9960212581791, 0.5440000258386135, 0.7680000364780426, 0.4800000227987766, 0.0, 0.0, 0.0, 0.0, 0.0, 1.7103907483871248E9, 0.0, 2024-03-13 21:32:28.387
11.0, 339.5511268270202, 155.14226986188442, 94.5633703796193, 175.45927637116984, 0.5440000258386135, 0.7680000364780426, 0.4800000227987766, 0.0, 0.0, 0.0, 0.0, 0.0, 1.710390748400625E9, 0.0, 2024-03-13 21:32:28.400
11.0, 329.82738694222644, 161.16724869050086, 103.33717567566782, 182.56882618693635, 0.5440000258386135, 0.7680000364780426, 0.4800000227987766, 0.0, 0.0, 0.0, 0.0, 0.0, 1.710390748400625E9, 0.0, 2024-03-13 21:32:28.400
12.0, 322.2914885315113, 152.48694089334458, 94.05100408568978, 175.31716017285362, 0.5440000258386135, 0.7680000364780426, 0.4800000227987766, 0.0, 0.0, 0.0, 0.0, 0.0, 1.7103907484164538E9, 0.0, 2024-03-13 21:32:28.416
12.0, 332.2882411130704, 153.736067478545, 81.94120802916586, 171.4351440188475, 0.5440000258386135, 0.7680000364780426, 0.4800000227987766, 0.0, 0.0, 0.0, 0.0, 0.0, 1.7103907484164538E9, 0.0, 2024-03-13 21:32:28.416
13.0, 333.0212615043856, 153.49297398142517, 100.13208141364157, 173.49208899447694, 0.5440000258386135, 0.7680000364780426, 0.4800000227987766, 0.0, 0.0, 0.0, 0.0, 0.0, 1.7103907484170148E9, 0.0, 2024-03-13 21:32:28.417
13.0, 323.5780141162686, 157.1879951376468, 103.83458236977458, 181.7385683967732, 0.5440000258386135, 0.7680000364780426, 0.4800000227987766, 0.0, 0.0, 0.0, 0.0, 0.0, 1.7103907484170148E9, 0.0, 2024-03-13 21:32:28.417
14.0, 329.59551314497367, 158.36232372373343, 88.2990379538387, 177.3217465491034, 0.5440000258386135, 0.7680000364780426, 0.4800000227987766, 0.0, 0.0, 0.0, 0.0, 0.0, 1.7103907484304914E9, 0.0, 2024-03-13 21:32:28.430
14.0, 342.0007612979971, 163.4523275634274, 98.83807602897286, 175.49667537072673, 0.5440000258386135, 0.7680000364780426, 0.4800000227987766, 0.0, 0.0, 0.0, 0.0, 0.0, 1.7103907484304914E9, 0.0, 2024-03-13 21:32:28.430
15.0, 326.85416647745296, 153.70988817885518, 102.49943808559328, 182.1088184923865, 0.5440000258386135, 0.7680000364780426, 0.4800000227987766, 0.0, 0.0, 0.0, 0.0, 0.0, 1.7103907484461615E9, 0.0, 2024-03-13 21:32:28.446
15.0, 322.6093800277449, 153.09654458612204, 94.784024477005, 178.42127713607624, 0.5440000258386135, 0.7680000364780426, 0.4800000227987766, 0.0, 0.0, 0.0, 0.0, 0.0, 1.7103907484461615E9, 0.0, 2024-03-13 21:32:28.446
16.0, 334.801453883294, 156.94116174057126, 86.7058405727148, 170.08130023488775, 0.5440000258386135, 0.7680000364780426, 0.4800000227987766, 0.0, 0.0, 0.0, 0.0, 0.0, 1.710390748446875E9, 0.0, 2024-03-13 21:32:28.446
16.0, 325.85935308923945, 144.67054998595268, 94.70548657793552, 172.7328893034719, 0.5440000258386135, 0.7680000364780426, 0.4800000227987766, 0.0, 0.0, 0.0, 0.0, 0.0, 1.710390748446875E9, 0.0, 2024-03-13 21:32:28.446
17.0, 321.07976094586775, 146.33480546623468, 95.55818376783282, 178.28290083771572, 0.5440000258386135, 0.7680000364780426, 0.4800000227987766, 0.0, 0.0, 0.0, 0.0, 0.0, 1.7103907484604683E9, 0.0, 2024-03-13 21:32:28.460
17.0, 322.6542588272132, 145.61674467474222, 77.84227767772973, 164.5013695009984, 0.5440000258386135, 0.7680000364780426, 0.4800000227987766, 0.0, 0.0, 0.0, 0.0, 0.0, 1.7103907484604683E9, 0.0, 2024-03-13 21:32:28.460
18.0, 320.8404073487036, 141.37943802494556, 84.8919890942052, 161.32619443861768, 0.5440000258386135, 0.7680000364780426, 0.4800000227987766, 0.0, 0.0, 0.0, 0.0, 0.0, 1.710390748476127E9, 0.0, 2024-03-13 21:32:28.476
18.0, 306.0154439243488, 134.1053326111287, 82.58073092158884, 160.52211594814435, 0.5440000258386135, 0.7680000364780426, 0.4800000227987766, 0.0, 0.0, 0.0, 0.0, 0.0, 1.710390748476127E9, 0.0, 2024-03-13 21:32:28.476
19.0, 308.51743699470535, 125.49608291313052, 67.3630780018866, 148.74517098767683, 0.5440000258386135, 0.7680000364780426, 0.4800000227987766, 0.0, 0.0, 0.0, 0.0, 0.0, 1.710390748476859E9, 0.0, 2024-03-13 21:32:28.476
19.0, 309.7254246803932, 123.92158503178507, 68.84033848438412, 141.03723717899993, 0.5440000258386135, 0.7680000364780426, 0.4800000227987766, 0.0, 0.0, 0.0, 0.0, 0.0, 1.710390748476859E9, 0.0, 2024-03-13 21:32:28.476
20.0, 297.06586333038285, 123.85426683258265, 73.80692562554032, 147.30530950473621, 0.5440000258386135, 0.7680000364780426, 0.4800000227987766, 0.0, 0.0, 0.0, 0.0, 0.0, 1.7103907484904456E9, 0.0, 2024-03-13 21:32:28.490
20.0, 299.8184296977706, 128.11775278206915, 72.86821073666215, 153.91745262639597, 0.5440000258386135, 0.7680000364780426, 0.4800000227987766, 0.0, 0.0, 0.0, 0.0, 0.0, 1.7103907484904456E9, 0.0, 2024-03-13 21:32:28.490
21.0, 311.7973292558454, 135.88926488999277, 71.35729115456343, 150.77593666361645, 0.5440000258386135, 0.7680000364780426, 0.4800000227987766, 0.0, 0.0, 0.0, 0.0, 0.0, 1.7103907485063589E9, 0.0, 2024-03-13 21:32:28.506
21.0, 302.07732927100733, 128.8732125731185, 82.07958432752639, 155.95195820229128, 0.5440000258386135, 0.7680000364780426, 0.4800000227987766, 0.0, 0.0, 0.0, 0.0, 0.0, 1.7103907485063589E9, 0.0, 2024-03-13 21:32:28.506
22.0, 303.51345085399225, 130.12981895823032, 77.89463627710938, 156.37082699732855, 0.5440000258386135, 0.7680000364780426, 0.4800000227987766, 0.0, 0.0, 0.0, 0.0, 0.0, 1.7103907485068815E9, 0.0, 2024-03-13 21:32:28.506
22.0, 317.2800225908868, 133.41345111932606, 75.0336128110066, 153.8650940270163, 0.5440000258386135, 0.7680000364780426, 0.4800000227987766, 0.0, 0.0, 0.0, 0.0, 0.0, 1.7103907485068815E9, 0.0, 2024-03-13 21:32:28.506
23.0, 318.30101527879015, 139.43095014803112, 90.36720262933522, 160.00226985430345, 0.5440000258386135, 0.7680000364780426, 0.4800000227987766, 0.0, 0.0, 0.0, 0.0, 0.0, 1.71039074852045E9, 0.0, 2024-03-13 21:32:28.520
23.0, 302.81034966232255, 129.41549806669354, 81.42884173523635, 157.8705268795602, 0.5440000258386135, 0.7680000364780426, 0.4800000227987766, 0.0, 0.0, 0.0, 0.0, 0.0, 1.71039074852045E9, 0.0, 2024-03-13 21:32:28.520
24.0, 302.88140776148066, 131.74171583913267, 69.95482867117971, 156.93929179059342, 0.5440000258386135, 0.7680000364780426, 0.4800000227987766, 0.0, 0.0, 0.0, 0.0, 0.0, 1.7103907485525343E9, 0.0, 2024-03-13 21:32:28.552
24.0, 309.07094218814746, 134.26988820917904, 79.78702565468848, 156.14269310003147, 0.5440000258386135, 0.7680000364780426, 0.4800000227987766, 0.0, 0.0, 0.0, 0.0, 0.0, 1.7103907485525343E9, 0.0, 2024-03-13 21:32:28.552
25.0, 295.83917614491656, 122.9828701429069, 71.56298565212637, 151.87546725058928, 0.5440000258386135, 0.7680000364780426, 0.4800000227987766, 0.0, 0.0, 0.0, 0.0, 0.0, 1.7103907485533078E9, 0.0, 2024-03-13 21:32:28.553
25.0, 301.62854127632454, 127.85595978517085, 71.42460935376585, 150.1625930708833, 0.5440000258386135, 0.7680000364780426, 0.4800000227987766, 0.0, 0.0, 0.0, 0.0, 0.0, 1.7103907485533078E9, 0.0, 2024-03-13 21:32:28.553
26.0, 313.28954933816567, 131.7716350387782, 68.45886868890375, 146.10854151891544, 0.5440000258386135, 0.7680000364780426, 0.4800000227987766, 0.0, 0.0, 0.0, 0.0, 0.0, 1.7103907485541987E9, 0.0, 2024-03-13 21:32:28.554
26.0, 306.2323581217788, 127.73254308663309, 80.3741899477318, 151.20976505847648, 0.5440000258386135, 0.7680000364780426, 0.4800000227987766, 0.0, 0.0, 0.0, 0.0, 0.0, 1.7103907485541987E9, 0.0, 2024-03-13 21:32:28.554
27.0, 300.65990718780085, 128.70491707511246, 76.02094639930874, 154.04834912484512, 0.5440000258386135, 0.7680000364780426, 0.4800000227987766, 0.0, 0.0, 0.0, 0.0, 0.0, 1.7103907485550492E9, 0.0, 2024-03-13 21:32:28.555
27.0, 304.5606228415854, 129.93160426057875, 67.55755279958248, 150.11771427141502, 0.5440000258386135, 0.7680000364780426, 0.4800000227987766, 0.0, 0.0, 0.0, 0.0, 0.0, 1.7103907485550492E9, 0.0, 2024-03-13 21:32:28.555
28.0, 314.25818342668936, 130.7618620507419, 79.8132049543783, 154.47843761974946, 0.5440000258386135, 0.7680000364780426, 0.4800000227987766, 0.0, 0.0, 0.0, 0.0, 0.0, 1.7103907485654378E9, 0.0, 2024-03-13 21:32:28.565
28.0, 303.18807955784723, 130.09241995867342, 80.15727575030178, 155.8734203032218, 0.5440000258386135, 0.7680000364780426, 0.4800000227987766, 0.0, 0.0, 0.0, 0.0, 0.0, 1.7103907485654378E9, 0.0, 2024-03-13 21:32:28.565
29.0, 305.4170599314384, 135.3581990962848, 72.13145044539124, 158.55492857145146, 0.5440000258386135, 0.7680000364780426, 0.4800000227987766, 0.0, 0.0, 0.0, 0.0, 0.0, 1.7103907485804472E9, 0.0, 2024-03-13 21:32:28.580
29.0, 326.9065250768326, 145.4783683763817, 84.11782980337739, 168.00939565943554, 0.5440000258386135, 0.7680000364780426, 0.4800000227987766, 0.0, 0.0, 0.0, 0.0, 0.0, 1.7103907485804472E9, 0.0, 2024-03-13 21:32:28.580
30.0, 314.1235470282845, 140.85959193110466, 91.54153121542186, 170.64602512819692, 0.5440000258386135, 0.7680000364780426, 0.4800000227987766, 0.0, 0.0, 0.0, 0.0, 0.0, 1.7103907485961096E9, 0.0, 2024-03-13 21:32:28.596
30.0, 311.1690260632895, 140.83341263141483, 79.34571745991707, 165.5448015886359, 0.5440000258386135, 0.7680000364780426, 0.4800000227987766, 0.0, 0.0, 0.0, 0.0, 0.0, 1.7103907485961096E9, 0.0, 2024-03-13 21:32:28.596
31.0, 321.5135893407278, 140.70999593287706, 78.24992677289993, 168.3908654549159, 0.5440000258386135, 0.7680000364780426, 0.4800000227987766, 0.0, 0.0, 0.0, 0.0, 0.0, 1.7103907485968497E9, 0.0, 2024-03-13 21:32:28.596
31.0, 315.18193871574476, 140.57535953447223, 90.3372834296897, 167.90093856072053, 0.5440000258386135, 0.7680000364780426, 0.4800000227987766, 0.0, 0.0, 0.0, 0.0, 0.0, 1.7103907485968497E9, 0.0, 2024-03-13 21:32:28.596
32.0, 307.0513962120749, 135.01786820031703, 82.59195062145591, 166.49847607733682, 0.5440000258386135, 0.7680000364780426, 0.4800000227987766, 0.0, 0.0, 0.0, 0.0, 0.0, 1.710390748610779E9, 0.0, 2024-03-13 21:32:28.610
32.0, 320.4701572530903, 140.08543264027685, 68.35789139010012, 157.88922637933865, 0.5440000258386135, 0.7680000364780426, 0.4800000227987766, 0.0, 0.0, 0.0, 0.0, 0.0, 1.710390748610779E9, 0.0, 2024-03-13 21:32:28.610
33.0, 320.9862634469755, 138.67175045702606, 76.34257779549807, 155.06934181274846, 0.5440000258386135, 0.7680000364780426, 0.4800000227987766, 0.0, 0.0, 0.0, 0.0, 0.0, 1.7103907486260498E9, 0.0, 2024-03-13 21:32:28.626
33.0, 306.29593642102554, 135.01412830036134, 74.23327422048897, 158.74192356923595, 0.5440000258386135, 0.7680000364780426, 0.4800000227987766, 0.0, 0.0, 0.0, 0.0, 0.0, 1.7103907486260498E9, 0.0, 2024-03-13 21:32:28.626
34.0, 313.88793333107606, 136.61480548139662, 66.16631001606584, 156.19131179945543, 0.5440000258386135, 0.7680000364780426, 0.4800000227987766, 0.0, 0.0, 0.0, 0.0, 0.0, 1.7103907486412253E9, 0.0, 2024-03-13 21:32:28.641
34.0, 332.8529660063796, 143.56727949902415, 78.01805297564715, 162.66881852271035, 0.5440000258386135, 0.7680000364780426, 0.4800000227987766, 0.0, 0.0, 0.0, 0.0, 0.0, 1.7103907486412253E9, 0.0, 2024-03-13 21:32:28.641
35.0, 320.04006875818595, 137.23188897408545, 84.4469409994781, 164.0974603057839, 0.5440000258386135, 0.7680000364780426, 0.4800000227987766, 0.0, 0.0, 0.0, 0.0, 0.0, 1.7103907486418955E9, 0.0, 2024-03-13 21:32:28.641
35.0, 316.00845660595223, 145.0370601816103, 76.97462088800967, 168.22630985686556, 0.5440000258386135, 0.7680000364780426, 0.4800000227987766, 0.0, 0.0, 0.0, 0.0, 0.0, 1.7103907486418955E9, 0.0, 2024-03-13 21:32:28.641
36.0, 334.38258508825675, 157.01595973968506, 79.64116955641657, 165.51862228894606, 0.5440000258386135, 0.7680000364780426, 0.4800000227987766, 0.0, 0.0, 0.0, 0.0, 0.0, 1.7103907486561675E9, 0.0, 2024-03-13 21:32:28.656
36.0, 318.04296218184754, 142.64726410992444, 90.38590212911367, 169.4006384429522, 0.5440000258386135, 0.7680000364780426, 0.4800000227987766, 0.0, 0.0, 0.0, 0.0, 0.0, 1.7103907486561675E9, 0.0, 2024-03-13 21:32:28.656
37.0, 321.82400103705004, 136.76066157966852, 82.4834935227409, 166.7677488741465, 0.5440000258386135, 0.7680000364780426, 0.4800000227987766, 0.0, 0.0, 0.0, 0.0, 0.0, 1.7103907486569164E9, 0.0, 2024-03-13 21:32:28.656
37.0, 318.07662128144875, 144.5471332874149, 75.95362820010632, 163.71225061034784, 0.5440000258386135, 0.7680000364780426, 0.4800000227987766, 0.0, 0.0, 0.0, 0.0, 0.0, 1.7103907486569164E9, 0.0, 2024-03-13 21:32:28.656
38.0, 315.2380372150801, 139.02330105286092, 76.77266629040241, 156.66253919387236, 0.5440000258386135, 0.7680000364780426, 0.4800000227987766, 0.0, 0.0, 0.0, 0.0, 0.0, 1.710390748670806E9, 0.0, 2024-03-13 21:32:28.670
38.0, 307.9377525015734, 142.9950748058036, 90.47565972805023, 167.81118096178398, 0.5440000258386135, 0.7680000364780426, 0.4800000227987766, 0.0, 0.0, 0.0, 0.0, 0.0, 1.710390748670806E9, 0.0, 2024-03-13 21:32:28.670
39.0, 321.70806413842365, 144.93234298285097, 73.96774132363498, 164.6135664996691, 0.5440000258386135, 0.7680000364780426, 0.4800000227987766, 0.0, 0.0, 0.0, 0.0, 0.0, 1.7103907486861649E9, 0.0, 2024-03-13 21:32:28.686
39.0, 325.70975709101185, 149.16964963264763, 79.02782596368343, 164.6135664996691, 0.5440000258386135, 0.7680000364780426, 0.4800000227987766, 0.0, 0.0, 0.0, 0.0, 0.0, 1.7103907486861649E9, 0.0, 2024-03-13 21:32:28.686
40.0, 318.96671747090295, 145.4447092767805, 89.57808373868465, 164.57242760015652, 0.5440000258386135, 0.7680000364780426, 0.4800000227987766, 0.0, 0.0, 0.0, 0.0, 0.0, 1.7103907486872673E9, 0.0, 2024-03-13 21:32:28.687
40.0, 303.36759475572035, 132.70287012774497, 75.91996910050511, 156.55408209515736, 0.5440000258386135, 0.7680000364780426, 0.4800000227987766, 0.0, 0.0, 0.0, 0.0, 0.0, 1.7103907486872673E9, 0.0, 2024-03-13 21:32:28.687
41.0, 326.59985328046605, 143.81785279605538, 81.16704873833805, 163.9478643075563, 0.5440000258386135, 0.7680000364780426, 0.4800000227987766, 0.0, 0.0, 0.0, 0.0, 0.0, 1.7103907487007284E9, 0.0, 2024-03-13 21:32:28.700
41.0, 325.0253553991206, 146.9556288588792, 96.33608295861632, 172.92362420121208, 0.5440000258386135, 0.7680000364780426, 0.4800000227987766, 0.0, 0.0, 0.0, 0.0, 0.0, 1.7103907487007284E9, 0.0, 2024-03-13 21:32:28.700
42.0, 315.38015341339633, 143.2867870023474, 88.56457085069269, 170.1785376337357, 0.5440000258386135, 0.7680000364780426, 0.4800000227987766, 0.0, 0.0, 0.0, 0.0, 0.0, 1.7103907487163353E9, 0.0, 2024-03-13 21:32:28.716
42.0, 320.89650584803894, 136.5063483826816, 76.41363589465618, 165.49618288921192, 0.5440000258386135, 0.7680000364780426, 0.4800000227987766, 0.0, 0.0, 0.0, 0.0, 0.0, 1.7103907487163353E9, 0.0, 2024-03-13 21:32:28.716
43.0, 323.33118071919307, 141.9142437186092, 85.25475938990712, 161.35985353821889, 0.5440000258386135, 0.7680000364780426, 0.4800000227987766, 0.0, 0.0, 0.0, 0.0, 0.0, 1.71039074871691E9, 0.0, 2024-03-13 21:32:28.716
43.0, 318.26735617918894, 146.95188895892352, 92.06511720921844, 163.70477081043646, 0.5440000258386135, 0.7680000364780426, 0.4800000227987766, 0.0, 0.0, 0.0, 0.0, 0.0, 1.71039074871691E9, 0.0, 2024-03-13 21:32:28.716
44.0, 323.03572862269357, 141.23732182662934, 80.43402834702283, 168.89575194893405, 0.5440000258386135, 0.7680000364780426, 0.4800000227987766, 0.0, 0.0, 0.0, 0.0, 0.0, 1.710390748730494E9, 0.0, 2024-03-13 21:32:28.730
44.0, 329.9994223401882, 148.82931873667985, 86.64974207337946, 166.59197357622907, 0.5440000258386135, 0.7680000364780426, 0.4800000227987766, 0.0, 0.0, 0.0, 0.0, 0.0, 1.710390748730494E9, 0.0, 2024-03-13 21:32:28.730
45.0, 321.22935694409534, 147.98784124664962, 98.05269703827798, 174.59161958144978, 0.5440000258386135, 0.7680000364780426, 0.4800000227987766, 0.0, 0.0, 0.0, 0.0, 0.0, 1.710390748746256E9, 0.0, 2024-03-13 21:32:28.746
45.0, 317.44457818893716, 140.65389743354172, 86.29071167763323, 172.38507860759273, 0.5440000258386135, 0.7680000364780426, 0.4800000227987766, 0.0, 0.0, 0.0, 0.0, 0.0, 1.710390748746256E9, 0.0, 2024-03-13 21:32:28.746
46.0, 328.18557086167857, 139.61046534590423, 79.88052315358073, 164.34055380290374, 0.5440000258386135, 0.7680000364780426, 0.4800000227987766, 0.0, 0.0, 0.0, 0.0, 0.0, 1.7103907487468824E9, 0.0, 2024-03-13 21:32:28.746
46.0, 315.8626005076803, 135.9902421887964, 80.11987675074488, 165.90383198438212, 0.5440000258386135, 0.7680000364780426, 0.4800000227987766, 0.0, 0.0, 0.0, 0.0, 0.0, 1.7103907487468824E9, 0.0, 2024-03-13 21:32:28.746
47.0, 315.5447090114467, 134.61021910514683, 78.41822227090597, 165.8739127847366, 0.5440000258386135, 0.7680000364780426, 0.4800000227987766, 0.0, 0.0, 0.0, 0.0, 0.0, 1.710390748760428E9, 0.0, 2024-03-13 21:32:28.760
47.0, 324.86453970102593, 146.2188685676083, 77.45706798229367, 165.75049608619884, 0.5440000258386135, 0.7680000364780426, 0.4800000227987766, 0.0, 0.0, 0.0, 0.0, 0.0, 1.710390748760428E9, 0.0, 2024-03-13 21:32:28.760
48.0, 321.38269284227863, 141.8132664198056, 87.41642156429589, 165.49244298925623, 0.5440000258386135, 0.7680000364780426, 0.4800000227987766, 0.0, 0.0, 0.0, 0.0, 0.0, 1.7103907487761571E9, 0.0, 2024-03-13 21:32:28.776
48.0, 316.1243935045786, 142.5126277115196, 92.12869550846517, 172.23548260936514, 0.5440000258386135, 0.7680000364780426, 0.4800000227987766, 0.0, 0.0, 0.0, 0.0, 0.0, 1.7103907487761571E9, 0.0, 2024-03-13 21:32:28.776
49.0, 326.93270437652245, 148.24589434359223, 85.90176208224148, 171.18457072181627, 0.5440000258386135, 0.7680000364780426, 0.4800000227987766, 0.0, 0.0, 0.0, 0.0, 0.0, 1.7103907487768629E9, 0.0, 2024-03-13 21:32:28.776
49.0, 335.94212336977944, 157.32263153605163, 93.80417068861425, 176.51766805863008, 0.5440000258386135, 0.7680000364780426, 0.4800000227987766, 0.0, 0.0, 0.0, 0.0, 0.0, 1.7103907487768629E9, 0.0, 2024-03-13 21:32:28.776
50.0, 322.14937233319506, 140.94934953004122, 91.92674091085792, 170.6909039276652, 0.5440000258386135, 0.7680000364780426, 0.4800000227987766, 0.0, 0.0, 0.0, 0.0, 0.0, 1.710390748790464E9, 0.0, 2024-03-13 21:32:28.790
50.0, 313.07637504069135, 138.31645996123552, 85.07150429207832, 164.85665999678895, 0.5440000258386135, 0.7680000364780426, 0.4800000227987766, 0.0, 0.0, 0.0, 0.0, 0.0, 1.710390748790464E9, 0.0, 2024-03-13 21:32:28.790
51.0, 322.29896833142266, 142.61734491027892, 82.99585981667042, 165.88513248460367, 0.5440000258386135, 0.7680000364780426, 0.4800000227987766, 0.0, 0.0, 0.0, 0.0, 0.0, 1.7103907488227675E9, 0.0, 2024-03-13 21:32:28.822
51.0, 312.272296550218, 142.146117515862, 92.21471320744604, 167.32873386749998, 0.5440000258386135, 0.7680000364780426, 0.4800000227987766, 0.0, 0.0, 0.0, 0.0, 0.0, 1.7103907488227675E9, 0.0, 2024-03-13 21:32:28.822
52.0, 313.0090568414889, 137.4749824712053, 82.31519802473485, 165.73927638633177, 0.5440000258386135, 0.7680000364780426, 0.4800000227987766, 0.0, 0.0, 0.0, 0.0, 0.0, 1.7103907488235278E9, 0.0, 2024-03-13 21:32:28.823
52.0, 327.4039317709394, 143.0661329049617, 73.94156202394515, 161.3935126378201, 0.5440000258386135, 0.7680000364780426, 0.4800000227987766, 0.0, 0.0, 0.0, 0.0, 0.0, 1.7103907488235278E9, 0.0, 2024-03-13 21:32:28.823
53.0, 328.67175785591826, 143.08857230469584, 86.01021918095648, 161.99189663073048, 0.5440000258386135, 0.7680000364780426, 0.4800000227987766, 0.0, 0.0, 0.0, 0.0, 0.0, 1.7103907488240948E9, 0.0, 2024-03-13 21:32:28.824
53.0, 317.470757488627, 142.48270851187408, 92.55504410341382, 173.68282389221713, 0.5440000258386135, 0.7680000364780426, 0.4800000227987766, 0.0, 0.0, 0.0, 0.0, 0.0, 1.7103907488240948E9, 0.0, 2024-03-13 21:32:28.824
54.0, 328.11451276252046, 143.27930720243603, 83.94953430537134, 168.51428215345368, 0.5440000258386135, 0.7680000364780426, 0.4800000227987766, 0.0, 0.0, 0.0, 0.0, 0.0, 1.710390748824778E9, 0.0, 2024-03-13 21:32:28.824
54.0, 337.5540202506818, 151.9932740991935, 92.79813760053366, 173.59306629328057, 0.5440000258386135, 0.7680000364780426, 0.4800000227987766, 0.0, 0.0, 0.0, 0.0, 0.0, 1.710390748824778E9, 0.0, 2024-03-13 21:32:28.824
55.0, 323.4732969175093, 150.624470715411, 95.94339346326888, 176.506448358763, 0.5440000258386135, 0.7680000364780426, 0.4800000227987766, 0.0, 0.0, 0.0, 0.0, 0.0, 1.7103907488354485E9, 0.0, 2024-03-13 21:32:28.835
55.0, 318.48801027657464, 144.34517868980765, 91.20868011936545, 176.94401665357873, 0.5440000258386135, 0.7680000364780426, 0.4800000227987766, 0.0, 0.0, 0.0, 0.0, 0.0, 1.7103907488354485E9, 0.0, 2024-03-13 21:32:28.835
56.0, 332.2097032140009, 152.06059229839593, 89.95955353416502, 174.142831586767, 0.5440000258386135, 0.7680000364780426, 0.4800000227987766, 0.0, 0.0, 0.0, 0.0, 0.0, 1.7103907488504548E9, 0.0, 2024-03-13 21:32:28.850
56.0, 334.5209613866173, 156.48863384593278, 104.62744116038084, 182.49402818782255, 0.5440000258386135, 0.7680000364780426, 0.4800000227987766, 0.0, 0.0, 0.0, 0.0, 0.0, 1.7103907488504548E9, 0.0, 2024-03-13 21:32:28.850
57.0, 321.45001104148105, 146.34602516610175, 97.21121954824775, 173.21907629771158, 0.5440000258386135, 0.7680000364780426, 0.4800000227987766, 0.0, 0.0, 0.0, 0.0, 0.0, 1.71039074886587E9, 0.0, 2024-03-13 21:32:28.865
57.0, 335.09316607983783, 150.8526046127081, 86.44404757581651, 173.2452555974014, 0.5440000258386135, 0.7680000364780426, 0.4800000227987766, 0.0, 0.0, 0.0, 0.0, 0.0, 1.71039074886587E9, 0.0, 2024-03-13 21:32:28.865
58.0, 329.60299294488505, 148.4740282408893, 92.74203910119832, 170.94147722469643, 0.5440000258386135, 0.7680000364780426, 0.4800000227987766, 0.0, 0.0, 0.0, 0.0, 0.0, 1.7103907488811536E9, 0.0, 2024-03-13 21:32:28.881
58.0, 320.2906420552172, 148.0289801461622, 97.37577514629811, 176.18855686252937, 0.5440000258386135, 0.7680000364780426, 0.4800000227987766, 0.0, 0.0, 0.0, 0.0, 0.0, 1.7103907488811536E9, 0.0, 2024-03-13 21:32:28.881
59.0, 321.6108267395757, 146.58163886331022, 81.18200833816081, 165.79163498571143, 0.5440000258386135, 0.7680000364780426, 0.4800000227987766, 0.0, 0.0, 0.0, 0.0, 0.0, 1.7103907488818629E9, 0.0, 2024-03-13 21:32:28.881
59.0, 344.09136537322775, 155.3741436591372, 97.18130034860224, 172.49727560626343, 0.5440000258386135, 0.7680000364780426, 0.4800000227987766, 0.0, 0.0, 0.0, 0.0, 0.0, 1.7103907488818629E9, 0.0, 2024-03-13 21:32:28.881
60.0, 317.7923888848163, 142.86043840739876, 99.96378591563553, 173.42851069523022, 0.5440000258386135, 0.7680000364780426, 0.4800000227987766, 0.0, 0.0, 0.0, 0.0, 0.0, 1.7103907488962028E9, 0.0, 2024-03-13 21:32:28.896
60.0, 314.4264789246954, 143.01751420553774, 90.01565203350037, 172.48979580635205, 0.5440000258386135, 0.7680000364780426, 0.4800000227987766, 0.0, 0.0, 0.0, 0.0, 0.0, 1.7103907488962028E9, 0.0, 2024-03-13 21:32:28.896
61.0, 329.9096647412516, 149.30802593100816, 86.94145426992327, 171.6557981162332, 0.5440000258386135, 0.7680000364780426, 0.4800000227987766, 0.0, 0.0, 0.0, 0.0, 0.0, 1.7103907488968952E9, 0.0, 2024-03-13 21:32:28.896
61.0, 327.4039317709394, 149.27062693145126, 96.58665625564754, 175.2872409732081, 0.5440000258386135, 0.7680000364780426, 0.4800000227987766, 0.0, 0.0, 0.0, 0.0, 0.0, 1.7103907488968952E9, 0.0, 2024-03-13 21:32:28.896
62.0, 324.5728275044821, 149.91014982387424, 96.39966125786304, 177.3254864490591, 0.5440000258386135, 0.7680000364780426, 0.4800000227987766, 0.0, 0.0, 0.0, 0.0, 0.0, 1.7103907489104664E9, 0.0, 2024-03-13 21:32:28.910
62.0, 330.1003996389918, 151.18919560872018, 88.73286634869874, 173.18167729815468, 0.5440000258386135, 0.7680000364780426, 0.4800000227987766, 0.0, 0.0, 0.0, 0.0, 0.0, 1.7103907489104664E9, 0.0, 2024-03-13 21:32:28.910
63.0, 336.996775157284, 158.61289702076465, 102.59293558448553, 182.46036908822134, 0.5440000258386135, 0.7680000364780426, 0.4800000227987766, 0.0, 0.0, 0.0, 0.0, 0.0, 1.7103907489263167E9, 0.0, 2024-03-13 21:32:28.926
63.0, 329.5020156460814, 158.69517481978983, 103.2324584769085, 183.56363957514986, 0.5440000258386135, 0.7680000364780426, 0.4800000227987766, 0.0, 0.0, 0.0, 0.0, 0.0, 1.7103907489263167E9, 0.0, 2024-03-13 21:32:28.926
64.0, 335.4447166756727, 150.86008441261947, 90.17646773159504, 175.27976117329672, 0.5440000258386135, 0.7680000364780426, 0.4800000227987766, 0.0, 0.0, 0.0, 0.0, 0.0, 1.7103907489268937E9, 0.0, 2024-03-13 21:32:28.926
64.0, 345.9313961514272, 156.11838375031948, 95.62176206707954, 172.63191200466827, 0.5440000258386135, 0.7680000364780426, 0.4800000227987766, 0.0, 0.0, 0.0, 0.0, 0.0, 1.7103907489268937E9, 0.0, 2024-03-13 21:32:28.926
65.0, 336.08423956809565, 149.09859153348953, 98.15367433708161, 172.52719480590895, 0.5440000258386135, 0.7680000364780426, 0.4800000227987766, 0.0, 0.0, 0.0, 0.0, 0.0, 1.7103907489408352E9, 0.0, 2024-03-13 21:32:28.940
65.0, 318.652565874625, 138.15190436318517, 80.12735655065626, 158.7269639694132, 0.5440000258386135, 0.7680000364780426, 0.4800000227987766, 0.0, 0.0, 0.0, 0.0, 0.0, 1.7103907489408352E9, 0.0, 2024-03-13 21:32:28.940
66.0, 332.41165781160817, 144.37135798949748, 82.6293496210128, 157.8293879800476, 0.5440000258386135, 0.7680000364780426, 0.4800000227987766, 0.0, 0.0, 0.0, 0.0, 0.0, 1.7103907489728556E9, 0.0, 2024-03-13 21:32:28.972
66.0, 323.6902111149393, 139.00460155308247, 82.61065012123436, 155.40967270871624, 0.5440000258386135, 0.7680000364780426, 0.4800000227987766, 0.0, 0.0, 0.0, 0.0, 0.0, 1.7103907489728556E9, 0.0, 2024-03-13 21:32:28.972
67.0, 322.44856432965025, 143.9225699948147, 87.7829317599535, 162.50426292466, 0.5440000258386135, 0.7680000364780426, 0.4800000227987766, 0.0, 0.0, 0.0, 0.0, 0.0, 1.710390748973613E9, 0.0, 2024-03-13 21:32:28.973
67.0, 325.49284289358184, 134.9879490006715, 72.5877182399854, 151.2434241580777, 0.5440000258386135, 0.7680000364780426, 0.4800000227987766, 0.0, 0.0, 0.0, 0.0, 0.0, 1.710390748973613E9, 0.0, 2024-03-13 21:32:28.973
68.0, 318.3458940782584, 132.75896862708032, 77.70016147941351, 150.40942646795884, 0.5440000258386135, 0.7680000364780426, 0.4800000227987766, 0.0, 0.0, 0.0, 0.0, 0.0, 1.7103907489742396E9, 0.0, 2024-03-13 21:32:28.974
68.0, 309.6207074816339, 130.30559425614774, 82.31145812477916, 153.4611848318018, 0.5440000258386135, 0.7680000364780426, 0.4800000227987766, 0.0, 0.0, 0.0, 0.0, 0.0, 1.7103907489742396E9, 0.0, 2024-03-13 21:32:28.974
69.0, 315.60080751078203, 131.85765273775905, 67.55381289962679, 149.7175449761562, 0.5440000258386135, 0.7680000364780426, 0.4800000227987766, 0.0, 0.0, 0.0, 0.0, 0.0, 1.710390748974763E9, 0.0, 2024-03-13 21:32:28.974
69.0, 332.37799871200696, 143.97492859419435, 83.76627920754254, 162.06669462984428, 0.5440000258386135, 0.7680000364780426, 0.4800000227987766, 0.0, 0.0, 0.0, 0.0, 0.0, 1.710390748974763E9, 0.0, 2024-03-13 21:32:28.974
70.0, 323.0993069219403, 142.27701401431113, 84.31604450102895, 160.91854534344748, 0.5440000258386135, 0.7680000364780426, 0.4800000227987766, 0.0, 0.0, 0.0, 0.0, 0.0, 1.710390748985709E9, 0.0, 2024-03-13 21:32:28.985
70.0, 320.85910684848204, 141.37569812498987, 78.28358587250113, 157.6162136825733, 0.5440000258386135, 0.7680000364780426, 0.4800000227987766, 0.0, 0.0, 0.0, 0.0, 0.0, 1.710390748985709E9, 0.0, 2024-03-13 21:32:28.985
71.0, 332.45279671112075, 148.1785761443898, 74.5923046162352, 162.55662152403966, 0.5440000258386135, 0.7680000364780426, 0.4800000227987766, 0.0, 0.0, 0.0, 0.0, 0.0, 1.710390749000424E9, 0.0, 2024-03-13 21:32:29.000
71.0, 330.60902603296563, 147.31465925462544, 90.6738744257018, 166.47977657755837, 0.5440000258386135, 0.7680000364780426, 0.4800000227987766, 0.0, 0.0, 0.0, 0.0, 0.0, 1.710390749000424E9, 0.0, 2024-03-13 21:32:29.000
72.0, 327.41515147080645, 149.57729872781783, 85.58013068605214, 173.08443989930674, 0.5440000258386135, 0.7680000364780426, 0.4800000227987766, 0.0, 0.0, 0.0, 0.0, 0.0, 1.7103907490163405E9, 0.0, 2024-03-13 21:32:29.016
72.0, 338.2907805419527, 147.0005076583475, 81.43258163519204, 171.248149021063, 0.5440000258386135, 0.7680000364780426, 0.4800000227987766, 0.0, 0.0, 0.0, 0.0, 0.0, 1.7103907490163405E9, 0.0, 2024-03-13 21:32:29.016
