%OpenBCI Raw EXG Data
%Number of channels = 4
%Sample Rate = 200 Hz
%Board = OpenBCI_GUI$BoardGanglionBLE
Sample Index, EXG Channel 0, EXG Channel 1, EXG Channel 2, EXG Channel 3, Accel Channel 0, Accel Channel 1, Accel Channel 2, Other, Other, Other, Other, Other, Timestamp, Other, Timestamp (Formatted)
2.0, -7.943547505885363, -0.8115582903847098, 2.7488264674320817, -4.671135044656694, 0.9120000433176756, 0.0, 0.0, 0.0, 0.0, 0.0, 0.0, 0.0, 1.7103943955468783E9, 0.0, 2024-03-13 22:33:15.546
2.0, -12.44638705253601, -8.964540193788707, -6.963693717494607, -5.082524039782584, 0.9120000433176756, 0.0, 0.0, 0.0, 0.0, 0.0, 0.0, 0.0, 1.7103943955468783E9, 0.0, 2024-03-13 22:33:15.546
3.0, -0.29171219654381275, 4.263485949486494, 18.441446681506932, 0.5198460938408971, 0.9120000433176756, 0.0, 0.0, 0.0, 0.0, 0.0, 0.0, 0.0, 1.710394395561561E9, 0.0, 2024-03-13 22:33:15.561
3.0, -29.7546440474689, -14.780084624886513, -33.191612106747925, -24.354228511452675, 0.9120000433176756, 0.0, 0.0, 0.0, 0.0, 0.0, 0.0, 0.0, 1.710394395561561E9, 0.0, 2024-03-13 22:33:15.561
4.0, -16.54905730392784, -4.491619846783578, -27.38728737551719, -7.494759511202574, 0.9120000433176756, 0.0, 0.0, 0.0, 0.0, 0.0, 0.0, 0.0, 1.7103943955621262E9, 0.0, 2024-03-13 22:33:15.562
4.0, -9.480646387673914, -6.615883021615446, 1.9559676768258214, -6.290511725470424, 0.9120000433176756, 0.0, 0.0, 0.0, 0.0, 0.0, 0.0, 0.0, 1.7103943955621262E9, 0.0, 2024-03-13 22:33:15.562
5.0, -24.084955714643, -22.18882643710822, -13.71795303747058, -18.407787581905723, 0.9120000433176756, 0.0, 0.0, 0.0, 0.0, 0.0, 0.0, 0.0, 1.7103943955755928E9, 0.0, 2024-03-13 22:33:15.575
5.0, -26.95345898065716, -25.850188493728638, -48.34194682724774, -29.02536355610937, 0.9120000433176756, 0.0, 0.0, 0.0, 0.0, 0.0, 0.0, 0.0, 1.7103943955755928E9, 0.0, 2024-03-13 22:33:15.575
6.0, -8.934620994143188, -9.173974591307342, -1.4548210827633739, -8.923401294276118, 0.9120000433176756, 0.0, 0.0, 0.0, 0.0, 0.0, 0.0, 0.0, 1.7103943955914085E9, 0.0, 2024-03-13 22:33:15.591
6.0, -23.980238515883684, -13.512258539907634, -4.383162748068571, -14.705286625772715, 0.9120000433176756, 0.0, 0.0, 0.0, 0.0, 0.0, 0.0, 0.0, 1.7103943955914085E9, 0.0, 2024-03-13 22:33:15.591
7.0, -26.362554787658155, -21.137914549559355, -18.91267407592386, -13.31030394230038, 0.9120000433176756, 0.0, 0.0, 0.0, 0.0, 0.0, 0.0, 0.0, 1.7103943955920868E9, 0.0, 2024-03-13 22:33:15.592
7.0, -14.92220082320273, -9.697560585103929, -15.580423215404153, -10.995305869728327, 0.9120000433176756, 0.0, 0.0, 0.0, 0.0, 0.0, 0.0, 0.0, 1.7103943955920868E9, 0.0, 2024-03-13 22:33:15.592
8.0, -9.611542886123061, -1.8063716785982251, 13.179407443851233, -0.8265178902074695, 0.9120000433176756, 0.0, 0.0, 0.0, 0.0, 0.0, 0.0, 0.0, 1.7103943956056392E9, 0.0, 2024-03-13 22:33:15.605
8.0, -20.46099265757948, -11.399215064942837, -18.347949182614684, -8.0781839042902, 0.9120000433176756, 0.0, 0.0, 0.0, 0.0, 0.0, 0.0, 0.0, 1.7103943956056392E9, 0.0, 2024-03-13 22:33:15.605
9.0, -7.221746814437211, -7.6667949091643095, -14.623008826747537, -2.1915813740342855, 0.9120000433176756, 0.0, 0.0, 0.0, 0.0, 0.0, 0.0, 0.0, 1.7103943956213772E9, 0.0, 2024-03-13 22:33:15.621
9.0, -2.3523970721289515, -3.335990760475397, 6.571004222147167, 1.6642554802820086, 0.9120000433176756, 0.0, 0.0, 0.0, 0.0, 0.0, 0.0, 0.0, 1.7103943956213772E9, 0.0, 2024-03-13 22:33:15.621
10.0, -20.91726045217365, -14.664147726260126, -6.170834926888347, -10.669934573583305, 0.9120000433176756, 0.0, 0.4000000189989805, 0.0, 0.0, 0.0, 0.0, 0.0, 1.7103943956220672E9, 0.0, 2024-03-13 22:33:15.622
10.0, -23.71096571907401, -16.732312401756644, -26.56450938526541, -7.008572516962886, 0.9120000433176756, 0.0, 0.4000000189989805, 0.0, 0.0, 0.0, 0.0, 0.0, 1.7103943956220672E9, 0.0, 2024-03-13 22:33:15.622
11.0, -10.396921876817942, -12.801677548326552, 2.094343975186348, -4.693574444390833, 0.9120000433176756, 0.35200001671910286, 0.4000000189989805, 0.0, 0.0, 0.0, 0.0, 0.0, 1.7103943956358068E9, 0.0, 2024-03-13 22:33:15.635
11.0, -19.64943436719477, -10.931727570481598, 3.7959984550252557, -4.110150051303208, 0.9120000433176756, 0.35200001671910286, 0.4000000189989805, 0.0, 0.0, 0.0, 0.0, 0.0, 1.7103943956358068E9, 0.0, 2024-03-13 22:33:15.635
12.0, -19.963585963472724, -4.353243548423052, -26.20173908956349, -2.8722431659698486, 0.9120000433176756, 0.35200001671910286, 0.4000000189989805, 0.0, 0.0, 0.0, 0.0, 0.0, 1.7103943956513636E9, 0.0, 2024-03-13 22:33:15.651
12.0, 1.8811696777120233, 4.712273944169283, -5.6547287330031395, 3.0068795643746853, 0.9120000433176756, 0.35200001671910286, 0.4000000189989805, 0.0, 0.0, 0.0, 0.0, 0.0, 1.7103943956513636E9, 0.0, 2024-03-13 22:33:15.651
13.0, -14.944640222936869, -6.208233926445246, 2.7226471677422523, -5.366756436415017, 0.9120000433176756, 0.35200001671910286, 0.4000000189989805, 0.0, 0.0, 0.0, 0.0, 0.0, 1.710394395652086E9, 0.0, 2024-03-13 22:33:15.652
13.0, -11.215959967114031, 0.12715659849345684, -23.449172722175717, -4.704794144257903, 0.9120000433176756, 0.35200001671910286, 0.4000000189989805, 0.0, 0.0, 0.0, 0.0, 0.0, 1.710394395652086E9, 0.0, 2024-03-13 22:33:15.652
14.0, -11.24213926680386, -0.17951519787311554, -12.192073855549097, -0.34781069587916136, 0.9120000433176756, 0.35200001671910286, 0.4000000189989805, 0.0, 0.0, 0.0, 0.0, 0.0, 1.710394395665615E9, 0.0, 2024-03-13 22:33:15.665
14.0, 10.262285478413105, 13.519738339819014, 20.93969985190779, 9.525525187142193, 0.9120000433176756, 0.35200001671910286, 0.4000000189989805, 0.0, 0.0, 0.0, 0.0, 0.0, 1.710394395665615E9, 0.0, 2024-03-13 22:33:15.665
15.0, -6.283031925559044, 1.372543283738196, -5.991319729015231, -5.026425540447235, 0.9120000433176756, 0.35200001671910286, 0.4000000189989805, 0.0, 0.0, 0.0, 0.0, 0.0, 1.7103943956816993E9, 0.0, 2024-03-13 22:33:15.681
15.0, -9.978053081780672, 3.5977837573736906, -22.753551330417395, 1.8063716785982251, 0.9120000433176756, 0.35200001671910286, 0.4000000189989805, 0.0, 0.0, 0.0, 0.0, 0.0, 1.7103943956816993E9, 0.0, 2024-03-13 22:33:15.681
16.0, 5.430334735661745, 15.449526716955006, 7.113289715722203, 6.698160820640624, 0.9120000433176756, 0.35200001671910286, 0.4000000189989805, 0.0, 0.0, 0.0, 0.0, 0.0, 1.7103943956821487E9, 0.0, 2024-03-13 22:33:15.682
16.0, 0.38520969543606043, 0.5198460938408971, 0.362770295701921, -5.2508195377886295, 0.9120000433176756, 0.35200001671910286, 0.4000000189989805, 0.0, 0.0, 0.0, 0.0, 0.0, 1.7103943956821487E9, 0.0, 2024-03-13 22:33:15.682
17.0, -17.906640987843275, -8.134282403625548, -36.61736046615988, -19.27918427158147, 0.9120000433176756, 0.35200001671910286, 0.4000000189989805, 0.0, 0.0, 0.0, 0.0, 0.0, 1.7103943956957724E9, 0.0, 2024-03-13 22:33:15.695
17.0, -3.8333974545821548, -2.6291496688500047, -9.046817992813885, -2.0719045754522085, 0.9120000433176756, 0.35200001671910286, 0.4000000189989805, 0.0, 0.0, 0.0, 0.0, 0.0, 1.7103943956957724E9, 0.0, 2024-03-13 22:33:15.695
18.0, -0.482447094283998, -2.782485567033291, 6.559784522280097, -7.24044631421566, 0.9120000433176756, 0.35200001671910286, 0.4000000189989805, 0.0, 0.0, 0.0, 0.0, 0.0, 1.7103943957114227E9, 0.0, 2024-03-13 22:33:15.711
18.0, -12.06865715701133, -5.632289333269, -17.6747671905905, -11.365555965341628, 0.9120000433176756, 0.35200001671910286, 0.4000000189989805, 0.0, 0.0, 0.0, 0.0, 0.0, 1.7103943957114227E9, 0.0, 2024-03-13 22:33:15.711
19.0, -7.734113108366728, -3.859576754271984, -29.949118845164776, -12.824116948060691, 0.9120000433176756, 0.35200001671910286, 0.4000000189989805, 0.0, 0.0, 0.0, 0.0, 0.0, 1.7103943957121527E9, 0.0, 2024-03-13 22:33:15.712
19.0, -10.976606369949877, -7.494759511202574, -11.167341267690063, -15.28497111890465, 0.9120000433176756, 0.35200001671910286, 0.4000000189989805, 0.0, 0.0, 0.0, 0.0, 0.0, 1.7103943957121527E9, 0.0, 2024-03-13 22:33:15.712
20.0, -7.300284713506699, -3.4893266586586833, -11.631088862195611, -11.27205846644938, 0.9120000433176756, 0.35200001671910286, 0.3840000182390213, 0.0, 0.0, 0.0, 0.0, 0.0, 1.7103943957262254E9, 0.0, 2024-03-13 22:33:15.726
20.0, -21.68393994309008, -10.168787979520857, -31.86020772252232, -10.266025378368795, 0.9120000433176756, 0.35200001671910286, 0.3840000182390213, 0.0, 0.0, 0.0, 0.0, 0.0, 1.7103943957262254E9, 0.0, 2024-03-13 22:33:15.726
21.0, 0.17203539796173573, 9.446987288072705, 11.919061158783734, 12.955013446509838, 0.9120000433176756, 0.35200001671910286, 0.3840000182390213, 0.0, 0.0, 0.0, 0.0, 0.0, 1.7103943957578304E9, 0.0, 2024-03-13 22:33:15.757
21.0, -8.586810298264027, -5.561231234110892, 9.555444386787713, 1.813851478509605, 0.9120000433176756, 0.35200001671910286, 0.3840000182390213, 0.0, 0.0, 0.0, 0.0, 0.0, 1.7103943957578304E9, 0.0, 2024-03-13 22:33:15.757
22.0, -14.847402824088931, -0.0523585993796587, -18.93885337561369, -2.098083875142038, 0.9120000433176756, 0.35200001671910286, 0.3840000182390213, 0.0, 0.0, 0.0, 0.0, 0.0, 1.7103943957585025E9, 0.0, 2024-03-13 22:33:15.758
22.0, -4.472920347005129, 9.140315491706133, -4.360723348334432, 9.181454391218722, 0.9120000433176756, 0.35200001671910286, 0.3840000182390213, 0.0, 0.0, 0.0, 0.0, 0.0, 1.7103943957585025E9, 0.0, 2024-03-13 22:33:15.758
23.0, -4.065271251834929, 2.5954905692487955, 4.9291881415992975, 0.35529049579054117, 0.9120000433176756, 0.35200001671910286, 0.3840000182390213, 0.0, 0.0, 0.0, 0.0, 0.0, 1.7103943957594523E9, 0.0, 2024-03-13 22:33:15.759
23.0, -16.676213902421296, -9.66390148550272, -29.43301265127957, -9.319830689579248, 0.9120000433176756, 0.35200001671910286, 0.3840000182390213, 0.0, 0.0, 0.0, 0.0, 0.0, 1.7103943957594523E9, 0.0, 2024-03-13 22:33:15.759
24.0, -1.8624701779335737, 0.8639168897643685, -23.69974601920694, -4.506579446606338, 0.9120000433176756, 0.35200001671910286, 0.3840000182390213, 0.0, 0.0, 0.0, 0.0, 0.0, 1.7103943957601292E9, 0.0, 2024-03-13 22:33:15.760
24.0, 16.362062306143343, 2.8385840663686395, 12.214513255283237, 5.434074635617435, 0.9120000433176756, 0.35200001671910286, 0.3840000182390213, 0.0, 0.0, 0.0, 0.0, 0.0, 1.7103943957601292E9, 0.0, 2024-03-13 22:33:15.760
25.0, -8.556891098618507, -8.912181594409049, -1.170588686130941, -4.899268941953778, 0.9120000433176756, 0.35200001671910286, 0.3840000182390213, 0.0, 0.0, 0.0, 0.0, 0.0, 1.7103943957864735E9, 0.0, 2024-03-13 22:33:15.786
25.0, -6.1371758272871375, 5.909041929990053, -23.920400116592646, 0.3141515962779522, 0.9120000433176756, 0.35200001671910286, 0.3840000182390213, 0.0, 0.0, 0.0, 0.0, 0.0, 1.7103943957864735E9, 0.0, 2024-03-13 22:33:15.786
26.0, 9.28617158997804, 9.966833381913602, 5.946440929546952, 7.4237014120444655, 0.9120000433176756, 0.35200001671910286, 0.3840000182390213, 0.0, 0.0, 0.0, 0.0, 0.0, 1.710394395787181E9, 0.0, 2024-03-13 22:33:15.787
26.0, 5.018945740535855, 8.377375900745392, 2.3860561717301607, 4.641215845011175, 0.9120000433176756, 0.35200001671910286, 0.3840000182390213, 0.0, 0.0, 0.0, 0.0, 0.0, 1.710394395787181E9, 0.0, 2024-03-13 22:33:15.787
27.0, -1.5744978813454509, 8.83364369533956, -14.234059231355786, 5.965140429325402, 0.9120000433176756, 0.35200001671910286, 0.3840000182390213, 0.0, 0.0, 0.0, 0.0, 0.0, 1.710394395801424E9, 0.0, 2024-03-13 22:33:15.801
27.0, 8.534451698884368, 14.09568293299526, 1.933528277091682, 11.833043459802866, 0.9120000433176756, 0.35200001671910286, 0.3840000182390213, 0.0, 0.0, 0.0, 0.0, 0.0, 1.710394395801424E9, 0.0, 2024-03-13 22:33:15.801
28.0, -7.9061485063284636, -1.4398614829406142, 15.928233911283314, 4.577637545764446, 0.9120000433176756, 0.35200001671910286, 0.3840000182390213, 0.0, 0.0, 0.0, 0.0, 0.0, 1.7103943958020751E9, 0.0, 2024-03-13 22:33:15.802
28.0, -15.086756421253085, -8.003385905176401, -15.083016521297395, -2.894682565703988, 0.9120000433176756, 0.35200001671910286, 0.3840000182390213, 0.0, 0.0, 0.0, 0.0, 0.0, 1.7103943958020751E9, 0.0, 2024-03-13 22:33:15.802
29.0, 1.3800230836495757, 2.7862254669889808, -9.312350889667869, 9.705040385015309, 0.9120000433176756, 0.35200001671910286, 0.3840000182390213, 0.0, 0.0, 0.0, 0.0, 0.0, 1.7103943958160872E9, 0.0, 2024-03-13 22:33:15.816
29.0, 7.120769515633583, 7.726633308455348, 17.184840296395123, 13.983485934324563, 0.9120000433176756, 0.35200001671910286, 0.3840000182390213, 0.0, 0.0, 0.0, 0.0, 0.0, 1.7103943958160872E9, 0.0, 2024-03-13 22:33:15.816
30.0, -3.1190765630453825, 3.0293189641088247, -3.3546902602538466, 6.83279721904546, 0.9120000433176756, 0.35200001671910286, 0.3840000182390213, 0.0, 0.0, 0.0, 0.0, 0.0, 1.7103943958317716E9, 0.0, 2024-03-13 22:33:15.831
30.0, -3.010619464330375, 8.268918802030385, -13.059730645269156, 12.031258157454431, 0.9120000433176756, 0.35200001671910286, 0.3840000182390213, 0.0, 0.0, 0.0, 0.0, 0.0, 1.7103943958317716E9, 0.0, 2024-03-13 22:33:15.831
31.0, 7.730373208411038, 9.383408988825977, 7.618176209740341, 14.219099631533027, 0.9120000433176756, 0.35200001671910286, 0.3840000182390213, 0.0, 0.0, 0.0, 0.0, 0.0, 1.7103943958320842E9, 0.0, 2024-03-13 22:33:15.832
31.0, -6.799138119444251, 5.684647932648659, 13.815190436318517, 11.743285860866308, 0.9120000433176756, 0.35200001671910286, 0.3840000182390213, 0.0, 0.0, 0.0, 0.0, 0.0, 1.7103943958320842E9, 0.0, 2024-03-13 22:33:15.832
32.0, 1.4024624833837152, 7.25166601408273, 8.710226996801794, 21.28377064783126, 0.9120000433176756, 0.35200001671910286, 0.3840000182390213, 0.0, 0.0, 0.0, 0.0, 0.0, 1.7103943958461976E9, 0.0, 2024-03-13 22:33:15.846
32.0, -6.799138119444251, -1.488480182364583, -3.695021156221628, 12.738099249079823, 0.9120000433176756, 0.35200001671910286, 0.3840000182390213, 0.0, 0.0, 0.0, 0.0, 0.0, 1.7103943958461976E9, 0.0, 2024-03-13 22:33:15.846
33.0, -1.163108886219561, 4.491619846783578, 13.085909944958985, 11.833043459802866, 0.9120000433176756, 0.35200001671910286, 0.3840000182390213, 0.0, 0.0, 0.0, 0.0, 0.0, 1.7103943958614357E9, 0.0, 2024-03-13 22:33:15.861
33.0, -1.365063483826816, 9.768618684262037, -12.45760675240308, 5.067564439959824, 0.9120000433176756, 0.35200001671910286, 0.3840000182390213, 0.0, 0.0, 0.0, 0.0, 0.0, 1.7103943958614357E9, 0.0, 2024-03-13 22:33:15.861
34.0, -5.370496336370707, 3.306071560829878, -24.002677915617824, 1.3127048844471574, 0.9120000433176756, 0.35200001671910286, 0.3840000182390213, 0.0, 0.0, 0.0, 0.0, 0.0, 1.7103943958620787E9, 0.0, 2024-03-13 22:33:15.862
34.0, 16.227425907738507, 17.72338589001447, 13.856329335831106, 20.247818360105157, 0.9120000433176756, 0.35200001671910286, 0.3840000182390213, 0.0, 0.0, 0.0, 0.0, 0.0, 1.7103943958620787E9, 0.0, 2024-03-13 22:33:15.862
35.0, 4.476660246960819, 7.737853008322418, -2.7563062673434615, 8.216560202650726, 0.9120000433176756, 0.35200001671910286, 0.3840000182390213, 0.0, 0.0, 0.0, 0.0, 0.0, 1.7103943958761177E9, 0.0, 2024-03-13 22:33:15.876
35.0, -15.864655612036586, -4.113889951258898, -28.54291646182537, -1.5520584816113114, 0.9120000433176756, 0.35200001671910286, 0.3840000182390213, 0.0, 0.0, 0.0, 0.0, 0.0, 1.7103943958761177E9, 0.0, 2024-03-13 22:33:15.876
36.0, 10.961646770127118, 17.169880696572363, 16.822070000693202, 18.291850683279335, 0.9120000433176756, 0.35200001671910286, 0.3840000182390213, 0.0, 0.0, 0.0, 0.0, 0.0, 1.7103943958914194E9, 0.0, 2024-03-13 22:33:15.891
36.0, 15.935713711194694, 6.327910725027323, 14.45471332874149, 14.705286625772715, 0.9120000433176756, 0.35200001671910286, 0.3840000182390213, 0.0, 0.0, 0.0, 0.0, 0.0, 1.7103943958914194E9, 0.0, 2024-03-13 22:33:15.891
37.0, 2.775005767121911, 11.440353964455426, -12.184594055637717, 10.688634073361754, 0.9120000433176756, 0.35200001671910286, 0.3840000182390213, 0.0, 0.0, 0.0, 0.0, 0.0, 1.7103943958924508E9, 0.0, 2024-03-13 22:33:15.892
37.0, -0.6694420920684934, 11.466533264145255, -1.5931973811239004, 15.034397821873426, 0.9120000433176756, 0.35200001671910286, 0.3840000182390213, 0.0, 0.0, 0.0, 0.0, 0.0, 1.7103943958924508E9, 0.0, 2024-03-13 22:33:15.892
38.0, 0.8115582903847098, 7.027272016741335, 17.839322788640857, 15.920754111371934, 0.9120000433176756, 0.35200001671910286, 0.3840000182390213, 0.0, 0.0, 0.0, 0.0, 0.0, 1.71039439590568E9, 0.0, 2024-03-13 22:33:15.905
38.0, -15.606602515093982, -3.010619464330375, -17.024024598300457, 1.4361215829849243, 0.9120000433176756, 0.35200001671910286, 0.3840000182390213, 0.0, 0.0, 0.0, 0.0, 0.0, 1.71039439590568E9, 0.0, 2024-03-13 22:33:15.905
39.0, -10.4866794757545, 1.3351442841812968, -14.245278931222856, 1.488480182364583, 0.9120000433176756, 0.35200001671910286, 0.3840000182390213, 0.0, 0.0, 0.0, 0.0, 0.0, 1.7103943959213712E9, 0.0, 2024-03-13 22:33:15.921
39.0, -11.384255465120077, -3.4033089596778154, 1.4136821832507849, -1.533358981832862, 0.9120000433176756, 0.35200001671910286, 0.3840000182390213, 0.0, 0.0, 0.0, 0.0, 0.0, 1.7103943959213712E9, 0.0, 2024-03-13 22:33:15.921
40.0, -17.012804898433387, -10.209926879033446, -20.90230085235089, -10.669934573583305, 0.9120000433176756, 0.35200001671910286, 0.3680000174790621, 0.0, 0.0, 0.0, 0.0, 0.0, 1.7103943959220922E9, 0.0, 2024-03-13 22:33:15.922
40.0, -3.4519276591017842, 4.5664178458973765, -21.949472839944065, -0.34407079592347145, 0.9120000433176756, 0.35200001671910286, 0.3680000174790621, 0.0, 0.0, 0.0, 0.0, 0.0, 1.7103943959220922E9, 0.0, 2024-03-13 22:33:15.922
41.0, -0.3253712961450219, 5.785625231452286, -8.497052699327469, 4.899268941953778, 0.9120000433176756, 0.35200001671910286, 0.3680000174790621, 0.0, 0.0, 0.0, 0.0, 0.0, 1.7103943959359138E9, 0.0, 2024-03-13 22:33:15.935
41.0, -8.691527497023344, 1.4136821832507849, -7.027272016741335, -2.5917506692931056, 0.9120000433176756, 0.35200001671910286, 0.3680000174790621, 0.0, 0.0, 0.0, 0.0, 0.0, 1.7103943959359138E9, 0.0, 2024-03-13 22:33:15.935
42.0, -7.352643312886357, 7.569557510316372, -27.81363597046584, -9.68634088523686, 0.9120000433176756, 0.35200001671910286, 0.3680000174790621, 0.0, 0.0, 0.0, 0.0, 0.0, 1.7103943959513927E9, 0.0, 2024-03-13 22:33:15.951
42.0, -2.131742974743247, 3.736160055734217, -8.938360894098878, -3.1115967631340027, 0.9120000433176756, 0.35200001671910286, 0.3680000174790621, 0.0, 0.0, 0.0, 0.0, 0.0, 1.7103943959513927E9, 0.0, 2024-03-13 22:33:15.951
43.0, -5.890342430211604, -6.488726423121989, 2.2850788729265332, -4.562677945941687, 0.9120000433176756, 0.35200001671910286, 0.3680000174790621, 0.0, 0.0, 0.0, 0.0, 0.0, 1.710394395952201E9, 0.0, 2024-03-13 22:33:15.952
43.0, -10.221146578900516, -1.694174679927528, -4.749672943726182, -0.7068410916253924, 0.9120000433176756, 0.35200001671910286, 0.3680000174790621, 0.0, 0.0, 0.0, 0.0, 0.0, 1.710394395952201E9, 0.0, 2024-03-13 22:33:15.952
44.0, 2.8273643665015697, 3.8520969543606043, -14.974559422582388, -3.025579064153135, 0.9120000433176756, 0.35200001671910286, 0.3680000174790621, 0.0, 0.0, 0.0, 0.0, 0.0, 1.7103943959657717E9, 0.0, 2024-03-13 22:33:15.965
44.0, 6.514905722811818, 5.61732973344624, 7.457360511645675, 1.9821469765156507, 0.9120000433176756, 0.35200001671910286, 0.3680000174790621, 0.0, 0.0, 0.0, 0.0, 0.0, 1.7103943959657717E9, 0.0, 2024-03-13 22:33:15.965
45.0, 6.211973826400936, 1.60815698094666, 3.7660792553797364, 3.5603847578167915, 0.9120000433176756, 0.35200001671910286, 0.3680000174790621, 0.0, 0.0, 0.0, 0.0, 0.0, 1.7103943959813716E9, 0.0, 2024-03-13 22:33:15.981
45.0, -4.83195074275136, -6.645802221260965, -27.843555170111358, -11.488972663879395, 0.9120000433176756, 0.35200001671910286, 0.3680000174790621, 0.0, 0.0, 0.0, 0.0, 0.0, 1.7103943959813716E9, 0.0, 2024-03-13 22:33:15.981
46.0, 9.514305487275124, 3.0405386639758945, 2.5992304692044854, -1.4024624833837152, 0.9120000433176756, 0.35200001671910286, 0.3680000174790621, 0.0, 0.0, 0.0, 0.0, 0.0, 1.7103943959820645E9, 0.0, 2024-03-13 22:33:15.982
46.0, -9.592843386344612, -9.009418993256986, 2.4795536706224084, -6.283031925559044, 0.9120000433176756, 0.35200001671910286, 0.3680000174790621, 0.0, 0.0, 0.0, 0.0, 0.0, 1.7103943959820645E9, 0.0, 2024-03-13 22:33:15.982
47.0, -14.020884933881462, -8.05200460460037, -27.74631777126342, -8.396075400523841, 0.9120000433176756, 0.35200001671910286, 0.3680000174790621, 0.0, 0.0, 0.0, 0.0, 0.0, 1.7103943959960203E9, 0.0, 2024-03-13 22:33:15.996
47.0, 4.775852243416011, 6.9412543177604675, -11.25709886662662, 2.135482874698937, 0.9120000433176756, 0.35200001671910286, 0.3680000174790621, 0.0, 0.0, 0.0, 0.0, 0.0, 1.7103943959960203E9, 0.0, 2024-03-13 22:33:15.996
48.0, 3.22005386184901, 1.5931973811239004, 4.469180447049439, 2.501993070356548, 0.9120000433176756, 0.35200001671910286, 0.3680000174790621, 0.0, 0.0, 0.0, 0.0, 0.0, 1.710394396011346E9, 0.0, 2024-03-13 22:33:16.011
48.0, 0.7853789906948805, 10.202447079122066, -15.30741051863879, -1.1967679858207703, 0.9120000433176756, 0.35200001671910286, 0.3680000174790621, 0.0, 0.0, 0.0, 0.0, 0.0, 1.710394396011346E9, 0.0, 2024-03-13 22:33:16.011
49.0, 2.8011850668117404, 1.5221392819657922, -10.931727570481598, 3.253712961450219, 0.9120000433176756, 0.35200001671910286, 0.3680000174790621, 0.0, 0.0, 0.0, 0.0, 0.0, 1.7103943960121188E9, 0.0, 2024-03-13 22:33:16.012
49.0, 20.442293157801032, 10.352043077349663, 16.717352801933885, 12.07613695692271, 0.9120000433176756, 0.35200001671910286, 0.3680000174790621, 0.0, 0.0, 0.0, 0.0, 0.0, 1.7103943960121188E9, 0.0, 2024-03-13 22:33:16.012
50.0, 13.007372045889497, 8.384855700656772, 1.4660407826304436, 9.316090789623559, 0.9120000433176756, 0.35200001671910286, 0.35200001671910286, 0.0, 0.0, 0.0, 0.0, 0.0, 1.710394396025758E9, 0.0, 2024-03-13 22:33:16.025
50.0, 0.6470026923343539, 1.7427933793514967, -30.001477444544435, -5.905302030034363, 0.9120000433176756, 0.35200001671910286, 0.35200001671910286, 0.0, 0.0, 0.0, 0.0, 0.0, 1.710394396025758E9, 0.0, 2024-03-13 22:33:16.025
51.0, -7.797691407613456, -11.960200058296323, -8.325017301365733, -5.071304339915514, 0.9120000433176756, 0.3680000174790621, 0.35200001671910286, 0.0, 0.0, 0.0, 0.0, 0.0, 1.7103943960418313E9, 0.0, 2024-03-13 22:33:16.041
51.0, -16.238645607605577, -17.222239295952022, -10.954166970215738, -15.973112710751593, 0.9120000433176756, 0.3680000174790621, 0.35200001671910286, 0.0, 0.0, 0.0, 0.0, 0.0, 1.7103943960418313E9, 0.0, 2024-03-13 22:33:16.041
52.0, -13.074690245091915, -18.261931483633816, -37.230704058893025, -21.137914549559355, 0.9120000433176756, 0.3680000174790621, 0.35200001671910286, 0.0, 0.0, 0.0, 0.0, 0.0, 1.7103943960423467E9, 0.0, 2024-03-13 22:33:16.042
52.0, -21.70637934282422, -22.241185036487877, -20.401154258288443, -19.540977268479764, 0.9120000433176756, 0.3680000174790621, 0.35200001671910286, 0.0, 0.0, 0.0, 0.0, 0.0, 1.7103943960423467E9, 0.0, 2024-03-13 22:33:16.042
53.0, -22.424440134316683, -21.403447446413338, -9.110396292060614, -18.362908782437444, 0.9120000433176756, 0.3680000174790621, 0.35200001671910286, 0.0, 0.0, 0.0, 0.0, 0.0, 1.7103943960557752E9, 0.0, 2024-03-13 22:33:16.055
53.0, -36.882893363013864, -41.12393991276622, -49.314320815727115, -39.81871482823044, 0.9120000433176756, 0.3680000174790621, 0.35200001671910286, 0.0, 0.0, 0.0, 0.0, 0.0, 1.7103943960557752E9, 0.0, 2024-03-13 22:33:16.055
54.0, -31.688172324560583, -26.56076948530972, -32.66054631303996, -19.896267764270306, 0.9120000433176756, 0.3680000174790621, 0.35200001671910286, 0.0, 0.0, 0.0, 0.0, 0.0, 1.710394396071386E9, 0.0, 2024-03-13 22:33:16.071
54.0, -22.13646783772856, -20.07578296214342, -1.4361215829849243, -13.355182741768658, 0.9120000433176756, 0.3680000174790621, 0.35200001671910286, 0.0, 0.0, 0.0, 0.0, 0.0, 1.710394396071386E9, 0.0, 2024-03-13 22:33:16.071
55.0, -46.075567454099655, -42.402985697612166, -36.785655964165926, -30.682139236479998, 0.9120000433176756, 0.3680000174790621, 0.35200001671910286, 0.0, 0.0, 0.0, 0.0, 0.0, 1.710394396072372E9, 0.0, 2024-03-13 22:33:16.072
55.0, -34.14528659544885, -27.667779872193933, -37.92258555069566, -19.907487464137375, 0.9120000433176756, 0.3680000174790621, 0.35200001671910286, 0.0, 0.0, 0.0, 0.0, 0.0, 1.710394396072372E9, 0.0, 2024-03-13 22:33:16.072
56.0, -19.6756136668846, -21.77369754202664, -20.662947255186737, -18.755598277784884, 0.9120000433176756, 0.3680000174790621, 0.35200001671910286, 0.0, 0.0, 0.0, 0.0, 0.0, 1.710394396085869E9, 0.0, 2024-03-13 22:33:16.085
56.0, -22.19256633706391, -22.835829129442573, -20.9359599519521, -22.035490538924932, 0.9120000433176756, 0.3680000174790621, 0.35200001671910286, 0.0, 0.0, 0.0, 0.0, 0.0, 1.710394396085869E9, 0.0, 2024-03-13 22:33:16.085
57.0, -39.39984603319317, -28.726171559654176, -48.22600992862135, -18.06745668593794, 0.9120000433176756, 0.3680000174790621, 0.35200001671910286, 0.0, 0.0, 0.0, 0.0, 0.0, 1.7103943961014009E9, 0.0, 2024-03-13 22:33:16.101
57.0, -21.459545945748687, -20.404894158244133, -31.00377063266933, -12.562323951162398, 0.9120000433176756, 0.3680000174790621, 0.35200001671910286, 0.0, 0.0, 0.0, 0.0, 0.0, 1.7103943961014009E9, 0.0, 2024-03-13 22:33:16.101
58.0, -13.055990745313466, -10.539038075134158, -12.05369755718857, -7.752812608145177, 0.9120000433176756, 0.3680000174790621, 0.35200001671910286, 0.0, 0.0, 0.0, 0.0, 0.0, 1.71039439610207E9, 0.0, 2024-03-13 22:33:16.102
58.0, -20.88360135257244, -5.377976136282086, -30.865394334308803, -11.402954964898527, 0.9120000433176756, 0.3680000174790621, 0.35200001671910286, 0.0, 0.0, 0.0, 0.0, 0.0, 1.71039439610207E9, 0.0, 2024-03-13 22:33:16.102
59.0, -17.30077719502151, -10.86440937127918, -33.88349359855056, -14.49585222825408, 0.9120000433176756, 0.3680000174790621, 0.35200001671910286, 0.0, 0.0, 0.0, 0.0, 0.0, 1.710394396115974E9, 0.0, 2024-03-13 22:33:16.115
59.0, -16.45555980503559, -13.190627143718302, -13.127048844471574, -14.727726025506854, 0.9120000433176756, 0.3680000174790621, 0.35200001671910286, 0.0, 0.0, 0.0, 0.0, 0.0, 1.710394396115974E9, 0.0, 2024-03-13 22:33:16.115
60.0, -21.063116550445557, -19.35398227069527, -18.643401279114187, -15.460746416822076, 0.9120000433176756, 0.3680000174790621, 0.35200001671910286, 0.0, 0.0, 0.0, 0.0, 0.0, 1.7103943961316724E9, 0.0, 2024-03-13 22:33:16.131
60.0, -15.494405516423285, -18.57982297986746, -28.329742164351046, -8.594290098175406, 0.9120000433176756, 0.3680000174790621, 0.35200001671910286, 0.0, 0.0, 0.0, 0.0, 0.0, 1.7103943961316724E9, 0.0, 2024-03-13 22:33:16.131
61.0, -16.12644860893488, -24.58610230870545, -6.361569824628532, -9.794797983951867, 0.9120000433176756, 0.3680000174790621, 0.35200001671910286, 0.0, 0.0, 0.0, 0.0, 0.0, 1.7103943961322243E9, 0.0, 2024-03-13 22:33:16.132
61.0, -18.826656376942992, -24.57862250879407, -8.493312799371779, -16.638814902864397, 0.9120000433176756, 0.3680000174790621, 0.35200001671910286, 0.0, 0.0, 0.0, 0.0, 0.0, 1.7103943961322243E9, 0.0, 2024-03-13 22:33:16.132
62.0, -27.548103073611856, -27.77623697090894, -35.267256582155824, -23.131281225942075, 0.9280000440776348, 0.3680000174790621, 0.35200001671910286, 0.0, 0.0, 0.0, 0.0, 0.0, 1.710394396145892E9, 0.0, 2024-03-13 22:33:16.145
62.0, -8.42973450012505, -17.966479387134314, -15.890834911726415, -13.575836839154363, 0.9280000440776348, 0.3680000174790621, 0.35200001671910286, 0.0, 0.0, 0.0, 0.0, 0.0, 1.710394396145892E9, 0.0, 2024-03-13 22:33:16.145
63.0, -8.268918802030385, -15.819776812568307, -3.8072181548923254, -10.512858775444329, 0.9280000440776348, 0.3680000174790621, 0.35200001671910286, 0.0, 0.0, 0.0, 0.0, 0.0, 1.7103943961617823E9, 0.0, 2024-03-13 22:33:16.161
63.0, -10.995305869728327, -18.06745668593794, -28.097868367098272, -14.92594072315842, 0.9280000440776348, 0.3680000174790621, 0.35200001671910286, 0.0, 0.0, 0.0, 0.0, 0.0, 1.7103943961617823E9, 0.0, 2024-03-13 22:33:16.161
64.0, -20.404894158244133, -16.12644860893488, -29.545209649950266, -16.48173910472542, 0.9280000440776348, 0.3680000174790621, 0.35200001671910286, 0.0, 0.0, 0.0, 0.0, 0.0, 1.7103943961624649E9, 0.0, 2024-03-13 22:33:16.162
64.0, -1.61189688090235, -7.431181211955845, 0.5684647932648659, 0.3814697954803705, 0.9280000440776348, 0.3680000174790621, 0.35200001671910286, 0.0, 0.0, 0.0, 0.0, 0.0, 1.7103943961624649E9, 0.0, 2024-03-13 22:33:16.162
65.0, -23.258437824435532, -26.235398189164698, -30.5699422378093, -19.533497468568385, 0.9280000440776348, 0.3680000174790621, 0.35200001671910286, 0.0, 0.0, 0.0, 0.0, 0.0, 1.71039439617614E9, 0.0, 2024-03-13 22:33:16.176
65.0, -12.401508253067732, -14.720246225595474, -25.562216197140515, -10.46424007602036, 0.9280000440776348, 0.3680000174790621, 0.35200001671910286, 0.0, 0.0, 0.0, 0.0, 0.0, 1.71039439617614E9, 0.0, 2024-03-13 22:33:16.176
66.0, -3.414528659544885, -1.9185686772689223, 13.602016138844192, 8.642908797599375, 0.9280000440776348, 0.3680000174790621, 0.35200001671910286, 0.0, 0.0, 0.0, 0.0, 0.0, 1.710394396191612E9, 0.0, 2024-03-13 22:33:16.191
66.0, -17.25215849559754, -12.551104251295328, 8.949580593965948, 2.81240476667881, 0.9280000440776348, 0.3680000174790621, 0.35200001671910286, 0.0, 0.0, 0.0, 0.0, 0.0, 1.710394396191612E9, 0.0, 2024-03-13 22:33:16.191
67.0, -18.254451683722436, -15.397168117575347, -28.049249667674303, -0.1047171987593174, 0.9280000440776348, 0.3680000174790621, 0.35200001671910286, 0.0, 0.0, 0.0, 0.0, 0.0, 1.7103943961922336E9, 0.0, 2024-03-13 22:33:16.192
67.0, -5.003986140713096, 0.06357829924672842, -5.830504030920565, 6.522385522723198, 0.9280000440776348, 0.3680000174790621, 0.35200001671910286, 0.0, 0.0, 0.0, 0.0, 0.0, 1.7103943961922336E9, 0.0, 2024-03-13 22:33:16.192
68.0, -1.9821469765156507, -0.6170834926888347, 11.365555965341628, 9.764878784306347, 0.9280000440776348, 0.3680000174790621, 0.35200001671910286, 0.0, 0.0, 0.0, 0.0, 0.0, 1.7103943962057636E9, 0.0, 2024-03-13 22:33:16.205
68.0, -9.592843386344612, -11.227179666981101, -17.846802588552237, -1.5221392819657922, 0.9280000440776348, 0.3680000174790621, 0.35200001671910286, 0.0, 0.0, 0.0, 0.0, 0.0, 1.7103943962057636E9, 0.0, 2024-03-13 22:33:16.205
69.0, -7.131989215500653, -12.648341650143266, -24.07747591473162, -7.393782212398946, 0.9280000440776348, 0.3680000174790621, 0.35200001671910286, 0.0, 0.0, 0.0, 0.0, 0.0, 1.710394396221352E9, 0.0, 2024-03-13 22:33:16.221
69.0, -16.369542106054723, -19.645694467239082, -0.5834243930876255, -7.6667949091643095, 0.9280000440776348, 0.3680000174790621, 0.35200001671910286, 0.0, 0.0, 0.0, 0.0, 0.0, 1.710394396221352E9, 0.0, 2024-03-13 22:33:16.221
70.0, -8.553151198662817, -18.57234317995608, -12.581023450940847, -7.045971516519785, 0.9280000440776348, 0.3680000174790621, 0.35200001671910286, 0.0, 0.0, 0.0, 0.0, 0.0, 1.7103943962220423E9, 0.0, 2024-03-13 22:33:16.222
70.0, -3.182654862292111, -9.787318184040487, -17.611188891343772, 1.933528277091682, 0.9280000440776348, 0.3680000174790621, 0.35200001671910286, 0.0, 0.0, 0.0, 0.0, 0.0, 1.7103943962220423E9, 0.0, 2024-03-13 22:33:16.222
71.0, -6.9001154182478786, -13.452420140616596, 2.326217772439122, 2.8759830659255385, 0.9280000440776348, 0.3680000174790621, 0.35200001671910286, 0.0, 0.0, 0.0, 0.0, 0.0, 1.7103943962357144E9, 0.0, 2024-03-13 22:33:16.235
71.0, -18.50502498075366, -18.329249682836235, 4.457960747182369, -5.194721038453281, 0.9280000440776348, 0.3680000174790621, 0.35200001671910286, 0.0, 0.0, 0.0, 0.0, 0.0, 1.7103943962357144E9, 0.0, 2024-03-13 22:33:16.235
72.0, -20.14310116134584, -15.363509017974138, -18.90893417596817, -5.553751434199512, 0.9280000440776348, 0.3680000174790621, 0.35200001671910286, 0.0, 0.0, 0.0, 0.0, 0.0, 1.7103943962513628E9, 0.0, 2024-03-13 22:33:16.251
72.0, 2.81240476667881, 4.398122347891331, 5.830504030920565, 7.756552508100867, 0.9280000440776348, 0.3680000174790621, 0.35200001671910286, 0.0, 0.0, 0.0, 0.0, 0.0, 1.7103943962513628E9, 0.0, 2024-03-13 22:33:16.251
73.0, -14.90350132342428, -12.831596747972071, 5.340577136725187, -3.493066558614373, 0.9280000440776348, 0.3680000174790621, 0.35200001671910286, 0.0, 0.0, 0.0, 0.0, 0.0, 1.710394396252064E9, 0.0, 2024-03-13 22:33:16.252
73.0, -13.239245843142271, -18.13103498518467, -20.06830316223204, -12.992412446066737, 0.9280000440776348, 0.3680000174790621, 0.35200001671910286, 0.0, 0.0, 0.0, 0.0, 0.0, 1.710394396252064E9, 0.0, 2024-03-13 22:33:16.252
74.0, -10.06781068071723, -12.951273546554148, -17.966479387134314, -7.176868014968932, 0.9280000440776348, 0.3680000174790621, 0.35200001671910286, 0.0, 0.0, 0.0, 0.0, 0.0, 1.7103943962656543E9, 0.0, 2024-03-13 22:33:16.265
74.0, 2.0232858760282397, -1.3089649844914675, 12.322970353998244, 3.0854174634441733, 0.9280000440776348, 0.3680000174790621, 0.35200001671910286, 0.0, 0.0, 0.0, 0.0, 0.0, 1.7103943962656543E9, 0.0, 2024-03-13 22:33:16.265
75.0, -6.226933426223695, 1.1892881859093904, 0.40390919521450996, 4.43178144749254, 0.9280000440776348, 0.3680000174790621, 0.35200001671910286, 0.0, 0.0, 0.0, 0.0, 0.0, 1.7103943962813718E9, 0.0, 2024-03-13 22:33:16.281
75.0, 7.375082712620497, 6.974913417361677, -14.664147726260126, 3.7698191553354263, 0.9280000440776348, 0.3680000174790621, 0.35200001671910286, 0.0, 0.0, 0.0, 0.0, 0.0, 1.7103943962813718E9, 0.0, 2024-03-13 22:33:16.281
76.0, 11.941500558517873, 18.54990378022194, 13.441200440749526, 14.611789126880467, 0.9280000440776348, 0.3680000174790621, 0.35200001671910286, 0.0, 0.0, 0.0, 0.0, 0.0, 1.7103943962820313E9, 0.0, 2024-03-13 22:33:16.282
76.0, 8.86730279494077, 7.072150816209614, 12.293051154352725, 10.86440937127918, 0.9280000440776348, 0.3680000174790621, 0.35200001671910286, 0.0, 0.0, 0.0, 0.0, 0.0, 1.7103943962820313E9, 0.0, 2024-03-13 22:33:16.282
77.0, 0.6769218919798732, 8.0781839042902, -14.346256230026484, 3.5977837573736906, 0.9280000440776348, 0.3680000174790621, 0.35200001671910286, 0.0, 0.0, 0.0, 0.0, 0.0, 1.7103943962956626E9, 0.0, 2024-03-13 22:33:16.295
77.0, 1.9073489774018526, 5.8940823301672935, -0.1570757981389761, 9.2637321902439, 0.9280000440776348, 0.3680000174790621, 0.35200001671910286, 0.0, 0.0, 0.0, 0.0, 0.0, 1.7103943962956626E9, 0.0, 2024-03-13 22:33:16.295
78.0, 6.630842621438205, 9.547964586876333, 17.74582528974861, 11.952720258384943, 0.9280000440776348, 0.3680000174790621, 0.35200001671910286, 0.0, 0.0, 0.0, 0.0, 0.0, 1.710394396311617E9, 0.0, 2024-03-13 22:33:16.311
78.0, -5.823024231009185, 2.8759830659255385, -8.212820302695036, 9.144055391661823, 0.9280000440776348, 0.3680000174790621, 0.35200001671910286, 0.0, 0.0, 0.0, 0.0, 0.0, 1.710394396311617E9, 0.0, 2024-03-13 22:33:16.311
79.0, 15.31863021850586, 14.948380122892559, -5.8940823301672935, 13.377622141502798, 0.9280000440776348, 0.3680000174790621, 0.35200001671910286, 0.0, 0.0, 0.0, 0.0, 0.0, 1.7103943963120906E9, 0.0, 2024-03-13 22:33:16.312
79.0, 2.9582608649507165, 4.517799146473408, 13.942347034811974, 5.007726040668786, 0.9280000440776348, 0.3680000174790621, 0.35200001671910286, 0.0, 0.0, 0.0, 0.0, 0.0, 1.7103943963120906E9, 0.0, 2024-03-13 22:33:16.312
80.0, -6.84401691891253, -6.7019007205963135, -3.175175062380731, -2.6403693687170744, 0.9280000440776348, 0.3680000174790621, 0.33600001595914364, 0.0, 0.0, 0.0, 0.0, 0.0, 1.710394396325752E9, 0.0, 2024-03-13 22:33:16.325
80.0, 0.5834243930876255, -0.4637475945055485, -14.780084624886513, 3.6912812562659383, 0.9280000440776348, 0.3680000174790621, 0.33600001595914364, 0.0, 0.0, 0.0, 0.0, 0.0, 1.710394396325752E9, 0.0, 2024-03-13 22:33:16.325
81.0, 2.662808768451214, 3.339730660431087, 3.534205458126962, 7.1843478148803115, 0.9280000440776348, 0.3680000174790621, 0.33600001595914364, 0.0, 0.0, 0.0, 0.0, 0.0, 1.710394396341952E9, 0.0, 2024-03-13 22:33:16.341
81.0, 3.025579064153135, 0.6657021921128035, 2.086864175274968, 3.661362056620419, 0.9280000440776348, 0.3680000174790621, 0.33600001595914364, 0.0, 0.0, 0.0, 0.0, 0.0, 1.710394396341952E9, 0.0, 2024-03-13 22:33:16.341
82.0, -5.348056936636567, -1.6754751801490784, -20.214159260503948, 4.270965749397874, 0.9280000440776348, 0.3680000174790621, 0.33600001595914364, 0.0, 0.0, 0.0, 0.0, 0.0, 1.7103943963421853E9, 0.0, 2024-03-13 22:33:16.342
82.0, -5.460253935307264, -1.1331896865740418, -5.837983830831945, 2.060684875585139, 0.9280000440776348, 0.3680000174790621, 0.33600001595914364, 0.0, 0.0, 0.0, 0.0, 0.0, 1.7103943963421853E9, 0.0, 2024-03-13 22:33:16.342
83.0, -1.2940053846687078, 0.044878799468278885, 13.770311636850238, 5.703347432427108, 0.9280000440776348, 0.3680000174790621, 0.33600001595914364, 0.0, 0.0, 0.0, 0.0, 0.0, 1.7103943963557153E9, 0.0, 2024-03-13 22:33:16.355
83.0, -26.325155788101256, -18.994951874949038, -29.930419345386326, -10.243585978634655, 0.9280000440776348, 0.3680000174790621, 0.33600001595914364, 0.0, 0.0, 0.0, 0.0, 0.0, 1.7103943963557153E9, 0.0, 2024-03-13 22:33:16.355
84.0, -6.103516727685928, 2.539392069913447, -19.27170447167009, -0.09723739884793758, 0.9280000440776348, 0.3680000174790621, 0.33600001595914364, 0.0, 0.0, 0.0, 0.0, 0.0, 1.7103943963713377E9, 0.0, 2024-03-13 22:33:16.371
84.0, -2.9246017653495073, 10.318383977748454, 6.630842621438205, 5.486433234997094, 0.9280000440776348, 0.3680000174790621, 0.33600001595914364, 0.0, 0.0, 0.0, 0.0, 0.0, 1.7103943963713377E9, 0.0, 2024-03-13 22:33:16.371
85.0, -5.407895335927606, 3.867056554183364, -8.167941503226757, -1.3127048844471574, 0.9280000440776348, 0.3680000174790621, 0.33600001595914364, 0.0, 0.0, 0.0, 0.0, 0.0, 1.7103943963721075E9, 0.0, 2024-03-13 22:33:16.372
85.0, -10.793351272121072, -1.5857175812125206, -28.471858362667263, -2.973220464773476, 0.9280000440776348, 0.3680000174790621, 0.33600001595914364, 0.0, 0.0, 0.0, 0.0, 0.0, 1.7103943963721075E9, 0.0, 2024-03-13 22:33:16.372
86.0, 2.7525663673877716, -2.861023466102779, -0.33285109605640173, 4.319584448821843, 0.9280000440776348, 0.3680000174790621, 0.33600001595914364, 0.0, 0.0, 0.0, 0.0, 0.0, 1.7103943963856628E9, 0.0, 2024-03-13 22:33:16.385
86.0, 9.533004987053573, 15.445786816999316, 15.038137721829116, 10.707333573140204, 0.9280000440776348, 0.3680000174790621, 0.33600001595914364, 0.0, 0.0, 0.0, 0.0, 0.0, 1.7103943963856628E9, 0.0, 2024-03-13 22:33:16.385
87.0, -15.838476312346756, -10.262285478413105, -27.31248937640339, -10.243585978634655, 0.9280000440776348, 0.3680000174790621, 0.33600001595914364, 0.0, 0.0, 0.0, 0.0, 0.0, 1.7103943964013555E9, 0.0, 2024-03-13 22:33:16.401
87.0, -7.513459010981023, -8.676567897200584, -10.8569295713678, -2.857283566147089, 0.9280000440776348, 0.3680000174790621, 0.33600001595914364, 0.0, 0.0, 0.0, 0.0, 0.0, 1.7103943964013555E9, 0.0, 2024-03-13 22:33:16.401
88.0, 4.293405149132013, 8.05574450455606, 7.921108106151223, 4.151288950815797, 0.9280000440776348, 0.3680000174790621, 0.33600001595914364, 0.0, 0.0, 0.0, 0.0, 0.0, 1.710394396402076E9, 0.0, 2024-03-13 22:33:16.402
88.0, 11.24961906671524, 13.987225834280252, -3.3509503602981567, 9.955613682046533, 0.9280000440776348, 0.3680000174790621, 0.33600001595914364, 0.0, 0.0, 0.0, 0.0, 0.0, 1.710394396402076E9, 0.0, 2024-03-13 22:33:16.402
89.0, 10.954166970215738, 18.015098086558282, -3.2424932615831494, 13.639415138401091, 0.9280000440776348, 0.3680000174790621, 0.33600001595914364, 0.0, 0.0, 0.0, 0.0, 0.0, 1.710394396415661E9, 0.0, 2024-03-13 22:33:16.415
89.0, 19.33528277091682, 15.931973811239004, 20.711565954610705, 16.4892189046368, 0.9280000440776348, 0.3680000174790621, 0.33600001595914364, 0.0, 0.0, 0.0, 0.0, 0.0, 1.710394396415661E9, 0.0, 2024-03-13 22:33:16.415
90.0, 6.877676018513739, 11.975159658119082, 2.6852481681853533, 11.051404369063675, 0.9280000440776348, 0.3680000174790621, 0.35200001671910286, 0.0, 0.0, 0.0, 0.0, 0.0, 1.7103943964313655E9, 0.0, 2024-03-13 22:33:16.431
90.0, 11.264578666538, 14.940900322981179, -10.583916874602437, 17.816883388906717, 0.9280000440776348, 0.3680000174790621, 0.35200001671910286, 0.0, 0.0, 0.0, 0.0, 0.0, 1.7103943964313655E9, 0.0, 2024-03-13 22:33:16.431
91.0, 7.861269706860185, 9.899515182711184, 12.85403614770621, 15.72627931367606, 0.9280000440776348, 0.3680000174790621, 0.35200001671910286, 0.0, 0.0, 0.0, 0.0, 0.0, 1.7103943964320536E9, 0.0, 2024-03-13 22:33:16.432
91.0, -15.898314711637795, -0.5348056936636567, 1.2827856848016381, -0.7031011916697025, 0.9280000440776348, 0.3680000174790621, 0.35200001671910286, 0.0, 0.0, 0.0, 0.0, 0.0, 1.7103943964320536E9, 0.0, 2024-03-13 22:33:16.432
92.0, -15.367248917929828, -2.5618314696475863, -23.950319316238165, -4.506579446606338, 0.9280000440776348, 0.3680000174790621, 0.35200001671910286, 0.0, 0.0, 0.0, 0.0, 0.0, 1.7103943964460251E9, 0.0, 2024-03-13 22:33:16.446
92.0, 2.4458945710211992, 9.125355891883373, -3.6389226568862796, 11.043924569152296, 0.9280000440776348, 0.3680000174790621, 0.35200001671910286, 0.0, 0.0, 0.0, 0.0, 0.0, 1.7103943964460251E9, 0.0, 2024-03-13 22:33:16.446
93.0, 4.962847241200507, 8.227779902517796, 8.42599460016936, 12.734359349124134, 0.9280000440776348, 0.3680000174790621, 0.35200001671910286, 0.0, 0.0, 0.0, 0.0, 0.0, 1.7103943964615188E9, 0.0, 2024-03-13 22:33:16.461
93.0, -15.797337412834167, -9.828457083553076, -24.19341281335801, -9.993012681603432, 0.9280000440776348, 0.3680000174790621, 0.35200001671910286, 0.0, 0.0, 0.0, 0.0, 0.0, 1.7103943964615188E9, 0.0, 2024-03-13 22:33:16.461
94.0, -6.488726423121989, -7.068410916253924, -20.326356259174645, -2.935821465216577, 0.9280000440776348, 0.3680000174790621, 0.35200001671910286, 0.0, 0.0, 0.0, 0.0, 0.0, 1.7103943964623008E9, 0.0, 2024-03-13 22:33:16.462
94.0, -3.9605540530756116, 2.2289803735911846, -2.221500573679805, 0.5684647932648659, 0.9280000440776348, 0.3680000174790621, 0.35200001671910286, 0.0, 0.0, 0.0, 0.0, 0.0, 1.7103943964623008E9, 0.0, 2024-03-13 22:33:16.462
95.0, -5.785625231452286, -1.7166140796616673, -15.991812210530043, -5.063824540004134, 0.9280000440776348, 0.3680000174790621, 0.35200001671910286, 0.0, 0.0, 0.0, 0.0, 0.0, 1.7103943964759364E9, 0.0, 2024-03-13 22:33:16.475
95.0, 7.8687495067715645, 10.46050017606467, -5.176021538674831, 10.815790671855211, 0.9280000440776348, 0.3680000174790621, 0.35200001671910286, 0.0, 0.0, 0.0, 0.0, 0.0, 1.7103943964759364E9, 0.0, 2024-03-13 22:33:16.475
96.0, -6.5784840220585465, -3.62770295701921, -0.80407849047333, 3.9717737529426813, 0.9280000440776348, 0.3680000174790621, 0.35200001671910286, 0.0, 0.0, 0.0, 0.0, 0.0, 1.7103943964913757E9, 0.0, 2024-03-13 22:33:16.491
96.0, -9.308610989712179, -13.2654251428321, -7.524678710848093, -3.7249403558671474, 0.9280000440776348, 0.3680000174790621, 0.35200001671910286, 0.0, 0.0, 0.0, 0.0, 0.0, 1.7103943964913757E9, 0.0, 2024-03-13 22:33:16.491
97.0, 2.8722431659698486, 4.356983448378742, -16.42938050534576, 7.812651007436216, 0.9280000440776348, 0.3680000174790621, 0.35200001671910286, 0.0, 0.0, 0.0, 0.0, 0.0, 1.710394396492295E9, 0.0, 2024-03-13 22:33:16.492
97.0, 17.27833779528737, 13.29908424243331, 16.92304729949683, 16.91930739954114, 0.9280000440776348, 0.3680000174790621, 0.35200001671910286, 0.0, 0.0, 0.0, 0.0, 0.0, 1.710394396492295E9, 0.0, 2024-03-13 22:33:16.492
98.0, -4.629996145144105, -1.3351442841812968, 3.736160055734217, -0.22065409738570452, 0.9280000440776348, 0.3680000174790621, 0.35200001671910286, 0.0, 0.0, 0.0, 0.0, 0.0, 1.710394396505643E9, 0.0, 2024-03-13 22:33:16.505
98.0, -7.468580211512744, -6.974913417361677, -17.012804898433387, -0.5161061938852072, 0.9280000440776348, 0.3680000174790621, 0.35200001671910286, 0.0, 0.0, 0.0, 0.0, 0.0, 1.710394396505643E9, 0.0, 2024-03-13 22:33:16.505
99.0, -5.606110033579171, 0.14585609827190638, -8.05948440451175, 5.512612534686923, 0.9280000440776348, 0.3680000174790621, 0.35200001671910286, 0.0, 0.0, 0.0, 0.0, 0.0, 1.7103943965213776E9, 0.0, 2024-03-13 22:33:16.521
99.0, -5.273258937522769, -1.286525584757328, 18.91267407592386, 13.175667543895543, 0.9280000440776348, 0.3680000174790621, 0.35200001671910286, 0.0, 0.0, 0.0, 0.0, 0.0, 1.7103943965213776E9, 0.0, 2024-03-13 22:33:16.521
100.0, -6.0174990287050605, -5.22838013805449, -0.33659099601209164, 4.82447094283998, 0.9280000440776348, 0.3680000174790621, 0.35200001671910286, 0.0, 0.0, 0.0, 0.0, 0.0, 1.7103943965221145E9, 0.0, 2024-03-13 22:33:16.522
100.0, 1.9036090774461627, -3.8520969543606043, -15.479445916600525, 5.819284331053495, 0.9280000440776348, 0.3680000174790621, 0.35200001671910286, 0.0, 0.0, 0.0, 0.0, 0.0, 1.7103943965221145E9, 0.0, 2024-03-13 22:33:16.522
0.0, -690.551957368385, -334.6387682352215, -421.5820924551226, -364.8309805775061, 0.9280000440776348, 0.3680000174790621, 0.35200001671910286, 0.0, 0.0, 0.0, 0.0, 0.0, 1.71039439653681E9, 0.0, 2024-03-13 22:33:16.536
1.0, -686.5278250160627, -333.0081718545407, -420.3703648694791, -363.0208689989522, 0.9280000440776348, 0.3680000174790621, 0.35200001671910286, 0.0, 0.0, 0.0, 0.0, 0.0, 1.7103943965377233E9, 0.0, 2024-03-13 22:33:16.537
1.0, -684.5793371391483, -330.6707343822345, -446.57958375895396, -365.75099596660584, 0.9280000440776348, 0.3680000174790621, 0.35200001671910286, 0.0, 0.0, 0.0, 0.0, 0.0, 1.7103943965377233E9, 0.0, 2024-03-13 22:33:16.537
2.0, -673.5428923699073, -320.94325459748507, -427.56593238422647, -352.5080102235079, 0.9120000433176756, 0.3680000174790621, 0.35200001671910286, 0.0, 0.0, 0.0, 0.0, 0.0, 1.7103943965509489E9, 0.0, 2024-03-13 22:33:16.550
2.0, -687.6535349027254, -330.42764088511467, -421.1033852607943, -364.9880563756451, 0.9120000433176756, 0.3680000174790621, 0.35200001671910286, 0.0, 0.0, 0.0, 0.0, 0.0, 1.7103943965509489E9, 0.0, 2024-03-13 22:33:16.550
3.0, -680.1138965920545, -328.1276024123654, -434.53710590163246, -363.0320886988193, 0.9120000433176756, 0.3680000174790621, 0.35200001671910286, 0.0, 0.0, 0.0, 0.0, 0.0, 1.710394396566502E9, 0.0, 2024-03-13 22:33:16.566
3.0, -677.7614995199256, -319.4921734146774, -435.58053798926994, -358.2076177559793, 0.9120000433176756, 0.3680000174790621, 0.35200001671910286, 0.0, 0.0, 0.0, 0.0, 0.0, 1.710394396566502E9, 0.0, 2024-03-13 22:33:16.566
4.0, -667.1289639458992, -315.53535926155746, -411.3160670767538, -350.5782218463719, 0.9120000433176756, 0.3680000174790621, 0.35200001671910286, 0.0, 0.0, 0.0, 0.0, 0.0, 1.7103943965672214E9, 0.0, 2024-03-13 22:33:16.567
4.0, -688.0985829974525, -330.5248782839626, -436.64640947664157, -365.56400096882135, 0.9120000433176756, 0.3680000174790621, 0.35200001671910286, 0.0, 0.0, 0.0, 0.0, 0.0, 1.7103943965672214E9, 0.0, 2024-03-13 22:33:16.567
5.0, -684.6877942378633, -331.9273407673463, -443.06407780060545, -364.99927607551217, 0.9120000433176756, 0.3680000174790621, 0.35200001671910286, 0.0, 0.0, 0.0, 0.0, 0.0, 1.7103943965806532E9, 0.0, 2024-03-13 22:33:16.580
5.0, -667.3645776431076, -318.45996102690697, -407.2769751246087, -350.66797944530845, 0.9120000433176756, 0.3680000174790621, 0.35200001671910286, 0.0, 0.0, 0.0, 0.0, 0.0, 1.7103943965806532E9, 0.0, 2024-03-13 22:33:16.580
6.0, -671.6093640928157, -325.88366243895143, -423.0780524373986, -358.5778678515926, 0.9120000433176756, 0.3680000174790621, 0.35200001671910286, 0.0, 0.0, 0.0, 0.0, 0.0, 1.710394396596553E9, 0.0, 2024-03-13 22:33:16.596
6.0, -673.920622265432, -318.2243473296985, -447.28642485057935, -361.33417411893606, 0.9120000433176756, 0.3680000174790621, 0.35200001671910286, 0.0, 0.0, 0.0, 0.0, 0.0, 1.710394396596553E9, 0.0, 2024-03-13 22:33:16.596
7.0, -666.56423905259, -314.09549777861685, -427.13584388932213, -353.4916039118543, 0.9120000433176756, 0.3680000174790621, 0.35200001671910286, 0.0, 0.0, 0.0, 0.0, 0.0, 1.7103943966117241E9, 0.0, 2024-03-13 22:33:16.611
7.0, -660.0867323293351, -318.4375216271728, -409.9547434928827, -352.048002528958, 0.9120000433176756, 0.3680000174790621, 0.35200001671910286, 0.0, 0.0, 0.0, 0.0, 0.0, 1.7103943966117241E9, 0.0, 2024-03-13 22:33:16.611
8.0, -664.634450675454, -302.19513611961156, -425.71468190615997, -345.6752130044624, 0.9120000433176756, 0.3680000174790621, 0.35200001671910286, 0.0, 0.0, 0.0, 0.0, 0.0, 1.7103943966123161E9, 0.0, 2024-03-13 22:33:16.612
8.0, -683.0833771568723, -312.06099220272154, -430.79346604598686, -349.9424388539046, 0.9120000433176756, 0.3680000174790621, 0.35200001671910286, 0.0, 0.0, 0.0, 0.0, 0.0, 1.7103943966123161E9, 0.0, 2024-03-13 22:33:16.612
9.0, -682.4288946646266, -324.1558286594227, -420.033773873467, -358.9219386475161, 0.9120000433176756, 0.3680000174790621, 0.35200001671910286, 0.0, 0.0, 0.0, 0.0, 0.0, 1.7103943966265004E9, 0.0, 2024-03-13 22:33:16.626
9.0, -685.6601682263426, -330.315443886444, -430.83460494549945, -360.51887592859566, 0.9120000433176756, 0.3680000174790621, 0.35200001671910286, 0.0, 0.0, 0.0, 0.0, 0.0, 1.7103943966265004E9, 0.0, 2024-03-13 22:33:16.626
10.0, -674.5264860582538, -316.8817232456058, -435.1467095944099, -352.0592222288251, 0.9120000433176756, 0.3680000174790621, 0.33600001595914364, 0.0, 0.0, 0.0, 0.0, 0.0, 1.7103943966274185E9, 0.0, 2024-03-13 22:33:16.627
10.0, -675.899029341992, -325.2665789462626, -417.63649800186977, -355.7579832850024, 0.9120000433176756, 0.3680000174790621, 0.33600001595914364, 0.0, 0.0, 0.0, 0.0, 0.0, 1.7103943966274185E9, 0.0, 2024-03-13 22:33:16.627
11.0, -676.2991986372508, -324.8140510516241, -418.9305033865385, -359.00795634649694, 0.9120000433176756, 0.3680000174790621, 0.33600001595914364, 0.0, 0.0, 0.0, 0.0, 0.0, 1.710394396640623E9, 0.0, 2024-03-13 22:33:16.640
11.0, -687.8816688000225, -324.0735508603975, -442.66016860539094, -361.78670201357454, 0.9120000433176756, 0.3680000174790621, 0.33600001595914364, 0.0, 0.0, 0.0, 0.0, 0.0, 1.710394396640623E9, 0.0, 2024-03-13 22:33:16.640
12.0, -661.317159414757, -310.12372402567416, -416.41729061631486, -347.88175397831947, 0.9120000433176756, 0.3680000174790621, 0.33600001595914364, 0.0, 0.0, 0.0, 0.0, 0.0, 1.7103943966564016E9, 0.0, 2024-03-13 22:33:16.656
12.0, -677.6979212206788, -326.0108190374449, -415.63191162562, -355.0922810928896, 0.9120000433176756, 0.3680000174790621, 0.33600001595914364, 0.0, 0.0, 0.0, 0.0, 0.0, 1.7103943966564016E9, 0.0, 2024-03-13 22:33:16.656
13.0, -671.8561974898912, -310.9539818158373, -433.1122040185146, -352.10410102829337, 0.9120000433176756, 0.3680000174790621, 0.33600001595914364, 0.0, 0.0, 0.0, 0.0, 0.0, 1.710394396657129E9, 0.0, 2024-03-13 22:33:16.657
13.0, -668.2808531322517, -310.16860282514244, -429.39100356260315, -345.8622080022469, 0.9120000433176756, 0.3680000174790621, 0.33600001595914364, 0.0, 0.0, 0.0, 0.0, 0.0, 1.710394396657129E9, 0.0, 2024-03-13 22:33:16.657
14.0, -665.9882944594137, -315.7410537591204, -408.8327735061757, -349.34031496103853, 0.9120000433176756, 0.3680000174790621, 0.33600001595914364, 0.0, 0.0, 0.0, 0.0, 0.0, 1.710394396670833E9, 0.0, 2024-03-13 22:33:16.670
14.0, -663.1908492925577, -317.12481674272567, -419.01652108551934, -351.55433573480695, 0.9120000433176756, 0.3680000174790621, 0.33600001595914364, 0.0, 0.0, 0.0, 0.0, 0.0, 1.710394396670833E9, 0.0, 2024-03-13 22:33:16.670
15.0, -655.890564579051, -301.1442242320627, -433.9611613084562, -347.0627158880234, 0.9120000433176756, 0.3680000174790621, 0.33600001595914364, 0.0, 0.0, 0.0, 0.0, 0.0, 1.7103943966863585E9, 0.0, 2024-03-13 22:33:16.686
15.0, -670.0535657112487, -313.104424290359, -416.48834871547297, -345.02821031212807, 0.9120000433176756, 0.3680000174790621, 0.33600001595914364, 0.0, 0.0, 0.0, 0.0, 0.0, 1.7103943966863585E9, 0.0, 2024-03-13 22:33:16.686
16.0, -679.9381212941371, -313.20540158916265, -413.8367596468888, -348.02013027668, 0.9120000433176756, 0.3680000174790621, 0.33600001595914364, 0.0, 0.0, 0.0, 0.0, 0.0, 1.71039439668716E9, 0.0, 2024-03-13 22:33:16.687
16.0, -668.6885022274218, -303.8893107995391, -427.3265787870623, -346.0454631000757, 0.9120000433176756, 0.3680000174790621, 0.33600001595914364, 0.0, 0.0, 0.0, 0.0, 0.0, 1.71039439668716E9, 0.0, 2024-03-13 22:33:16.687
17.0, -652.3937581204809, -298.6534508615732, -401.4315114938654, -335.6448013233021, 0.9120000433176756, 0.3680000174790621, 0.33600001595914364, 0.0, 0.0, 0.0, 0.0, 0.0, 1.710394396700728E9, 0.0, 2024-03-13 22:33:16.700
17.0, -666.1752894571982, -312.68555549532175, -410.49328908650205, -352.62768702208996, 0.9120000433176756, 0.3680000174790621, 0.33600001595914364, 0.0, 0.0, 0.0, 0.0, 0.0, 1.710394396700728E9, 0.0, 2024-03-13 22:33:16.700
18.0, -670.5509724053554, -307.5992915555835, -419.22969538299367, -344.1194146228954, 0.9120000433176756, 0.3680000174790621, 0.33600001595914364, 0.0, 0.0, 0.0, 0.0, 0.0, 1.7103943967163563E9, 0.0, 2024-03-13 22:33:16.716
18.0, -662.7495410977863, -302.6588837141171, -414.2481486420147, -338.0121579952538, 0.9120000433176756, 0.3680000174790621, 0.33600001595914364, 0.0, 0.0, 0.0, 0.0, 0.0, 1.7103943967163563E9, 0.0, 2024-03-13 22:33:16.716
19.0, -660.3971440256573, -305.265593983233, -399.3483872185461, -336.14594791736454, 0.9120000433176756, 0.3680000174790621, 0.33600001595914364, 0.0, 0.0, 0.0, 0.0, 0.0, 1.710394396717057E9, 0.0, 2024-03-13 22:33:16.717
19.0, -666.1453702575527, -303.3732046056539, -411.67883737245575, -340.99659815989435, 0.9120000433176756, 0.3680000174790621, 0.33600001595914364, 0.0, 0.0, 0.0, 0.0, 0.0, 1.710394396717057E9, 0.0, 2024-03-13 22:33:16.717
20.0, -663.3853240902536, -309.1513500371948, -432.46520132618025, -347.5676023820415, 0.9120000433176756, 0.3680000174790621, 0.33600001595914364, 0.0, 0.0, 0.0, 0.0, 0.0, 1.7103943967307355E9, 0.0, 2024-03-13 22:33:16.730
20.0, -662.282053603325, -299.04614035692066, -408.5410613096319, -338.65916068758816, 0.9120000433176756, 0.3680000174790621, 0.33600001595914364, 0.0, 0.0, 0.0, 0.0, 0.0, 1.7103943967307355E9, 0.0, 2024-03-13 22:33:16.730
21.0, -676.7629462317564, -320.2588529055938, -423.63903743075207, -362.96477049961686, 0.9120000433176756, 0.3680000174790621, 0.33600001595914364, 0.0, 0.0, 0.0, 0.0, 0.0, 1.710394396746706E9, 0.0, 2024-03-13 22:33:16.746
21.0, -671.5270862937905, -317.95507453288883, -445.42769457260147, -363.7688489900902, 0.9120000433176756, 0.3680000174790621, 0.33600001595914364, 0.0, 0.0, 0.0, 0.0, 0.0, 1.710394396746706E9, 0.0, 2024-03-13 22:33:16.746
22.0, -669.5598989170976, -308.53052664455026, -421.6269712545909, -353.30086901411414, 0.9120000433176756, 0.3680000174790621, 0.33600001595914364, 0.0, 0.0, 0.0, 0.0, 0.0, 1.7103943967472785E9, 0.0, 2024-03-13 22:33:16.747
22.0, -673.1988215739839, -316.32447815220803, -410.22775618964806, -354.0899879047647, 0.9120000433176756, 0.3680000174790621, 0.33600001595914364, 0.0, 0.0, 0.0, 0.0, 0.0, 1.7103943967472785E9, 0.0, 2024-03-13 22:33:16.747
23.0, -676.6769285327755, -316.23846045322716, -433.42635561479256, -355.5784680871293, 0.9120000433176756, 0.3680000174790621, 0.33600001595914364, 0.0, 0.0, 0.0, 0.0, 0.0, 1.7103943967607229E9, 0.0, 2024-03-13 22:33:16.760
23.0, -670.8015457023866, -315.4530814625323, -428.80009936960414, -346.77848349139094, 0.9120000433176756, 0.3680000174790621, 0.33600001595914364, 0.0, 0.0, 0.0, 0.0, 0.0, 1.7103943967607229E9, 0.0, 2024-03-13 22:33:16.760
24.0, -672.8846699777059, -317.7082411358133, -411.289887777064, -349.575928658247, 0.9120000433176756, 0.3680000174790621, 0.33600001595914364, 0.0, 0.0, 0.0, 0.0, 0.0, 1.7103943967764266E9, 0.0, 2024-03-13 22:33:16.776
24.0, -684.8560897358693, -318.8601303221658, -428.7851397697814, -359.4679640410468, 0.9120000433176756, 0.3680000174790621, 0.33600001595914364, 0.0, 0.0, 0.0, 0.0, 0.0, 1.7103943967764266E9, 0.0, 2024-03-13 22:33:16.776
25.0, -684.3923421413638, -324.53729845490307, -442.39089580858126, -359.393166041933, 0.9120000433176756, 0.3680000174790621, 0.33600001595914364, 0.0, 0.0, 0.0, 0.0, 0.0, 1.7103943967770784E9, 0.0, 2024-03-13 22:33:16.777
25.0, -676.0748046399094, -322.1961210826412, -417.98056879779324, -352.2424773266539, 0.9120000433176756, 0.3680000174790621, 0.33600001595914364, 0.0, 0.0, 0.0, 0.0, 0.0, 1.7103943967770784E9, 0.0, 2024-03-13 22:33:16.777
26.0, -673.2250008736737, -325.8313038395718, -416.1854168190621, -357.44467816501856, 0.9120000433176756, 0.3680000174790621, 0.33600001595914364, 0.0, 0.0, 0.0, 0.0, 0.0, 1.7103943967907648E9, 0.0, 2024-03-13 22:33:16.790
26.0, -670.5472325053997, -312.6668559955433, -432.0799916307442, -351.78620953205973, 0.9120000433176756, 0.3680000174790621, 0.33600001595914364, 0.0, 0.0, 0.0, 0.0, 0.0, 1.7103943967907648E9, 0.0, 2024-03-13 22:33:16.790
27.0, -666.0743121583946, -317.49506683833897, -432.6708958237432, -355.38025338947773, 0.9120000433176756, 0.3680000174790621, 0.33600001595914364, 0.0, 0.0, 0.0, 0.0, 0.0, 1.7103943968063471E9, 0.0, 2024-03-13 22:33:16.806
27.0, -679.27615900198, -321.3359440928325, -425.0041009145789, -360.67221182677895, 0.9120000433176756, 0.3680000174790621, 0.33600001595914364, 0.0, 0.0, 0.0, 0.0, 0.0, 1.7103943968063471E9, 0.0, 2024-03-13 22:33:16.806
28.0, -698.4020073753782, -324.7205535527319, -454.5717499642633, -371.30474740080535, 0.9120000433176756, 0.3680000174790621, 0.33600001595914364, 0.0, 0.0, 0.0, 0.0, 0.0, 1.7103943968070517E9, 0.0, 2024-03-13 22:33:16.807
28.0, -677.9185753180645, -318.9611076209694, -440.0721578360535, -363.4397377939895, 0.9120000433176756, 0.3680000174790621, 0.33600001595914364, 0.0, 0.0, 0.0, 0.0, 0.0, 1.7103943968070517E9, 0.0, 2024-03-13 22:33:16.807
29.0, -684.7102336375974, -322.9254015740007, -417.79731369996443, -355.07732149306685, 0.9120000433176756, 0.3680000174790621, 0.33600001595914364, 0.0, 0.0, 0.0, 0.0, 0.0, 1.7103943968207707E9, 0.0, 2024-03-13 22:33:16.820
29.0, -692.5602836445905, -331.4935123724863, -436.9568211729638, -368.6269790325314, 0.9120000433176756, 0.3680000174790621, 0.33600001595914364, 0.0, 0.0, 0.0, 0.0, 0.0, 1.7103943968207707E9, 0.0, 2024-03-13 22:33:16.820
30.0, -688.8129038889892, -322.7870252756402, -440.46484733140096, -359.3183680428192, 0.9120000433176756, 0.3680000174790621, 0.35200001671910286, 0.0, 0.0, 0.0, 0.0, 0.0, 1.7103943968363504E9, 0.0, 2024-03-13 22:33:16.836
30.0, -672.413442583289, -298.6983296610415, -411.96680966904387, -342.2457247450948, 0.9120000433176756, 0.3680000174790621, 0.35200001671910286, 0.0, 0.0, 0.0, 0.0, 0.0, 1.7103943968363504E9, 0.0, 2024-03-13 22:33:16.836
31.0, -687.7432925016619, -318.2206074297428, -425.449149009306, -354.49015720002353, 0.9120000433176756, 0.3680000174790621, 0.35200001671910286, 0.0, 0.0, 0.0, 0.0, 0.0, 1.7103943968370445E9, 0.0, 2024-03-13 22:33:16.837
31.0, -690.1218688734807, -320.0120195085183, -450.77575150923803, -360.4365981295705, 0.9120000433176756, 0.3680000174790621, 0.35200001671910286, 0.0, 0.0, 0.0, 0.0, 0.0, 1.7103943968370445E9, 0.0, 2024-03-13 22:33:16.837
32.0, -680.8992755827494, -311.98245430365205, -423.12293123686686, -351.5767751345411, 0.9120000433176756, 0.3680000174790621, 0.35200001671910286, 0.0, 0.0, 0.0, 0.0, 0.0, 1.7103943968513372E9, 0.0, 2024-03-13 22:33:16.851
32.0, -687.5188985043205, -334.4966520369053, -429.2152282646857, -371.11775240302086, 0.9120000433176756, 0.3680000174790621, 0.35200001671910286, 0.0, 0.0, 0.0, 0.0, 0.0, 1.7103943968513372E9, 0.0, 2024-03-13 22:33:16.851
33.0, -700.2569977534004, -332.9408536553383, -457.3392759314738, -375.30644035339355, 0.9120000433176756, 0.3680000174790621, 0.35200001671910286, 0.0, 0.0, 0.0, 0.0, 0.0, 1.7103943968663642E9, 0.0, 2024-03-13 22:33:16.866
33.0, -677.9671940174885, -315.75975325889885, -446.2205533632077, -365.4368443703279, 0.9120000433176756, 0.3680000174790621, 0.35200001671910286, 0.0, 0.0, 0.0, 0.0, 0.0, 1.7103943968663642E9, 0.0, 2024-03-13 22:33:16.866
34.0, -694.254458324518, -329.5300648957491, -436.02184618404135, -374.2891875654459, 0.9120000433176756, 0.3680000174790621, 0.35200001671910286, 0.0, 0.0, 0.0, 0.0, 0.0, 1.710394396867072E9, 0.0, 2024-03-13 22:33:16.867
34.0, -692.7697180421092, -335.199753228575, -451.7481254977174, -377.5129813272506, 0.9120000433176756, 0.3680000174790621, 0.35200001671910286, 0.0, 0.0, 0.0, 0.0, 0.0, 1.710394396867072E9, 0.0, 2024-03-13 22:33:16.867
35.0, -689.1008761855774, -333.0904496535659, -458.15083422185853, -375.4410767517984, 0.9120000433176756, 0.3680000174790621, 0.35200001671910286, 0.0, 0.0, 0.0, 0.0, 0.0, 1.7103943968807473E9, 0.0, 2024-03-13 22:33:16.880
35.0, -678.202807714697, -315.565278461203, -428.80383926955983, -363.0582679985091, 0.9120000433176756, 0.3680000174790621, 0.35200001671910286, 0.0, 0.0, 0.0, 0.0, 0.0, 1.7103943968807473E9, 0.0, 2024-03-13 22:33:16.880
36.0, -674.4442082592286, -319.94844120927155, -425.09385851351544, -365.07407407462597, 0.9120000433176756, 0.3680000174790621, 0.35200001671910286, 0.0, 0.0, 0.0, 0.0, 0.0, 1.7103943968964024E9, 0.0, 2024-03-13 22:33:16.896
36.0, -697.3398757879622, -343.8202226264402, -456.7184525388293, -378.52649421524256, 0.9120000433176756, 0.3680000174790621, 0.35200001671910286, 0.0, 0.0, 0.0, 0.0, 0.0, 1.7103943968964024E9, 0.0, 2024-03-13 22:33:16.896
37.0, -679.1639620033093, -331.2018001759425, -433.16830251784995, -366.7757285544649, 0.9120000433176756, 0.3680000174790621, 0.35200001671910286, 0.0, 0.0, 0.0, 0.0, 0.0, 1.7103943968974473E9, 0.0, 2024-03-13 22:33:16.897
37.0, -678.0606915163808, -321.97920688521117, -421.67558995401487, -363.14428569749, 0.9120000433176756, 0.3680000174790621, 0.35200001671910286, 0.0, 0.0, 0.0, 0.0, 0.0, 1.7103943968974473E9, 0.0, 2024-03-13 22:33:16.897
38.0, -686.3744891178794, -322.54767167847604, -438.7557130516507, -364.1017000861466, 0.9120000433176756, 0.3680000174790621, 0.35200001671910286, 0.0, 0.0, 0.0, 0.0, 0.0, 1.7103943969110706E9, 0.0, 2024-03-13 22:33:16.911
38.0, -681.9988061697222, -326.81115762796253, -444.11872958811, -367.1010998506099, 0.9120000433176756, 0.3680000174790621, 0.35200001671910286, 0.0, 0.0, 0.0, 0.0, 0.0, 1.7103943969110706E9, 0.0, 2024-03-13 22:33:16.911
39.0, -688.6670477907173, -333.5280179483816, -435.5169596900232, -375.0222079567611, 0.9120000433176756, 0.3680000174790621, 0.35200001671910286, 0.0, 0.0, 0.0, 0.0, 0.0, 1.7103943969266438E9, 0.0, 2024-03-13 22:33:16.926
39.0, -706.1436002836563, -340.13642117008567, -451.5312113002874, -381.50345457997173, 0.9120000433176756, 0.3680000174790621, 0.35200001671910286, 0.0, 0.0, 0.0, 0.0, 0.0, 1.7103943969266438E9, 0.0, 2024-03-13 22:33:16.926
40.0, -695.7840774063952, -332.29385096300393, -456.4641393418424, -374.1059324676171, 0.9120000433176756, 0.3680000174790621, 0.35200001671910286, 0.0, 0.0, 0.0, 0.0, 0.0, 1.7103943969272745E9, 0.0, 2024-03-13 22:33:16.927
40.0, -681.5537580749951, -329.8703957917169, -438.27700585732237, -373.9825157690793, 0.9120000433176756, 0.3680000174790621, 0.35200001671910286, 0.0, 0.0, 0.0, 0.0, 0.0, 1.7103943969272745E9, 0.0, 2024-03-13 22:33:16.927
41.0, -673.5428923699073, -323.1572753712535, -422.6965826419182, -361.3491337187588, 0.9120000433176756, 0.3680000174790621, 0.35200001671910286, 0.0, 0.0, 0.0, 0.0, 0.0, 1.7103943969408526E9, 0.0, 2024-03-13 22:33:16.940
41.0, -694.7294256188907, -329.036398101598, -457.0101647353731, -369.82000711839646, 0.9120000433176756, 0.3680000174790621, 0.35200001671910286, 0.0, 0.0, 0.0, 0.0, 0.0, 1.7103943969408526E9, 0.0, 2024-03-13 22:33:16.940
42.0, -683.3676095535047, -324.9374677501619, -438.5649781539105, -365.59392016846687, 0.9120000433176756, 0.3680000174790621, 0.35200001671910286, 0.0, 0.0, 0.0, 0.0, 0.0, 1.7103943969563906E9, 0.0, 2024-03-13 22:33:16.956
42.0, -685.0842236331664, -325.7041472410783, -430.27735985210165, -363.9895030874759, 0.9120000433176756, 0.3680000174790621, 0.35200001671910286, 0.0, 0.0, 0.0, 0.0, 0.0, 1.7103943969563906E9, 0.0, 2024-03-13 22:33:16.956
43.0, -685.173981232103, -323.42654816806316, -450.40550141362473, -365.507902469486, 0.9120000433176756, 0.3680000174790621, 0.35200001671910286, 0.0, 0.0, 0.0, 0.0, 0.0, 1.7103943969572039E9, 0.0, 2024-03-13 22:33:16.957
43.0, -673.6251701689325, -319.46225421503186, -431.94535523233935, -350.77643654402345, 0.9120000433176756, 0.3680000174790621, 0.35200001671910286, 0.0, 0.0, 0.0, 0.0, 0.0, 1.7103943969572039E9, 0.0, 2024-03-13 22:33:16.957
44.0, -688.7942043892108, -330.99236577842385, -428.93847566796467, -369.01592862792313, 0.9120000433176756, 0.3680000174790621, 0.35200001671910286, 0.0, 0.0, 0.0, 0.0, 0.0, 1.71039439697079E9, 0.0, 2024-03-13 22:33:16.970
44.0, -695.810256706085, -335.80935692135245, -451.5312113002874, -374.6594376610592, 0.9120000433176756, 0.3680000174790621, 0.35200001671910286, 0.0, 0.0, 0.0, 0.0, 0.0, 1.71039439697079E9, 0.0, 2024-03-13 22:33:16.970
45.0, -693.4765591337346, -328.9354208027944, -458.88385461317375, -368.8027543304488, 0.9120000433176756, 0.3680000174790621, 0.35200001671910286, 0.0, 0.0, 0.0, 0.0, 0.0, 1.7103943969864995E9, 0.0, 2024-03-13 22:33:16.986
45.0, -685.9144814233296, -331.72538616973907, -444.16734828753397, -371.2935277009383, 0.9120000433176756, 0.3680000174790621, 0.35200001671910286, 0.0, 0.0, 0.0, 0.0, 0.0, 1.7103943969864995E9, 0.0, 2024-03-13 22:33:16.986
46.0, -681.6958742733113, -324.02119226101786, -437.91797546157613, -366.37929915916175, 0.9120000433176756, 0.3680000174790621, 0.35200001671910286, 0.0, 0.0, 0.0, 0.0, 0.0, 1.7103943969870837E9, 0.0, 2024-03-13 22:33:16.987
46.0, -688.0275248982944, -317.69328153599054, -452.32780999084935, -360.249603131786, 0.9120000433176756, 0.3680000174790621, 0.35200001671910286, 0.0, 0.0, 0.0, 0.0, 0.0, 1.7103943969870837E9, 0.0, 2024-03-13 22:33:16.987
47.0, -689.5384444803931, -328.3145974101499, -443.7409996925853, -365.5340817691758, 0.9120000433176756, 0.3680000174790621, 0.35200001671910286, 0.0, 0.0, 0.0, 0.0, 0.0, 1.7103943970007527E9, 0.0, 2024-03-13 22:33:17.000
47.0, -691.5467707565986, -321.1078101955354, -418.1376445959322, -357.11182706896216, 0.9120000433176756, 0.3680000174790621, 0.35200001671910286, 0.0, 0.0, 0.0, 0.0, 0.0, 1.7103943970007527E9, 0.0, 2024-03-13 22:33:17.000
48.0, -679.1003837040626, -320.7450398998335, -440.1581755350344, -356.980930570513, 0.9120000433176756, 0.3680000174790621, 0.35200001671910286, 0.0, 0.0, 0.0, 0.0, 0.0, 1.7103943970163667E9, 0.0, 2024-03-13 22:33:17.016
48.0, -690.0769900740124, -324.2717655580491, -448.57669033529237, -363.2415230963379, 0.9120000433176756, 0.3680000174790621, 0.35200001671910286, 0.0, 0.0, 0.0, 0.0, 0.0, 1.7103943970163667E9, 0.0, 2024-03-13 22:33:17.016
49.0, -683.7752586486749, -318.80029192287475, -427.4761747852899, -359.4978832406923, 0.9120000433176756, 0.3680000174790621, 0.35200001671910286, 0.0, 0.0, 0.0, 0.0, 0.0, 1.710394397017158E9, 0.0, 2024-03-13 22:33:17.017
49.0, -677.2117342264391, -320.31495140492916, -440.6443625292741, -361.214497320354, 0.9120000433176756, 0.3680000174790621, 0.35200001671910286, 0.0, 0.0, 0.0, 0.0, 0.0, 1.710394397017158E9, 0.0, 2024-03-13 22:33:17.017
50.0, -688.8540427885018, -338.84615568537265, -457.7244856269099, -366.08384706266224, 0.9120000433176756, 0.3680000174790621, 0.35200001671910286, 0.0, 0.0, 0.0, 0.0, 0.0, 1.710394397030788E9, 0.0, 2024-03-13 22:33:17.030
50.0, -702.1493871309794, -336.09732921794057, -436.1901416820474, -368.33526683598757, 0.9120000433176756, 0.3680000174790621, 0.35200001671910286, 0.0, 0.0, 0.0, 0.0, 0.0, 1.710394397030788E9, 0.0, 2024-03-13 22:33:17.030
51.0, -695.8139966060407, -336.80043040961027, -434.87369689764455, -369.475936322473, 0.9120000433176756, 0.3680000174790621, 0.35200001671910286, 0.0, 0.0, 0.0, 0.0, 0.0, 1.7103943970468707E9, 0.0, 2024-03-13 22:33:17.046
51.0, -689.7665783776902, -326.98693292587996, -449.6837007221766, -366.71589015517384, 0.9120000433176756, 0.3680000174790621, 0.35200001671910286, 0.0, 0.0, 0.0, 0.0, 0.0, 1.7103943970468707E9, 0.0, 2024-03-13 22:33:17.046
52.0, -671.8412378900684, -312.6257170960307, -427.7417076821439, -354.15730610396713, 0.9120000433176756, 0.3680000174790621, 0.35200001671910286, 0.0, 0.0, 0.0, 0.0, 0.0, 1.7103943970472105E9, 0.0, 2024-03-13 22:33:17.047
52.0, -688.8989215879701, -326.0108190374449, -422.04957994958386, -360.141146033071, 0.9120000433176756, 0.3680000174790621, 0.35200001671910286, 0.0, 0.0, 0.0, 0.0, 0.0, 1.7103943970472105E9, 0.0, 2024-03-13 22:33:17.047
53.0, -686.5801836154424, -316.9939202442765, -448.195220539812, -361.33791401889175, 0.9120000433176756, 0.3680000174790621, 0.35200001671910286, 0.0, 0.0, 0.0, 0.0, 0.0, 1.7103943970611277E9, 0.0, 2024-03-13 22:33:17.061
53.0, -670.6930886036716, -320.46454740315676, -440.72664032829925, -361.6857247147709, 0.9120000433176756, 0.3680000174790621, 0.35200001671910286, 0.0, 0.0, 0.0, 0.0, 0.0, 1.7103943970611277E9, 0.0, 2024-03-13 22:33:17.061
54.0, -696.0570901031606, -334.3881949381903, -437.2597530693747, -368.1669713379815, 0.9120000433176756, 0.3680000174790621, 0.35200001671910286, 0.0, 0.0, 0.0, 0.0, 0.0, 1.710394397076569E9, 0.0, 2024-03-13 22:33:17.076
54.0, -688.8353432887234, -335.1586143290624, -445.84656336763874, -371.0354746039957, 0.9120000433176756, 0.3680000174790621, 0.35200001671910286, 0.0, 0.0, 0.0, 0.0, 0.0, 1.710394397076569E9, 0.0, 2024-03-13 22:33:17.076
55.0, -698.5590831735171, -343.59208872914314, -467.455705311615, -377.82713292352855, 0.9120000433176756, 0.3680000174790621, 0.35200001671910286, 0.0, 0.0, 0.0, 0.0, 0.0, 1.710394397077324E9, 0.0, 2024-03-13 22:33:17.077
55.0, -682.0698642688803, -328.4866328081116, -433.2655399166979, -369.3936585234478, 0.9120000433176756, 0.3680000174790621, 0.35200001671910286, 0.0, 0.0, 0.0, 0.0, 0.0, 1.710394397077324E9, 0.0, 2024-03-13 22:33:17.077
56.0, -705.664893089328, -335.22219262830913, -438.4153821556829, -372.52395478636026, 0.9120000433176756, 0.3680000174790621, 0.35200001671910286, 0.0, 0.0, 0.0, 0.0, 0.0, 1.7103943970910892E9, 0.0, 2024-03-13 22:33:17.091
56.0, -704.3110493053682, -337.5259710010141, -469.060122392606, -377.0267943330109, 0.9120000433176756, 0.3680000174790621, 0.35200001671910286, 0.0, 0.0, 0.0, 0.0, 0.0, 1.7103943970910892E9, 0.0, 2024-03-13 22:33:17.091
57.0, -696.0234310035594, -321.1190298954025, -435.28134599281475, -362.78899520169944, 0.9120000433176756, 0.3680000174790621, 0.35200001671910286, 0.0, 0.0, 0.0, 0.0, 0.0, 1.7103943971063545E9, 0.0, 2024-03-13 22:33:17.106
57.0, -686.9504337110557, -331.014805178158, -428.9197761681862, -366.78694825433195, 0.9120000433176756, 0.3680000174790621, 0.35200001671910286, 0.0, 0.0, 0.0, 0.0, 0.0, 1.7103943971063545E9, 0.0, 2024-03-13 22:33:17.106
58.0, -698.2037926777266, -338.3861479908228, -462.7658707671799, -379.56992630288005, 0.9120000433176756, 0.3680000174790621, 0.35200001671910286, 0.0, 0.0, 0.0, 0.0, 0.0, 1.7103943971071384E9, 0.0, 2024-03-13 22:33:17.107
58.0, -685.2973979306407, -328.0864635128528, -452.91871418384835, -373.2083564782515, 0.9120000433176756, 0.3680000174790621, 0.35200001671910286, 0.0, 0.0, 0.0, 0.0, 0.0, 1.7103943971071384E9, 0.0, 2024-03-13 22:33:17.107
59.0, -699.1387676666491, -344.4522657189518, -435.83859108621255, -375.4074176521972, 0.9120000433176756, 0.3680000174790621, 0.35200001671910286, 0.0, 0.0, 0.0, 0.0, 0.0, 1.7103943971207864E9, 0.0, 2024-03-13 22:33:17.120
59.0, -699.4454394630156, -346.21375859808177, -449.42938752518967, -378.01786782126874, 0.9120000433176756, 0.3680000174790621, 0.35200001671910286, 0.0, 0.0, 0.0, 0.0, 0.0, 1.7103943971207864E9, 0.0, 2024-03-13 22:33:17.120
60.0, -701.7267784359865, -333.860869044438, -454.10426246980205, -373.7057631723583, 0.9120000433176756, 0.3680000174790621, 0.35200001671910286, 0.0, 0.0, 0.0, 0.0, 0.0, 1.7103943971363313E9, 0.0, 2024-03-13 22:33:17.136
60.0, -681.4640004760586, -317.5661249374971, -419.8131197760813, -353.6785989096388, 0.9120000433176756, 0.3680000174790621, 0.35200001671910286, 0.0, 0.0, 0.0, 0.0, 0.0, 1.7103943971363313E9, 0.0, 2024-03-13 22:33:17.136
61.0, -693.4429000341333, -333.3111037509516, -427.6930889827199, -368.5746204331517, 0.9120000433176756, 0.3680000174790621, 0.35200001671910286, 0.0, 0.0, 0.0, 0.0, 0.0, 1.71039439713708E9, 0.0, 2024-03-13 22:33:17.137
61.0, -717.3969592503272, -349.6881256569177, -478.44353138143197, -390.5540124727413, 0.9120000433176756, 0.3680000174790621, 0.35200001671910286, 0.0, 0.0, 0.0, 0.0, 0.0, 1.71039439713708E9, 0.0, 2024-03-13 22:33:17.137
62.0, -701.165793442633, -341.51270435377955, -445.17338137561455, -377.2960671298206, 0.9120000433176756, 0.3680000174790621, 0.35200001671910286, 0.0, 0.0, 0.0, 0.0, 0.0, 1.7103943971670563E9, 0.0, 2024-03-13 22:33:17.167
62.0, -703.7051855125464, -341.66230035200715, -441.87478961469606, -375.5158747509122, 0.9120000433176756, 0.3680000174790621, 0.35200001671910286, 0.0, 0.0, 0.0, 0.0, 0.0, 1.7103943971670563E9, 0.0, 2024-03-13 22:33:17.167
63.0, -714.6967514823191, -348.0163903767243, -473.5068634399213, -386.0810921257362, 0.9120000433176756, 0.3680000174790621, 0.35200001671910286, 0.0, 0.0, 0.0, 0.0, 0.0, 1.7103943971677709E9, 0.0, 2024-03-13 22:33:17.167
63.0, -708.5894948546775, -347.5077639827505, -464.4563055471517, -382.20655577164143, 0.9120000433176756, 0.3680000174790621, 0.35200001671910286, 0.0, 0.0, 0.0, 0.0, 0.0, 1.7103943971677709E9, 0.0, 2024-03-13 22:33:17.167
64.0, -714.7266706819646, -347.1262941872701, -438.20594775816426, -379.076259508729, 0.9120000433176756, 0.3680000174790621, 0.35200001671910286, 0.0, 0.0, 0.0, 0.0, 0.0, 1.7103943971685295E9, 0.0, 2024-03-13 22:33:17.168
64.0, -732.8053470677696, -364.0979601861909, -464.19077265029773, -392.5585988489911, 0.9120000433176756, 0.3680000174790621, 0.35200001671910286, 0.0, 0.0, 0.0, 0.0, 0.0, 1.7103943971685295E9, 0.0, 2024-03-13 22:33:17.168
65.0, -719.3267476274632, -346.2324580978602, -452.7803378854878, -379.26699440646917, 0.9120000433176756, 0.3680000174790621, 0.35200001671910286, 0.0, 0.0, 0.0, 0.0, 0.0, 1.7103943971806767E9, 0.0, 2024-03-13 22:33:17.180
65.0, -725.8865321497433, -366.8131275540218, -446.4860862600617, -390.9205226683989, 0.9120000433176756, 0.3680000174790621, 0.35200001671910286, 0.0, 0.0, 0.0, 0.0, 0.0, 1.7103943971806767E9, 0.0, 2024-03-13 22:33:17.180
66.0, -718.2758357399143, -345.1665866104886, -426.3317653988488, -379.4465096043423, 0.9120000433176756, 0.3680000174790621, 0.35200001671910286, 0.0, 0.0, 0.0, 0.0, 0.0, 1.7103943971966815E9, 0.0, 2024-03-13 22:33:17.196
66.0, -739.4810684886761, -375.04090745653957, -483.2156437248923, -400.94345454964787, 0.9120000433176756, 0.3680000174790621, 0.35200001671910286, 0.0, 0.0, 0.0, 0.0, 0.0, 1.7103943971966815E9, 0.0, 2024-03-13 22:33:17.196
67.0, -729.6152124055661, -369.5881333211437, -458.96613241219893, -396.2349205054343, 0.9120000433176756, 0.3680000174790621, 0.35200001671910286, 0.0, 0.0, 0.0, 0.0, 0.0, 1.7103943971975462E9, 0.0, 2024-03-13 22:33:17.197
67.0, -741.2837002673186, -371.94053039327264, -454.06312357028946, -399.1109035713598, 0.9120000433176756, 0.3680000174790621, 0.35200001671910286, 0.0, 0.0, 0.0, 0.0, 0.0, 1.7103943971975462E9, 0.0, 2024-03-13 22:33:17.197
68.0, -745.150756821502, -373.12981857918203, -468.81328899553046, -394.35375082772225, 0.9120000433176756, 0.3680000174790621, 0.35200001671910286, 0.0, 0.0, 0.0, 0.0, 0.0, 1.7103943972109115E9, 0.0, 2024-03-13 22:33:17.210
68.0, -724.6785444640554, -354.3817001013085, -459.9796453001909, -377.1352514317259, 0.9120000433176756, 0.3680000174790621, 0.35200001671910286, 0.0, 0.0, 0.0, 0.0, 0.0, 1.7103943972109115E9, 0.0, 2024-03-13 22:33:17.210
69.0, -716.5704413601197, -345.99684440065175, -426.9301493917592, -366.8318270538002, 0.9120000433176756, 0.3680000174790621, 0.35200001671910286, 0.0, 0.0, 0.0, 0.0, 0.0, 1.7103943972266834E9, 0.0, 2024-03-13 22:33:17.226
69.0, -728.7662551156245, -347.5451629823074, -437.98903356073424, -369.75268891919404, 0.9120000433176756, 0.3680000174790621, 0.35200001671910286, 0.0, 0.0, 0.0, 0.0, 0.0, 1.7103943972266834E9, 0.0, 2024-03-13 22:33:17.226
70.0, -725.8940119496547, -350.07333535235375, -462.58635556930676, -379.3006535060704, 0.9120000433176756, 0.3680000174790621, 0.35200001671910286, 0.0, 0.0, 0.0, 0.0, 0.0, 1.7103943972273383E9, 0.0, 2024-03-13 22:33:17.227
70.0, -726.8925652378239, -353.8730737073347, -444.4814998838119, -376.82109983544797, 0.9120000433176756, 0.3680000174790621, 0.35200001671910286, 0.0, 0.0, 0.0, 0.0, 0.0, 1.7103943972273383E9, 0.0, 2024-03-13 22:33:17.227
71.0, -725.9127114494331, -358.0206227581948, -451.198360204231, -378.6985296132043, 0.9120000433176756, 0.3680000174790621, 0.35200001671910286, 0.0, 0.0, 0.0, 0.0, 0.0, 1.710394397240865E9, 0.0, 2024-03-13 22:33:17.240
71.0, -733.1419380637817, -361.9026389122009, -467.3435083129443, -381.5184141797945, 0.9120000433176756, 0.3680000174790621, 0.35200001671910286, 0.0, 0.0, 0.0, 0.0, 0.0, 1.710394397240865E9, 0.0, 2024-03-13 22:33:17.240
72.0, -727.614365929272, -353.4317655125633, -443.8569365912117, -372.33695978857577, 0.9120000433176756, 0.3680000174790621, 0.35200001671910286, 0.0, 0.0, 0.0, 0.0, 0.0, 1.7103943972567005E9, 0.0, 2024-03-13 22:33:17.256
72.0, -722.4196448908187, -342.84410873800516, -423.6352975307964, -366.8131275540218, 0.9120000433176756, 0.3680000174790621, 0.35200001671910286, 0.0, 0.0, 0.0, 0.0, 0.0, 1.7103943972567005E9, 0.0, 2024-03-13 22:33:17.256
73.0, -709.8909800392576, -330.98488597851247, -454.57922976417467, -370.1790375141427, 0.9120000433176756, 0.3680000174790621, 0.35200001671910286, 0.0, 0.0, 0.0, 0.0, 0.0, 1.71039439725731E9, 0.0, 2024-03-13 22:33:17.257
73.0, -708.9111262508668, -333.21386635210365, -446.0410381653346, -369.52455502189696, 0.9120000433176756, 0.3680000174790621, 0.35200001671910286, 0.0, 0.0, 0.0, 0.0, 0.0, 1.71039439725731E9, 0.0, 2024-03-13 22:33:17.257
74.0, -704.2624306059442, -338.3936277907342, -431.91169613273814, -368.3689259355888, 0.9120000433176756, 0.3680000174790621, 0.35200001671910286, 0.0, 0.0, 0.0, 0.0, 0.0, 1.7103943972707665E9, 0.0, 2024-03-13 22:33:17.270
74.0, -718.7919419337995, -351.3598609371111, -457.313096631784, -384.45423564501107, 0.9120000433176756, 0.3680000174790621, 0.35200001671910286, 0.0, 0.0, 0.0, 0.0, 0.0, 1.7103943972707665E9, 0.0, 2024-03-13 22:33:17.270
75.0, -723.7884482746013, -358.85836034826934, -478.3201146828942, -390.6213306719437, 0.9120000433176756, 0.3680000174790621, 0.35200001671910286, 0.0, 0.0, 0.0, 0.0, 0.0, 1.710394397286278E9, 0.0, 2024-03-13 22:33:17.286
75.0, -717.7335502463393, -359.2136508440599, -449.5715037235059, -388.8860170925036, 0.9120000433176756, 0.3680000174790621, 0.35200001671910286, 0.0, 0.0, 0.0, 0.0, 0.0, 1.710394397286278E9, 0.0, 2024-03-13 22:33:17.286
76.0, -736.4218303249218, -365.5714807687327, -454.1229619695805, -392.3267250517383, 0.9120000433176756, 0.3680000174790621, 0.35200001671910286, 0.0, 0.0, 0.0, 0.0, 0.0, 1.7103943973013463E9, 0.0, 2024-03-13 22:33:17.301
76.0, -735.6327114342712, -362.7553361020982, -465.63063413323835, -387.7864865055308, 0.9120000433176756, 0.3680000174790621, 0.35200001671910286, 0.0, 0.0, 0.0, 0.0, 0.0, 1.7103943973013463E9, 0.0, 2024-03-13 22:33:17.301
77.0, -720.1046468182467, -360.19724453240633, -446.16819476382807, -381.0696261851117, 0.9120000433176756, 0.3680000174790621, 0.35200001671910286, 0.0, 0.0, 0.0, 0.0, 0.0, 1.710394397302136E9, 0.0, 2024-03-13 22:33:17.302
77.0, -722.2289099930786, -356.12075358070433, -444.0439315889962, -387.4050167100504, 0.9120000433176756, 0.3680000174790621, 0.35200001671910286, 0.0, 0.0, 0.0, 0.0, 0.0, 1.710394397302136E9, 0.0, 2024-03-13 22:33:17.302
78.0, -718.6086868359707, -346.247417697683, -459.2017461094074, -382.4795684684068, 0.9120000433176756, 0.3680000174790621, 0.35200001671910286, 0.0, 0.0, 0.0, 0.0, 0.0, 1.710394397316406E9, 0.0, 2024-03-13 22:33:17.316
78.0, -691.7562051541172, -334.21989944018424, -445.68574766954407, -368.8326735300943, 0.9120000433176756, 0.3680000174790621, 0.35200001671910286, 0.0, 0.0, 0.0, 0.0, 0.0, 1.710394397316406E9, 0.0, 2024-03-13 22:33:17.316
79.0, -698.1102951788343, -336.538637412712, -428.8225387693383, -364.7187835788354, 0.9120000433176756, 0.3680000174790621, 0.35200001671910286, 0.0, 0.0, 0.0, 0.0, 0.0, 1.7103943973172312E9, 0.0, 2024-03-13 22:33:17.317
79.0, -710.0630154372193, -344.7963365148753, -446.73291965713724, -368.5073022339493, 0.9120000433176756, 0.3680000174790621, 0.35200001671910286, 0.0, 0.0, 0.0, 0.0, 0.0, 1.7103943973172312E9, 0.0, 2024-03-13 22:33:17.317
80.0, -707.4450854682364, -332.43596716132015, -457.62724822806194, -368.59705983288586, 0.9120000433176756, 0.3680000174790621, 0.3680000174790621, 0.0, 0.0, 0.0, 0.0, 0.0, 1.7103943973308628E9, 0.0, 2024-03-13 22:33:17.330
80.0, -701.5809223377146, -328.80452430434525, -436.3060785806738, -362.8824927005917, 0.9120000433176756, 0.3680000174790621, 0.3680000174790621, 0.0, 0.0, 0.0, 0.0, 0.0, 1.7103943973308628E9, 0.0, 2024-03-13 22:33:17.330
81.0, -700.4439927511849, -337.40629420243204, -440.69298122869805, -365.4405842702836, 0.9120000433176756, 0.3680000174790621, 0.3680000174790621, 0.0, 0.0, 0.0, 0.0, 0.0, 1.710394397346498E9, 0.0, 2024-03-13 22:33:17.346
81.0, -692.9866322395392, -322.9740202734247, -456.00039174733683, -359.3595069423318, 0.9120000433176756, 0.3680000174790621, 0.3680000174790621, 0.0, 0.0, 0.0, 0.0, 0.0, 1.710394397346498E9, 0.0, 2024-03-13 22:33:17.346
82.0, -682.8402836597525, -315.7859325585887, -423.13041103677824, -346.4344126954675, 0.9120000433176756, 0.3680000174790621, 0.3680000174790621, 0.0, 0.0, 0.0, 0.0, 0.0, 1.7103943973470929E9, 0.0, 2024-03-13 22:33:17.347
82.0, -697.3398757879622, -321.80717148724943, -420.31800627009943, -352.2499571265653, 0.9120000433176756, 0.3680000174790621, 0.3680000174790621, 0.0, 0.0, 0.0, 0.0, 0.0, 1.7103943973470929E9, 0.0, 2024-03-13 22:33:17.347
83.0, -702.3139427290298, -333.47939924895763, -447.5332582476549, -360.63107292726636, 0.9120000433176756, 0.3680000174790621, 0.3680000174790621, 0.0, 0.0, 0.0, 0.0, 0.0, 1.710394397360928E9, 0.0, 2024-03-13 22:33:17.360
83.0, -691.4308338579722, -329.8554361918941, -424.6936892182566, -348.4352591717616, 0.9120000433176756, 0.3680000174790621, 0.3680000174790621, 0.0, 0.0, 0.0, 0.0, 0.0, 1.710394397360928E9, 0.0, 2024-03-13 22:33:17.360
84.0, -693.5588369327597, -332.98573245480657, -430.8607842451893, -364.70756387896836, 0.9120000433176756, 0.3680000174790621, 0.3680000174790621, 0.0, 0.0, 0.0, 0.0, 0.0, 1.7103943973765912E9, 0.0, 2024-03-13 22:33:17.376
84.0, -705.7920496878214, -334.77714453358203, -448.28497813874856, -372.5912729855627, 0.9120000433176756, 0.3680000174790621, 0.3680000174790621, 0.0, 0.0, 0.0, 0.0, 0.0, 1.7103943973765912E9, 0.0, 2024-03-13 22:33:17.376
85.0, -690.8960281643085, -322.0427851844579, -452.72797928610817, -361.01254272274673, 0.9120000433176756, 0.3680000174790621, 0.3680000174790621, 0.0, 0.0, 0.0, 0.0, 0.0, 1.7103943973771088E9, 0.0, 2024-03-13 22:33:17.377
85.0, -685.9107415233739, -323.9239548621699, -432.49886042578146, -358.75364314951, 0.9120000433176756, 0.3680000174790621, 0.3680000174790621, 0.0, 0.0, 0.0, 0.0, 0.0, 1.7103943973771088E9, 0.0, 2024-03-13 22:33:17.377
86.0, -706.5624690786935, -329.5338047957048, -437.43552836729214, -363.70901059079915, 0.9120000433176756, 0.3680000174790621, 0.3680000174790621, 0.0, 0.0, 0.0, 0.0, 0.0, 1.7103943973908098E9, 0.0, 2024-03-13 22:33:17.390
86.0, -701.0311570442282, -324.61209645401686, -456.5688565406017, -362.51972240488976, 0.9120000433176756, 0.3680000174790621, 0.3680000174790621, 0.0, 0.0, 0.0, 0.0, 0.0, 1.7103943973908098E9, 0.0, 2024-03-13 22:33:17.390
87.0, -695.9374133045785, -329.9040548913181, -441.1081101237796, -364.6252860799432, 0.9120000433176756, 0.3680000174790621, 0.3680000174790621, 0.0, 0.0, 0.0, 0.0, 0.0, 1.710394397406382E9, 0.0, 2024-03-13 22:33:17.406
87.0, -700.2569977534004, -324.24932615831494, -428.47098817350343, -365.2012306731194, 0.9120000433176756, 0.3680000174790621, 0.3680000174790621, 0.0, 0.0, 0.0, 0.0, 0.0, 1.710394397406382E9, 0.0, 2024-03-13 22:33:17.406
88.0, -698.3122497764416, -323.0076793730259, -440.7191605283879, -358.7947820490226, 0.9120000433176756, 0.3680000174790621, 0.3680000174790621, 0.0, 0.0, 0.0, 0.0, 0.0, 1.7103943974071183E9, 0.0, 2024-03-13 22:33:17.407
88.0, -694.4489331222139, -319.810064910911, -440.1132967355661, -354.86040729563683, 0.9120000433176756, 0.3680000174790621, 0.3680000174790621, 0.0, 0.0, 0.0, 0.0, 0.0, 1.7103943974071183E9, 0.0, 2024-03-13 22:33:17.407
89.0, -689.9947122749873, -317.1173369428143, -419.20725598325953, -350.5071637472138, 0.9120000433176756, 0.3680000174790621, 0.3680000174790621, 0.0, 0.0, 0.0, 0.0, 0.0, 1.7103943974208095E9, 0.0, 2024-03-13 22:33:17.420
89.0, -712.2770362109877, -331.3513961741701, -442.95562070189044, -361.588487315923, 0.9120000433176756, 0.3680000174790621, 0.3680000174790621, 0.0, 0.0, 0.0, 0.0, 0.0, 1.7103943974208095E9, 0.0, 2024-03-13 22:33:17.420
90.0, -694.0824229265563, -324.6420156536624, -442.95936060184613, -360.34310063067824, 0.9120000433176756, 0.3680000174790621, 0.3680000174790621, 0.0, 0.0, 0.0, 0.0, 0.0, 1.7103943974361029E9, 0.0, 2024-03-13 22:33:17.436
90.0, -688.1247622971423, -326.6353823300451, -417.5168212032877, -353.2821695143357, 0.9120000433176756, 0.3680000174790621, 0.3680000174790621, 0.0, 0.0, 0.0, 0.0, 0.0, 1.7103943974361029E9, 0.0, 2024-03-13 22:33:17.436
91.0, -690.3649623706006, -314.4395685745403, -424.75352761754766, -352.9867174178362, 0.9120000433176756, 0.3680000174790621, 0.3680000174790621, 0.0, 0.0, 0.0, 0.0, 0.0, 1.7103943974516578E9, 0.0, 2024-03-13 22:33:17.451
91.0, -687.7769516012631, -318.54223882593215, -447.7202532454394, -357.88598635978997, 0.9120000433176756, 0.3680000174790621, 0.3680000174790621, 0.0, 0.0, 0.0, 0.0, 0.0, 1.7103943974516578E9, 0.0, 2024-03-13 22:33:17.451
92.0, -668.2995526320301, -299.64078444987535, -424.09156532539055, -345.5630160057917, 0.9120000433176756, 0.3680000174790621, 0.3680000174790621, 0.0, 0.0, 0.0, 0.0, 0.0, 1.7103943974522612E9, 0.0, 2024-03-13 22:33:17.452
92.0, -675.1473094508983, -311.4439087100327, -419.9926349739544, -351.29254273790866, 0.9120000433176756, 0.3680000174790621, 0.3680000174790621, 0.0, 0.0, 0.0, 0.0, 0.0, 1.7103943974522612E9, 0.0, 2024-03-13 22:33:17.452
93.0, -684.2240466433577, -312.30782559979707, -440.9024156262167, -355.3914730893448, 0.9120000433176756, 0.3680000174790621, 0.3680000174790621, 0.0, 0.0, 0.0, 0.0, 0.0, 1.710394397466364E9, 0.0, 2024-03-13 22:33:17.466
93.0, -666.8970901486464, -306.1444704728201, -418.87066498724744, -337.10336230602115, 0.9120000433176756, 0.3680000174790621, 0.3680000174790621, 0.0, 0.0, 0.0, 0.0, 0.0, 1.710394397466364E9, 0.0, 2024-03-13 22:33:17.466
94.0, -667.263600344304, -310.45657512173057, -393.66747918585315, -332.5967828594148, 0.9120000433176756, 0.3680000174790621, 0.3680000174790621, 0.0, 0.0, 0.0, 0.0, 0.0, 1.710394397467085E9, 0.0, 2024-03-13 22:33:17.467
94.0, -696.7489715949632, -324.9038086505607, -438.269526057411, -355.1334199924022, 0.9120000433176756, 0.3680000174790621, 0.3680000174790621, 0.0, 0.0, 0.0, 0.0, 0.0, 1.710394397467085E9, 0.0, 2024-03-13 22:33:17.467
95.0, -689.1981135844253, -319.09948391932994, -439.5223925425671, -347.81069587916136, 0.9120000433176756, 0.3680000174790621, 0.3680000174790621, 0.0, 0.0, 0.0, 0.0, 0.0, 1.7103943974807458E9, 0.0, 2024-03-13 22:33:17.480
95.0, -679.9343813941814, -320.13917610701174, -416.6678639133461, -346.69620569236577, 0.9120000433176756, 0.3680000174790621, 0.3680000174790621, 0.0, 0.0, 0.0, 0.0, 0.0, 1.7103943974807458E9, 0.0, 2024-03-13 22:33:17.480
96.0, -686.0004991223104, -320.72634040005505, -432.1959285293706, -355.3129351902753, 0.9120000433176756, 0.3680000174790621, 0.3680000174790621, 0.0, 0.0, 0.0, 0.0, 0.0, 1.7103943974963837E9, 0.0, 2024-03-13 22:33:17.496
96.0, -673.4082559715025, -301.85854512359947, -435.09809089498594, -340.3383757676929, 0.9120000433176756, 0.3680000174790621, 0.3680000174790621, 0.0, 0.0, 0.0, 0.0, 0.0, 1.7103943974963837E9, 0.0, 2024-03-13 22:33:17.496
97.0, -678.094350615982, -311.1858556130901, -426.42900279769674, -347.73215798009187, 0.9120000433176756, 0.3680000174790621, 0.3680000174790621, 0.0, 0.0, 0.0, 0.0, 0.0, 1.7103943974970913E9, 0.0, 2024-03-13 22:33:17.497
97.0, -691.7898642537184, -332.77255815733224, -425.3706111102365, -354.08250810485333, 0.9120000433176756, 0.3680000174790621, 0.3680000174790621, 0.0, 0.0, 0.0, 0.0, 0.0, 1.7103943974970913E9, 0.0, 2024-03-13 22:33:17.497
98.0, -691.1129423617385, -325.80512453988194, -451.02632480626926, -363.00964929908514, 0.9120000433176756, 0.3680000174790621, 0.3680000174790621, 0.0, 0.0, 0.0, 0.0, 0.0, 1.7103943975107355E9, 0.0, 2024-03-13 22:33:17.510
98.0, -677.7016611206345, -322.84312377497554, -435.700214787852, -349.1757593629882, 0.9120000433176756, 0.3680000174790621, 0.3680000174790621, 0.0, 0.0, 0.0, 0.0, 0.0, 1.7103943975107355E9, 0.0, 2024-03-13 22:33:17.510
99.0, -689.8712955764495, -325.5171522432938, -424.1888027242385, -355.5859478870407, 0.9120000433176756, 0.3680000174790621, 0.3680000174790621, 0.0, 0.0, 0.0, 0.0, 0.0, 1.7103943975267017E9, 0.0, 2024-03-13 22:33:17.526
99.0, -698.0878557791002, -336.13472821749747, -450.5999762113206, -367.7406227430329, 0.9120000433176756, 0.3680000174790621, 0.3680000174790621, 0.0, 0.0, 0.0, 0.0, 0.0, 1.7103943975267017E9, 0.0, 2024-03-13 22:33:17.526
100.0, -684.8560897358693, -314.6677024718374, -443.43806779617444, -352.2088182270527, 0.9120000433176756, 0.3680000174790621, 0.3680000174790621, 0.0, 0.0, 0.0, 0.0, 0.0, 1.7103943975272436E9, 0.0, 2024-03-13 22:33:17.527
100.0, -682.6906876615249, -315.565278461203, -414.9549897336401, -346.58774859365076, 0.9120000433176756, 0.3680000174790621, 0.3680000174790621, 0.0, 0.0, 0.0, 0.0, 0.0, 1.7103943975272436E9, 0.0, 2024-03-13 22:33:17.527
0.0, -696.1169285024516, -324.7841318519786, -428.62993392162025, -358.55168855190277, 0.9120000433176756, 0.3680000174790621, 0.3680000174790621, 0.0, 0.0, 0.0, 0.0, 0.0, 1.7103943975415373E9, 0.0, 2024-03-13 22:33:17.541
1.0, -699.0527499676682, -326.0856170365587, -452.64009163714945, -363.0320886988193, 0.9120000433176756, 0.3680000174790621, 0.3680000174790621, 0.0, 0.0, 0.0, 0.0, 0.0, 1.7103943975422049E9, 0.0, 2024-03-13 22:33:17.542
1.0, -683.5022459519096, -322.46539387945086, -434.277182854712, -358.33851425442845, 0.9120000433176756, 0.3680000174790621, 0.3680000174790621, 0.0, 0.0, 0.0, 0.0, 0.0, 1.7103943975422049E9, 0.0, 2024-03-13 22:33:17.542
2.0, -684.6167361387052, -319.9596609091386, -405.73052649293095, -349.5647089583799, 0.9120000433176756, 0.3680000174790621, 0.3680000174790621, 0.0, 0.0, 0.0, 0.0, 0.0, 1.7103943975558822E9, 0.0, 2024-03-13 22:33:17.555
2.0, -694.9874787158333, -328.65492830611765, -457.5505802789703, -372.0003687925637, 0.9120000433176756, 0.3680000174790621, 0.3680000174790621, 0.0, 0.0, 0.0, 0.0, 0.0, 1.7103943975558822E9, 0.0, 2024-03-13 22:33:17.555
3.0, -676.9761205292307, -320.0082796085626, -441.25957607198507, -355.40643268916756, 0.9120000433176756, 0.3680000174790621, 0.3680000174790621, 0.0, 0.0, 0.0, 0.0, 0.0, 1.710394397571452E9, 0.0, 2024-03-13 22:33:17.571
3.0, -698.6563205723651, -328.4529737085104, -430.56346219871193, -362.29532840754837, 0.9120000433176756, 0.3680000174790621, 0.3680000174790621, 0.0, 0.0, 0.0, 0.0, 0.0, 1.710394397571452E9, 0.0, 2024-03-13 22:33:17.571
4.0, -711.3832001215778, -342.84410873800516, -451.3947049519047, -371.3346666004509, 0.9120000433176756, 0.3680000174790621, 0.3680000174790621, 0.0, 0.0, 0.0, 0.0, 0.0, 1.7103943975722585E9, 0.0, 2024-03-13 22:33:17.572
4.0, -690.8361897650175, -322.3045781813562, -445.51932212151587, -355.9861171822995, 0.9120000433176756, 0.3680000174790621, 0.3680000174790621, 0.0, 0.0, 0.0, 0.0, 0.0, 1.7103943975722585E9, 0.0, 2024-03-13 22:33:17.572
5.0, -686.7746584131382, -324.90754855051637, -419.1679870337248, -352.0854015285149, 0.9120000433176756, 0.3680000174790621, 0.3680000174790621, 0.0, 0.0, 0.0, 0.0, 0.0, 1.710394397585984E9, 0.0, 2024-03-13 22:33:17.585
5.0, -680.3794294889085, -310.0788452262059, -417.5635699527338, -344.48218491859734, 0.9120000433176756, 0.3680000174790621, 0.3680000174790621, 0.0, 0.0, 0.0, 0.0, 0.0, 1.710394397585984E9, 0.0, 2024-03-13 22:33:17.585
6.0, -680.7384598846547, -305.5797455795109, -439.2512497957796, -344.0894954232499, 0.9120000433176756, 0.3680000174790621, 0.3680000174790621, 0.0, 0.0, 0.0, 0.0, 0.0, 1.7103943976013923E9, 0.0, 2024-03-13 22:33:17.601
6.0, -658.9311032430269, -294.5059018107131, -416.57997626438737, -336.69197331089526, 0.9120000433176756, 0.3680000174790621, 0.3680000174790621, 0.0, 0.0, 0.0, 0.0, 0.0, 1.7103943976013923E9, 0.0, 2024-03-13 22:33:17.601
7.0, -673.4456549710594, -305.93877597525716, -403.1836546231061, -339.0780294826254, 0.9120000433176756, 0.3680000174790621, 0.3680000174790621, 0.0, 0.0, 0.0, 0.0, 0.0, 1.7103943976020522E9, 0.0, 2024-03-13 22:33:17.602
7.0, -694.3105568238534, -323.7818386638537, -448.27562838885933, -360.45155772939324, 0.9120000433176756, 0.3680000174790621, 0.3680000174790621, 0.0, 0.0, 0.0, 0.0, 0.0, 1.7103943976020522E9, 0.0, 2024-03-13 22:33:17.602
8.0, -692.2984906476922, -322.3419771809131, -443.503516045399, -356.2853091787547, 0.9120000433176756, 0.3680000174790621, 0.3680000174790621, 0.0, 0.0, 0.0, 0.0, 0.0, 1.7103943976159654E9, 0.0, 2024-03-13 22:33:17.615
8.0, -690.2789446716197, -324.12964935973287, -421.62884120456874, -356.19181167986244, 0.9120000433176756, 0.3680000174790621, 0.3680000174790621, 0.0, 0.0, 0.0, 0.0, 0.0, 1.7103943976159654E9, 0.0, 2024-03-13 22:33:17.615
9.0, -700.3130962527357, -330.18080748803914, -441.89161916449666, -356.6219001747668, 0.9120000433176756, 0.3680000174790621, 0.3680000174790621, 0.0, 0.0, 0.0, 0.0, 0.0, 1.7103943976313825E9, 0.0, 2024-03-13 22:33:17.631
9.0, -705.7957895877771, -336.9836855074391, -450.3998915636912, -361.8465404128656, 0.9120000433176756, 0.3680000174790621, 0.3680000174790621, 0.0, 0.0, 0.0, 0.0, 0.0, 1.7103943976313825E9, 0.0, 2024-03-13 22:33:17.631
10.0, -688.4164744936861, -318.94988792110234, -413.73391239810735, -346.1613999987021, 0.9120000433176756, 0.3680000174790621, 0.3680000174790621, 0.0, 0.0, 0.0, 0.0, 0.0, 1.71039439763208E9, 0.0, 2024-03-13 22:33:17.632
10.0, -694.5648700208403, -326.298791334033, -422.2085256977007, -356.1357131805271, 0.9120000433176756, 0.3680000174790621, 0.3680000174790621, 0.0, 0.0, 0.0, 0.0, 0.0, 1.71039439763208E9, 0.0, 2024-03-13 22:33:17.632
11.0, -695.6120420084335, -337.70548619888723, -454.4838623153046, -363.67161159124225, 0.9120000433176756, 0.3680000174790621, 0.3680000174790621, 0.0, 0.0, 0.0, 0.0, 0.0, 1.7103943976460598E9, 0.0, 2024-03-13 22:33:17.646
11.0, -689.3477095826529, -326.4222080325708, -436.0311959339306, -357.511996364221, 0.9120000433176756, 0.3680000174790621, 0.3680000174790621, 0.0, 0.0, 0.0, 0.0, 0.0, 1.7103943976460598E9, 0.0, 2024-03-13 22:33:17.646
12.0, -688.6820073905401, -329.7133199935779, -431.382500289008, -355.85522068385035, 0.9120000433176756, 0.3680000174790621, 0.3680000174790621, 0.0, 0.0, 0.0, 0.0, 0.0, 1.710394397661376E9, 0.0, 2024-03-13 22:33:17.661
12.0, -691.999298651237, -326.0444781370461, -447.49772919807583, -360.00276973471045, 0.9120000433176756, 0.3680000174790621, 0.3680000174790621, 0.0, 0.0, 0.0, 0.0, 0.0, 1.710394397661376E9, 0.0, 2024-03-13 22:33:17.661
13.0, -684.7738119368441, -321.80717148724943, -442.2057707607746, -356.7191375736147, 0.9120000433176756, 0.3680000174790621, 0.3680000174790621, 0.0, 0.0, 0.0, 0.0, 0.0, 1.7103943976620953E9, 0.0, 2024-03-13 22:33:17.662
13.0, -684.1081097447313, -321.01805259659886, -416.77445106208324, -351.92084593046457, 0.9120000433176756, 0.3680000174790621, 0.3680000174790621, 0.0, 0.0, 0.0, 0.0, 0.0, 1.7103943976620953E9, 0.0, 2024-03-13 22:33:17.662
14.0, -677.7764591197483, -313.6990683833137, -419.47465883009136, -340.3832545671612, 0.9120000433176756, 0.3680000174790621, 0.3680000174790621, 0.0, 0.0, 0.0, 0.0, 0.0, 1.7103943976762965E9, 0.0, 2024-03-13 22:33:17.676
14.0, -673.172642274294, -314.34607107564807, -435.9115191353485, -349.55348925851285, 0.9120000433176756, 0.3680000174790621, 0.3680000174790621, 0.0, 0.0, 0.0, 0.0, 0.0, 1.7103943976762965E9, 0.0, 2024-03-13 22:33:17.676
15.0, -674.3806299599819, -308.20141544844955, -404.1597685115412, -340.07658277079463, 0.9120000433176756, 0.3680000174790621, 0.3680000174790621, 0.0, 0.0, 0.0, 0.0, 0.0, 1.7103943976916673E9, 0.0, 2024-03-13 22:33:17.691
15.0, -683.9136349470355, -320.69642120040953, -422.96772538870573, -352.4593915240839, 0.9120000433176756, 0.3680000174790621, 0.3680000174790621, 0.0, 0.0, 0.0, 0.0, 0.0, 1.7103943976916673E9, 0.0, 2024-03-13 22:33:17.691
16.0, -687.6497950027697, -322.0727043841034, -445.53428172133863, -352.89321991894394, 0.9120000433176756, 0.3680000174790621, 0.3680000174790621, 0.0, 0.0, 0.0, 0.0, 0.0, 1.7103943976923308E9, 0.0, 2024-03-13 22:33:17.692
16.0, -683.1245160563849, -315.673735559918, -432.0182832814753, -348.37542077247053, 0.9120000433176756, 0.3680000174790621, 0.3680000174790621, 0.0, 0.0, 0.0, 0.0, 0.0, 1.7103943976923308E9, 0.0, 2024-03-13 22:33:17.692
17.0, -697.5156510858797, -325.1543819475919, -458.49677496775985, -357.19410486798733, 0.9120000433176756, 0.3680000174790621, 0.3680000174790621, 0.0, 0.0, 0.0, 0.0, 0.0, 1.7103943977221863E9, 0.0, 2024-03-13 22:33:17.722
17.0, -692.6762205432169, -320.5169060025364, -505.4287795117125, -355.73928378522396, 0.9120000433176756, 0.3680000174790621, 0.3680000174790621, 0.0, 0.0, 0.0, 0.0, 0.0, 1.7103943977221863E9, 0.0, 2024-03-13 22:33:17.722
18.0, -672.9632078767754, -312.6631160955876, -499.7516113789752, -344.643000616692, 0.9120000433176756, 0.3680000174790621, 0.3680000174790621, 0.0, 0.0, 0.0, 0.0, 0.0, 1.7103943977228143E9, 0.0, 2024-03-13 22:33:17.722
18.0, -680.8506568833254, -316.373096851632, -486.77415853273124, -345.7275716038421, 0.9120000433176756, 0.3680000174790621, 0.3680000174790621, 0.0, 0.0, 0.0, 0.0, 0.0, 1.7103943977228143E9, 0.0, 2024-03-13 22:33:17.722
19.0, -686.258552219253, -319.8624235102907, -516.8990526758134, -356.70417797379196, 0.9120000433176756, 0.3680000174790621, 0.3680000174790621, 0.0, 0.0, 0.0, 0.0, 0.0, 1.7103943977236128E9, 0.0, 2024-03-13 22:33:17.723
19.0, -680.192434491124, -311.4364289101213, -522.4228849103674, -351.4234392363578, 0.9120000433176756, 0.3680000174790621, 0.3680000174790621, 0.0, 0.0, 0.0, 0.0, 0.0, 1.7103943977236128E9, 0.0, 2024-03-13 22:33:17.723
20.0, -674.2422536616214, -312.5284796971828, -499.4150203829631, -344.6766597162932, 0.9120000433176756, 0.3680000174790621, 0.3680000174790621, 0.0, 0.0, 0.0, 0.0, 0.0, 1.7103943977357764E9, 0.0, 2024-03-13 22:33:17.735
20.0, -692.4331270460971, -323.60980326589197, -508.19256557896733, -353.4542049122974, 0.9120000433176756, 0.3680000174790621, 0.3680000174790621, 0.0, 0.0, 0.0, 0.0, 0.0, 1.7103943977357764E9, 0.0, 2024-03-13 22:33:17.735
21.0, -686.3146507185884, -309.8095724293962, -524.5957667846233, -351.240184138529, 0.9120000433176756, 0.35200001671910286, 0.3680000174790621, 0.0, 0.0, 0.0, 0.0, 0.0, 1.7103943977513764E9, 0.0, 2024-03-13 22:33:17.751
21.0, -671.074558399152, -300.64307763800025, -485.73446634504944, -332.6042626593262, 0.9120000433176756, 0.35200001671910286, 0.3680000174790621, 0.0, 0.0, 0.0, 0.0, 0.0, 1.7103943977513764E9, 0.0, 2024-03-13 22:33:17.751
22.0, -683.6555818500929, -321.10407029557973, -503.28955673705786, -356.2703495789319, 0.9120000433176756, 0.35200001671910286, 0.3680000174790621, 0.0, 0.0, 0.0, 0.0, 0.0, 1.7103943977521143E9, 0.0, 2024-03-13 22:33:17.752
22.0, -705.5938349901699, -335.73829882219434, -544.9744816431776, -375.48595555126667, 0.9120000433176756, 0.35200001671910286, 0.3680000174790621, 0.0, 0.0, 0.0, 0.0, 0.0, 1.7103943977521143E9, 0.0, 2024-03-13 22:33:17.752
23.0, -695.1146353143267, -331.2242395756766, -525.8000145703554, -362.96103059966117, 0.9120000433176756, 0.35200001671910286, 0.3680000174790621, 0.0, 0.0, 0.0, 0.0, 0.0, 1.7103943977657776E9, 0.0, 2024-03-13 22:33:17.765
23.0, -688.7605452896096, -325.2291799467057, -503.73460483178496, -357.1006073690951, 0.9120000433176756, 0.35200001671910286, 0.3680000174790621, 0.0, 0.0, 0.0, 0.0, 0.0, 1.7103943977657776E9, 0.0, 2024-03-13 22:33:17.765
24.0, -693.9216072284617, -338.9658324839547, -514.6775521021336, -360.8105881251395, 0.9120000433176756, 0.35200001671910286, 0.3680000174790621, 0.0, 0.0, 0.0, 0.0, 0.0, 1.7103943977813776E9, 0.0, 2024-03-13 22:33:17.781
24.0, -695.0136580155231, -332.84361625649035, -525.5382215734571, -357.32874126639217, 0.9120000433176756, 0.35200001671910286, 0.3680000174790621, 0.0, 0.0, 0.0, 0.0, 0.0, 1.7103943977813776E9, 0.0, 2024-03-13 22:33:17.781
25.0, -687.3693025060929, -323.36296986881644, -501.7599376551807, -354.81552849616855, 0.9120000433176756, 0.35200001671910286, 0.3680000174790621, 0.0, 0.0, 0.0, 0.0, 0.0, 1.7103943977821157E9, 0.0, 2024-03-13 22:33:17.782
25.0, -696.2964437003247, -328.9802996022627, -504.1310342270881, -361.40523221809417, 0.9120000433176756, 0.35200001671910286, 0.3680000174790621, 0.0, 0.0, 0.0, 0.0, 0.0, 1.7103943977821157E9, 0.0, 2024-03-13 22:33:17.782
26.0, -672.7949123787694, -319.88112301006913, -511.3453012416139, -351.96572472993284, 0.9120000433176756, 0.35200001671910286, 0.3680000174790621, 0.0, 0.0, 0.0, 0.0, 0.0, 1.7103943977960145E9, 0.0, 2024-03-13 22:33:17.796
26.0, -676.0112263406627, -311.4813077095896, -498.92883338872343, -348.93266586586833, 0.9120000433176756, 0.35200001671910286, 0.3680000174790621, 0.0, 0.0, 0.0, 0.0, 0.0, 1.7103943977960145E9, 0.0, 2024-03-13 22:33:17.796
27.0, -687.9041081997566, -311.597244608216, -493.46857945341617, -352.9006997188553, 0.9120000433176756, 0.35200001671910286, 0.3680000174790621, 0.0, 0.0, 0.0, 0.0, 0.0, 1.7103943978114333E9, 0.0, 2024-03-13 22:33:17.811
27.0, -690.5257780686952, -315.06413186714053, -511.0947279445827, -357.41849886532873, 0.9120000433176756, 0.35200001671910286, 0.3680000174790621, 0.0, 0.0, 0.0, 0.0, 0.0, 1.7103943978114333E9, 0.0, 2024-03-13 22:33:17.811
28.0, -693.8318496295251, -315.20250816550106, -509.25843706633896, -356.3601071778685, 0.9120000433176756, 0.35200001671910286, 0.3680000174790621, 0.0, 0.0, 0.0, 0.0, 0.0, 1.7103943978122509E9, 0.0, 2024-03-13 22:33:17.812
28.0, -685.3871555295773, -316.90790254529566, -485.3043778501451, -352.26491672638804, 0.9120000433176756, 0.35200001671910286, 0.3680000174790621, 0.0, 0.0, 0.0, 0.0, 0.0, 1.7103943978122509E9, 0.0, 2024-03-13 22:33:17.812
29.0, -694.4676326219924, -330.7081333817914, -514.0081100100651, -369.41609792318195, 0.9120000433176756, 0.35200001671910286, 0.3680000174790621, 0.0, 0.0, 0.0, 0.0, 0.0, 1.7103943978261137E9, 0.0, 2024-03-13 22:33:17.826
29.0, -695.2417919128202, -334.10022264160216, -521.6749049192294, -370.7998609067872, 0.9120000433176756, 0.35200001671910286, 0.3680000174790621, 0.0, 0.0, 0.0, 0.0, 0.0, 1.7103943978261137E9, 0.0, 2024-03-13 22:33:17.826
30.0, -690.0358511744998, -324.09599026013166, -493.4274405539036, -361.2032776204869, 0.9120000433176756, 0.35200001671910286, 0.3680000174790621, 0.0, 0.0, 0.0, 0.0, 0.0, 1.7103943978413925E9, 0.0, 2024-03-13 22:33:17.841
30.0, -701.5435233381577, -330.1284488886595, -503.154920338653, -368.0360748395324, 0.9120000433176756, 0.35200001671910286, 0.3680000174790621, 0.0, 0.0, 0.0, 0.0, 0.0, 1.7103943978413925E9, 0.0, 2024-03-13 22:33:17.841
31.0, -684.0968900448643, -319.53331231418997, -518.0546817621216, -368.1445319382474, 0.9120000433176756, 0.35200001671910286, 0.3680000174790621, 0.0, 0.0, 0.0, 0.0, 0.0, 1.7103943978420925E9, 0.0, 2024-03-13 22:33:17.842
31.0, -664.2642005798407, -313.6242703841999, -482.7537660803646, -351.2701033381745, 0.9120000433176756, 0.35200001671910286, 0.3680000174790621, 0.0, 0.0, 0.0, 0.0, 0.0, 1.7103943978420925E9, 0.0, 2024-03-13 22:33:17.842
32.0, -682.4662936641835, -323.53500526677817, -489.5342047000304, -360.78814872540534, 0.9120000433176756, 0.35200001671910286, 0.3680000174790621, 0.0, 0.0, 0.0, 0.0, 0.0, 1.7103943978557663E9, 0.0, 2024-03-13 22:33:17.855
32.0, -686.6624614144675, -325.0160056492314, -505.99350440502167, -360.5338355284184, 0.9120000433176756, 0.35200001671910286, 0.3680000174790621, 0.0, 0.0, 0.0, 0.0, 0.0, 1.7103943978557663E9, 0.0, 2024-03-13 22:33:17.855
33.0, -690.215366372373, -321.7922118874267, -497.0102647114545, -353.9067328069359, 0.9120000433176756, 0.35200001671910286, 0.3680000174790621, 0.0, 0.0, 0.0, 0.0, 0.0, 1.710394397871394E9, 0.0, 2024-03-13 22:33:17.871
33.0, -685.3796757296659, -316.5675716493279, -477.6076637413353, -350.33138844929636, 0.9120000433176756, 0.35200001671910286, 0.3680000174790621, 0.0, 0.0, 0.0, 0.0, 0.0, 1.710394397871394E9, 0.0, 2024-03-13 22:33:17.871
34.0, -691.7113263546489, -324.09973016008735, -503.4952512346208, -361.82036111317575, 0.9120000433176756, 0.35200001671910286, 0.3680000174790621, 0.0, 0.0, 0.0, 0.0, 0.0, 1.710394397872104E9, 0.0, 2024-03-13 22:33:17.872
34.0, -688.0237849983387, -327.98922611400485, -507.9083331823349, -365.8781525650993, 0.9120000433176756, 0.35200001671910286, 0.3680000174790621, 0.0, 0.0, 0.0, 0.0, 0.0, 1.710394397872104E9, 0.0, 2024-03-13 22:33:17.872
35.0, -678.1354895154946, -318.3702034279704, -476.31739825662225, -354.6584526980296, 0.9120000433176756, 0.35200001671910286, 0.3680000174790621, 0.0, 0.0, 0.0, 0.0, 0.0, 1.710394397886233E9, 0.0, 2024-03-13 22:33:17.886
35.0, -696.4759588981979, -338.73021878674626, -488.14670181646943, -371.30100750084966, 0.9120000433176756, 0.35200001671910286, 0.3680000174790621, 0.0, 0.0, 0.0, 0.0, 0.0, 1.710394397886233E9, 0.0, 2024-03-13 22:33:17.886
36.0, -709.8648007395677, -352.59776782244444, -518.8176213530824, -378.9865019097924, 0.9120000433176756, 0.35200001671910286, 0.3680000174790621, 0.0, 0.0, 0.0, 0.0, 0.0, 1.7103943979014297E9, 0.0, 2024-03-13 22:33:17.901
36.0, -693.3419227353297, -336.4563596136868, -484.9715267540887, -365.182531173341, 0.9120000433176756, 0.35200001671910286, 0.3680000174790621, 0.0, 0.0, 0.0, 0.0, 0.0, 1.7103943979014297E9, 0.0, 2024-03-13 22:33:17.901
37.0, -685.8509031240828, -323.72948006447405, -467.6744894590229, -358.9929967466742, 0.9120000433176756, 0.35200001671910286, 0.3680000174790621, 0.0, 0.0, 0.0, 0.0, 0.0, 1.7103943979021041E9, 0.0, 2024-03-13 22:33:17.902
37.0, -696.2515649008565, -327.35344312153757, -493.5957360519096, -361.6258863154799, 0.9120000433176756, 0.35200001671910286, 0.3680000174790621, 0.0, 0.0, 0.0, 0.0, 0.0, 1.7103943979021041E9, 0.0, 2024-03-13 22:33:17.902
38.0, -708.5072170556523, -337.189380005002, -499.7516113789752, -371.5179216982797, 0.9120000433176756, 0.35200001671910286, 0.3680000174790621, 0.0, 0.0, 0.0, 0.0, 0.0, 1.7103943979157383E9, 0.0, 2024-03-13 22:33:17.915
38.0, -697.9120804811828, -339.65397407580167, -479.9974598130211, -369.9808228164911, 0.9120000433176756, 0.35200001671910286, 0.3680000174790621, 0.0, 0.0, 0.0, 0.0, 0.0, 1.7103943979157383E9, 0.0, 2024-03-13 22:33:17.915
39.0, -700.2569977534004, -338.28891059197485, -492.0511573702097, -372.9914422808215, 0.9120000433176756, 0.35200001671910286, 0.3680000174790621, 0.0, 0.0, 0.0, 0.0, 0.0, 1.7103943979317083E9, 0.0, 2024-03-13 22:33:17.931
39.0, -699.333242464345, -340.21869896911085, -511.838968035765, -376.86597863491625, 0.9120000433176756, 0.35200001671910286, 0.3680000174790621, 0.0, 0.0, 0.0, 0.0, 0.0, 1.7103943979317083E9, 0.0, 2024-03-13 22:33:17.931
40.0, -692.5752432444133, -334.24607873987406, -478.01905273646116, -369.56195402145386, 0.9120000433176756, 0.35200001671910286, 0.3680000174790621, 0.0, 0.0, 0.0, 0.0, 0.0, 1.710394397932252E9, 0.0, 2024-03-13 22:33:17.932
40.0, -696.9920650920831, -335.199753228575, -477.1588757466525, -370.9943357044831, 0.9120000433176756, 0.35200001671910286, 0.3680000174790621, 0.0, 0.0, 0.0, 0.0, 0.0, 1.710394397932252E9, 0.0, 2024-03-13 22:33:17.932
41.0, -699.9091870575212, -330.3528428860009, -503.8355821305886, -375.34757925290614, 0.9120000433176756, 0.35200001671910286, 0.3680000174790621, 0.0, 0.0, 0.0, 0.0, 0.0, 1.710394397946089E9, 0.0, 2024-03-13 22:33:17.946
41.0, -687.1897873082198, -329.17103450000286, -474.09963758289814, -365.5153822693974, 0.9120000433176756, 0.35200001671910286, 0.3680000174790621, 0.0, 0.0, 0.0, 0.0, 0.0, 1.710394397946089E9, 0.0, 2024-03-13 22:33:17.946
42.0, -691.4906722572632, -330.10600948892534, -462.113258224912, -358.7648628493771, 0.9120000433176756, 0.35200001671910286, 0.3680000174790621, 0.0, 0.0, 0.0, 0.0, 0.0, 1.7103943979779642E9, 0.0, 2024-03-13 22:33:17.977
42.0, -698.8320958702825, -330.58097678329796, -491.0451242821291, -364.59536688029766, 0.9120000433176756, 0.35200001671910286, 0.3680000174790621, 0.0, 0.0, 0.0, 0.0, 0.0, 1.7103943979779642E9, 0.0, 2024-03-13 22:33:17.977
43.0, -683.7303798492067, -315.3259248640388, -468.2317345524207, -348.611034469679, 0.9120000433176756, 0.35200001671910286, 0.3680000174790621, 0.0, 0.0, 0.0, 0.0, 0.0, 1.7103943979785073E9, 0.0, 2024-03-13 22:33:17.978
43.0, -691.1952201607637, -324.17452815920115, -455.0635468084365, -352.51175012346357, 0.9120000433176756, 0.35200001671910286, 0.3680000174790621, 0.0, 0.0, 0.0, 0.0, 0.0, 1.7103943979785073E9, 0.0, 2024-03-13 22:33:17.978
44.0, -700.840422146488, -326.6690414296463, -475.91348906140774, -362.37012640666217, 0.9120000433176756, 0.35200001671910286, 0.3680000174790621, 0.0, 0.0, 0.0, 0.0, 0.0, 1.7103943979792428E9, 0.0, 2024-03-13 22:33:17.979
44.0, -697.3436156879179, -330.5660171834752, -479.7543663159013, -364.1727581853047, 0.9120000433176756, 0.35200001671910286, 0.3680000174790621, 0.0, 0.0, 0.0, 0.0, 0.0, 1.7103943979792428E9, 0.0, 2024-03-13 22:33:17.979
45.0, -697.0219842917286, -329.66096139419824, -458.5865325666964, -361.85028031282127, 0.9120000433176756, 0.35200001671910286, 0.3680000174790621, 0.0, 0.0, 0.0, 0.0, 0.0, 1.710394397980048E9, 0.0, 2024-03-13 22:33:17.980
45.0, -692.4780058455653, -331.28033807501197, -471.65374301187694, -362.830134101212, 0.9120000433176756, 0.35200001671910286, 0.3680000174790621, 0.0, 0.0, 0.0, 0.0, 0.0, 1.710394397980048E9, 0.0, 2024-03-13 22:33:17.980
46.0, -700.1223613549955, -333.8907882440835, -499.7216921793297, -370.7699417071417, 0.9120000433176756, 0.35200001671910286, 0.3680000174790621, 0.0, 0.0, 0.0, 0.0, 0.0, 1.7103943979909759E9, 0.0, 2024-03-13 22:33:17.990
46.0, -703.3573748166673, -338.13931459374726, -475.86861026193947, -368.5895800329745, 0.9120000433176756, 0.35200001671910286, 0.3680000174790621, 0.0, 0.0, 0.0, 0.0, 0.0, 1.7103943979909759E9, 0.0, 2024-03-13 22:33:17.990
47.0, -696.0047315037809, -329.5225850958377, -460.1086718486622, -362.30280820745975, 0.9120000433176756, 0.35200001671910286, 0.3680000174790621, 0.0, 0.0, 0.0, 0.0, 0.0, 1.7103943980057669E9, 0.0, 2024-03-13 22:33:18.005
47.0, -700.4477326511405, -332.10685596521944, -486.3141508381814, -366.2072637612, 0.9120000433176756, 0.35200001671910286, 0.3680000174790621, 0.0, 0.0, 0.0, 0.0, 0.0, 1.7103943980057669E9, 0.0, 2024-03-13 22:33:18.005
48.0, -674.3095718608238, -310.95024191588163, -468.64312354754657, -350.974651241675, 0.9120000433176756, 0.35200001671910286, 0.3680000174790621, 0.0, 0.0, 0.0, 0.0, 0.0, 1.710394398021436E9, 0.0, 2024-03-13 22:33:18.021
48.0, -686.307170918677, -322.57385097816586, -454.93265030998737, -354.78186939656734, 0.9120000433176756, 0.35200001671910286, 0.3680000174790621, 0.0, 0.0, 0.0, 0.0, 0.0, 1.710394398021436E9, 0.0, 2024-03-13 22:33:18.021
49.0, -683.8425768478774, -316.02528615575284, -478.0714113358408, -362.56834110431373, 0.9120000433176756, 0.35200001671910286, 0.3680000174790621, 0.0, 0.0, 0.0, 0.0, 0.0, 1.7103943980222225E9, 0.0, 2024-03-13 22:33:18.022
49.0, -687.4104414056055, -322.6000302778557, -482.4508341839537, -360.07382783386856, 0.9120000433176756, 0.35200001671910286, 0.3680000174790621, 0.0, 0.0, 0.0, 0.0, 0.0, 1.7103943980222225E9, 0.0, 2024-03-13 22:33:18.022
50.0, -689.5010454808362, -323.718260364607, -455.9873020974919, -355.30171549040824, 0.9120000433176756, 0.35200001671910286, 0.3680000174790621, 0.0, 0.0, 0.0, 0.0, 0.0, 1.7103943980361383E9, 0.0, 2024-03-13 22:33:18.036
50.0, -691.3784752585925, -324.1633084593341, -453.15619783103466, -354.2021849034354, 0.9120000433176756, 0.35200001671910286, 0.3680000174790621, 0.0, 0.0, 0.0, 0.0, 0.0, 1.7103943980361383E9, 0.0, 2024-03-13 22:33:18.036
51.0, -697.7250854833983, -330.8614692799747, -484.0141123654321, -369.19544382579625, 0.9120000433176756, 0.35200001671910286, 0.3680000174790621, 0.0, 0.0, 0.0, 0.0, 0.0, 1.7103943980514424E9, 0.0, 2024-03-13 22:33:18.051
51.0, -694.2843775241636, -321.0778909958899, -455.3178600054234, -351.78620953205973, 0.9120000433176756, 0.35200001671910286, 0.3680000174790621, 0.0, 0.0, 0.0, 0.0, 0.0, 1.7103943980514424E9, 0.0, 2024-03-13 22:33:18.051
52.0, -694.1235618260689, -324.4512807559222, -454.64093811344355, -357.66907216235995, 0.9120000433176756, 0.35200001671910286, 0.3680000174790621, 0.0, 0.0, 0.0, 0.0, 0.0, 1.7103943980521998E9, 0.0, 2024-03-13 22:33:18.052
52.0, -704.868294398766, -334.36201563850045, -483.77475876826793, -364.0568212866783, 0.9120000433176756, 0.35200001671910286, 0.3680000174790621, 0.0, 0.0, 0.0, 0.0, 0.0, 1.7103943980521998E9, 0.0, 2024-03-13 22:33:18.052
53.0, -691.2737580598332, -331.340176474303, -470.1540431296453, -355.73554388526827, 0.9120000433176756, 0.35200001671910286, 0.3680000174790621, 0.0, 0.0, 0.0, 0.0, 0.0, 1.7103943980658417E9, 0.0, 2024-03-13 22:33:18.065
53.0, -691.831003153231, -330.4164211852476, -452.8046472351998, -359.74471663776785, 0.9120000433176756, 0.35200001671910286, 0.3680000174790621, 0.0, 0.0, 0.0, 0.0, 0.0, 1.7103943980658417E9, 0.0, 2024-03-13 22:33:18.065
54.0, -690.8100104653277, -321.57155779004097, -462.4835083205253, -358.4320117533207, 0.9120000433176756, 0.35200001671910286, 0.3680000174790621, 0.0, 0.0, 0.0, 0.0, 0.0, 1.710394398081428E9, 0.0, 2024-03-13 22:33:18.081
54.0, -681.1984675792046, -317.73068053554744, -473.76304658688605, -361.4239317178726, 0.9120000433176756, 0.35200001671910286, 0.3680000174790621, 0.0, 0.0, 0.0, 0.0, 0.0, 1.710394398081428E9, 0.0, 2024-03-13 22:33:18.081
55.0, -692.1339350496419, -321.4780602911487, -456.9858553856611, -363.41355849429965, 0.9120000433176756, 0.35200001671910286, 0.3680000174790621, 0.0, 0.0, 0.0, 0.0, 0.0, 1.7103943980821097E9, 0.0, 2024-03-13 22:33:18.082
55.0, -693.1324883378111, -341.1237547583878, -463.4371828092262, -368.70551693160087, 0.9120000433176756, 0.35200001671910286, 0.3680000174790621, 0.0, 0.0, 0.0, 0.0, 0.0, 1.7103943980821097E9, 0.0, 2024-03-13 22:33:18.082
56.0, -696.9546660925262, -331.9273407673463, -469.0320731429383, -355.66448578611016, 0.9120000433176756, 0.35200001671910286, 0.3680000174790621, 0.0, 0.0, 0.0, 0.0, 0.0, 1.7103943980960352E9, 0.0, 2024-03-13 22:33:18.096
56.0, -689.2691716835834, -328.7147667054087, -461.2979600345716, -363.19664429686964, 0.9120000433176756, 0.35200001671910286, 0.3680000174790621, 0.0, 0.0, 0.0, 0.0, 0.0, 1.7103943980960352E9, 0.0, 2024-03-13 22:33:18.096
57.0, -689.093396385666, -331.29155777487904, -449.0722270794213, -359.63625953905284, 0.9120000433176756, 0.35200001671910286, 0.3680000174790621, 0.0, 0.0, 0.0, 0.0, 0.0, 1.710394398111869E9, 0.0, 2024-03-13 22:33:18.111
57.0, -694.8453625175171, -331.8525427682325, -479.57859101798385, -370.63156540878117, 0.9120000433176756, 0.35200001671910286, 0.3680000174790621, 0.0, 0.0, 0.0, 0.0, 0.0, 1.710394398111869E9, 0.0, 2024-03-13 22:33:18.111
58.0, -692.5228846450336, -335.2408921280876, -467.6632697591558, -367.4302110467106, 0.9120000433176756, 0.35200001671910286, 0.3680000174790621, 0.0, 0.0, 0.0, 0.0, 0.0, 1.7103943981122775E9, 0.0, 2024-03-13 22:33:18.112
58.0, -687.3057242068462, -330.05739078950137, -452.6139123374596, -361.7231237143278, 0.9120000433176756, 0.35200001671910286, 0.3680000174790621, 0.0, 0.0, 0.0, 0.0, 0.0, 1.7103943981122775E9, 0.0, 2024-03-13 22:33:18.112
59.0, -695.3502490115352, -330.83902988024056, -463.75133440550417, -357.7924888608977, 0.9120000433176756, 0.35200001671910286, 0.3680000174790621, 0.0, 0.0, 0.0, 0.0, 0.0, 1.7103943981258128E9, 0.0, 2024-03-13 22:33:18.125
59.0, -706.0351431849413, -341.7557978508994, -480.7753590038046, -366.45409715827554, 0.9120000433176756, 0.35200001671910286, 0.3680000174790621, 0.0, 0.0, 0.0, 0.0, 0.0, 1.7103943981258128E9, 0.0, 2024-03-13 22:33:18.125
60.0, -694.6247084201314, -336.1908267168328, -445.85591311752796, -356.016036381945, 0.9120000433176756, 0.35200001671910286, 0.3680000174790621, 0.0, 0.0, 0.0, 0.0, 0.0, 1.7103943981580205E9, 0.0, 2024-03-13 22:33:18.158
60.0, -695.1931732133962, -325.7004073411226, -452.2586218416691, -358.07298135757446, 0.9120000433176756, 0.35200001671910286, 0.3680000174790621, 0.0, 0.0, 0.0, 0.0, 0.0, 1.7103943981580205E9, 0.0, 2024-03-13 22:33:18.158
61.0, -705.1039080959745, -330.8988682795316, -481.7813920918852, -367.90143844112754, 0.9120000433176756, 0.3680000174790621, 0.3680000174790621, 0.0, 0.0, 0.0, 0.0, 0.0, 1.7103943981586747E9, 0.0, 2024-03-13 22:33:18.158
61.0, -686.3146507185884, -325.73032654076815, -454.502561815083, -352.92687901854515, 0.9120000433176756, 0.3680000174790621, 0.3680000174790621, 0.0, 0.0, 0.0, 0.0, 0.0, 1.7103943981586747E9, 0.0, 2024-03-13 22:33:18.158
62.0, -688.2107799961232, -334.73600563406944, -440.04036868643016, -347.7919963793829, 0.9120000433176756, 0.3680000174790621, 0.3680000174790621, 0.0, 0.0, 0.0, 0.0, 0.0, 1.710394398159697E9, 0.0, 2024-03-13 22:33:18.159
62.0, -686.0191986220889, -312.8463711934164, -456.3612920930609, -352.63142692204565, 0.9120000433176756, 0.3680000174790621, 0.3680000174790621, 0.0, 0.0, 0.0, 0.0, 0.0, 1.710394398159697E9, 0.0, 2024-03-13 22:33:18.159
63.0, -681.374242877122, -316.31325845234096, -452.01178844459355, -347.63118068128824, 0.9120000433176756, 0.3680000174790621, 0.3680000174790621, 0.0, 0.0, 0.0, 0.0, 0.0, 1.710394398160312E9, 0.0, 2024-03-13 22:33:18.160
63.0, -676.1421228391118, -314.9369752686471, -432.455851576291, -345.73879130370915, 0.9120000433176756, 0.3680000174790621, 0.3680000174790621, 0.0, 0.0, 0.0, 0.0, 0.0, 1.710394398160312E9, 0.0, 2024-03-13 22:33:18.160
64.0, -677.0359589285217, -313.23532078880817, -443.48855644557625, -344.80755621474236, 0.9120000433176756, 0.3680000174790621, 0.3680000174790621, 0.0, 0.0, 0.0, 0.0, 0.0, 1.710394398170746E9, 0.0, 2024-03-13 22:33:18.170
64.0, -697.9494794807397, -326.65408182982355, -471.54528591316193, -361.0275023225695, 0.9120000433176756, 0.3680000174790621, 0.3680000174790621, 0.0, 0.0, 0.0, 0.0, 0.0, 1.710394398170746E9, 0.0, 2024-03-13 22:33:18.170
65.0, -701.2405914417468, -337.7915038978681, -457.1167518841103, -369.75642881914973, 0.9120000433176756, 0.3680000174790621, 0.3680000174790621, 0.0, 0.0, 0.0, 0.0, 0.0, 1.710394398185776E9, 0.0, 2024-03-13 22:33:18.185
65.0, -699.9914648565464, -333.535497748293, -458.01432787347585, -370.6540048085153, 0.9120000433176756, 0.3680000174790621, 0.3680000174790621, 0.0, 0.0, 0.0, 0.0, 0.0, 1.710394398185776E9, 0.0, 2024-03-13 22:33:18.185
66.0, -699.5202374621294, -337.61946849990636, -472.24838710483164, -370.8858786057681, 0.9120000433176756, 0.3680000174790621, 0.3680000174790621, 0.0, 0.0, 0.0, 0.0, 0.0, 1.7103943982015975E9, 0.0, 2024-03-13 22:33:18.201
66.0, -695.3539889114909, -328.06402411311865, -440.71729057841003, -356.41620567720383, 0.9120000433176756, 0.3680000174790621, 0.3680000174790621, 0.0, 0.0, 0.0, 0.0, 0.0, 1.7103943982015975E9, 0.0, 2024-03-13 22:33:18.201
67.0, -698.5291639738716, -336.21326611656696, -437.62813321501017, -359.44178474135697, 0.9120000433176756, 0.3680000174790621, 0.3680000174790621, 0.0, 0.0, 0.0, 0.0, 0.0, 1.7103943982024128E9, 0.0, 2024-03-13 22:33:18.202
67.0, -697.5343505856581, -331.5645704716444, -466.8180523691699, -361.696944414638, 0.9120000433176756, 0.3680000174790621, 0.3680000174790621, 0.0, 0.0, 0.0, 0.0, 0.0, 1.7103943982024128E9, 0.0, 2024-03-13 22:33:18.202
68.0, -683.8313571480103, -319.2303804177791, -449.5546741737053, -349.044862864539, 0.9120000433176756, 0.3680000174790621, 0.3680000174790621, 0.0, 0.0, 0.0, 0.0, 0.0, 1.7103943982157793E9, 0.0, 2024-03-13 22:33:18.215
68.0, -694.1273017260246, -330.9400071790442, -438.5032698046416, -356.93231187108904, 0.9120000433176756, 0.3680000174790621, 0.3680000174790621, 0.0, 0.0, 0.0, 0.0, 0.0, 1.7103943982157793E9, 0.0, 2024-03-13 22:33:18.215
