%OpenBCI Raw EXG Data
%Number of channels = 4
%Sample Rate = 200 Hz
%Board = OpenBCI_GUI$BoardGanglionBLE
Sample Index, EXG Channel 0, EXG Channel 1, EXG Channel 2, EXG Channel 3, Accel Channel 0, Accel Channel 1, Accel Channel 2, Other, Other, Other, Other, Other, Timestamp, Other, Timestamp (Formatted)
0.0, -743.8885405864567, -355.9449782827869, -482.86035322910175, -418.31715979380533, 0.0, 0.0, 0.0, 0.0, 0.0, 0.0, 0.0, 0.0, 1.7103946791163592E9, 0.0, 2024-03-13 22:37:59.116
1.0, -754.4313185615465, -364.41211178246886, -478.85492037655786, -412.6175522613339, 0.0, 0.3680000174790621, 0.0, 0.0, 0.0, 0.0, 0.0, 0.0, 1.7103946791298864E9, 0.0, 2024-03-13 22:37:59.129
1.0, -757.090387430042, -358.3646935541183, -486.0953666907735, -409.82384699443355, 0.0, 0.3680000174790621, 0.0, 0.0, 0.0, 0.0, 0.0, 0.0, 1.7103946791298864E9, 0.0, 2024-03-13 22:37:59.129
2.0, -744.7262781765312, -357.2053245678544, -483.18946442520246, -409.2553822011687, 0.8640000410377979, 0.3680000174790621, 0.0, 0.0, 0.0, 0.0, 0.0, 0.0, 1.710394679146597E9, 0.0, 2024-03-13 22:37:59.146
2.0, -750.6614994062111, -353.0502957170829, -464.7854167432524, -398.3984526298009, 0.8640000410377979, 0.3680000174790621, 0.0, 0.0, 0.0, 0.0, 0.0, 0.0, 1.710394679146597E9, 0.0, 2024-03-13 22:37:59.146
3.0, -754.0236694663763, -363.5369751928374, -478.78386227739975, -405.90069194091484, 0.8640000410377979, 0.3680000174790621, 0.0, 0.0, 0.0, 0.0, 0.0, 0.0, 1.710394679147266E9, 0.0, 2024-03-13 22:37:59.147
3.0, -748.769110028632, -353.48786401189864, -471.95480495831, -401.74566309014335, 0.8640000410377979, 0.3680000174790621, 0.0, 0.0, 0.0, 0.0, 0.0, 0.0, 1.710394679147266E9, 0.0, 2024-03-13 22:37:59.147
4.0, -749.5058703199029, -360.6460325270891, -465.2304648379795, -396.7154976497404, 0.8640000410377979, 0.3680000174790621, 0.0, 0.0, 0.0, 0.0, 0.0, 0.0, 1.710394679159394E9, 0.0, 2024-03-13 22:37:59.159
4.0, -758.5676479125395, -358.63770625088364, -476.6072405031882, -401.6222463916056, 0.8640000410377979, 0.3680000174790621, 0.0, 0.0, 0.0, 0.0, 0.0, 0.0, 1.710394679159394E9, 0.0, 2024-03-13 22:37:59.159
5.0, -754.3752200622112, -362.49354310519993, -493.1824771068059, -410.9944356805645, 0.8640000410377979, 0.3680000174790621, 0.0, 0.0, 0.0, 0.0, 0.0, 0.0, 1.7103946791750495E9, 0.0, 2024-03-13 22:37:59.175
5.0, -738.9443928450346, -358.63396635092795, -476.2856091069989, -400.34320060675964, 0.8640000410377979, 0.3680000174790621, 0.0, 0.0, 0.0, 0.0, 0.0, 0.0, 1.7103946791750495E9, 0.0, 2024-03-13 22:37:59.175
6.0, -756.8472939329222, -367.6583449440077, -484.9210381046869, -409.360099399928, 0.8640000410377979, 0.3680000174790621, 0.0, 0.0, 0.0, 0.0, 0.0, 0.0, 1.7103946791757903E9, 0.0, 2024-03-13 22:37:59.175
6.0, -755.9235386438668, -352.93435881845653, -493.3208534051664, -411.57038027374074, 0.8640000410377979, 0.3680000174790621, 0.0, 0.0, 0.0, 0.0, 0.0, 0.0, 1.7103946791757903E9, 0.0, 2024-03-13 22:37:59.175
7.0, -747.8864936390892, -367.34045344777405, -502.0011612023227, -420.8565518637188, 0.8640000410377979, 0.3680000174790621, 0.0, 0.0, 0.0, 0.0, 0.0, 0.0, 1.7103946791893606E9, 0.0, 2024-03-13 22:37:59.189
7.0, -749.1730192238465, -356.0571752814576, -482.48262333357707, -417.8085333998315, 0.8640000410377979, 0.3680000174790621, 0.0, 0.0, 0.0, 0.0, 0.0, 0.0, 1.7103946791893606E9, 0.0, 2024-03-13 22:37:59.189
8.0, -749.6741658179089, -352.3247551256791, -486.34220008784905, -415.4673560275696, 0.8640000410377979, 0.3680000174790621, 0.0, 0.0, 0.0, 0.0, 0.0, 0.0, 1.7103946792052224E9, 0.0, 2024-03-13 22:37:59.205
8.0, -752.0639618895948, -364.4644703818485, -486.8396067819558, -421.53721365565434, 0.8640000410377979, 0.3680000174790621, 0.0, 0.0, 0.0, 0.0, 0.0, 0.0, 1.7103946792052224E9, 0.0, 2024-03-13 22:37:59.205
9.0, -744.0830153841525, -346.66628649272025, -469.1274405918084, -408.0548743153922, 0.8640000410377979, 0.3680000174790621, 0.0, 0.0, 0.0, 0.0, 0.0, 0.0, 1.7103946792058516E9, 0.0, 2024-03-13 22:37:59.205
9.0, -751.6226536948234, -359.0303957462311, -477.8339276886545, -409.1319655026309, 0.8640000410377979, 0.3680000174790621, 0.0, 0.0, 0.0, 0.0, 0.0, 0.0, 1.7103946792058516E9, 0.0, 2024-03-13 22:37:59.205
10.0, -755.7103643463925, -359.2099109441042, -490.033481344115, -416.1405380195938, 0.8640000410377979, 0.3680000174790621, 0.4640000220388174, 0.0, 0.0, 0.0, 0.0, 0.0, 1.7103946792194023E9, 0.0, 2024-03-13 22:37:59.219
10.0, -744.5729422783479, -352.2387374266982, -474.1389065324329, -408.3989451113157, 0.8640000410377979, 0.3680000174790621, 0.4640000220388174, 0.0, 0.0, 0.0, 0.0, 0.0, 1.7103946792194023E9, 0.0, 2024-03-13 22:37:59.219
11.0, -760.5385751891881, -369.6965904198587, -476.85781380021945, -412.46047646319494, 0.8640000410377979, 0.3840000182390213, 0.4640000220388174, 0.0, 0.0, 0.0, 0.0, 0.0, 1.7103946792351506E9, 0.0, 2024-03-13 22:37:59.235
11.0, -753.1522727767006, -363.48087669350207, -479.85347366472706, -409.94352379301563, 0.8640000410377979, 0.3840000182390213, 0.4640000220388174, 0.0, 0.0, 0.0, 0.0, 0.0, 1.7103946792351506E9, 0.0, 2024-03-13 22:37:59.235
12.0, -744.1204143837094, -361.04620182234794, -476.9924501986243, -408.48870271025226, 0.8640000410377979, 0.3840000182390213, 0.4640000220388174, 0.0, 0.0, 0.0, 0.0, 0.0, 1.7103946792357907E9, 0.0, 2024-03-13 22:37:59.235
12.0, -741.4538657153025, -349.37023416068405, -465.73535133199766, -400.63865270325914, 0.8640000410377979, 0.3840000182390213, 0.4640000220388174, 0.0, 0.0, 0.0, 0.0, 0.0, 1.7103946792357907E9, 0.0, 2024-03-13 22:37:59.235
13.0, -732.9530731160194, -341.21351235732436, -474.3558207298629, -400.85930680064484, 0.8640000410377979, 0.3840000182390213, 0.4640000220388174, 0.0, 0.0, 0.0, 0.0, 0.0, 1.7103946792497165E9, 0.0, 2024-03-13 22:37:59.249
13.0, -737.5868091611192, -342.0923888469115, -482.1011535380967, -405.26864884840325, 0.8640000410377979, 0.3840000182390213, 0.4640000220388174, 0.0, 0.0, 0.0, 0.0, 0.0, 1.7103946792497165E9, 0.0, 2024-03-13 22:37:59.249
14.0, -733.1363282138482, -343.91746002528816, -470.8702339711599, -402.55722138052806, 0.8640000410377979, 0.3840000182390213, 0.4640000220388174, 0.0, 0.0, 0.0, 0.0, 0.0, 1.7103946792651517E9, 0.0, 2024-03-13 22:37:59.265
14.0, -745.077828772366, -342.8328890381381, -481.5364286447875, -405.6276792441495, 0.8640000410377979, 0.3840000182390213, 0.4640000220388174, 0.0, 0.0, 0.0, 0.0, 0.0, 1.7103946792651517E9, 0.0, 2024-03-13 22:37:59.265
15.0, -754.1620457647368, -351.1579063395038, -511.1078175944276, -422.75642104120925, 0.8640000410377979, 0.3840000182390213, 0.4640000220388174, 0.0, 0.0, 0.0, 0.0, 0.0, 1.7103946792658148E9, 0.0, 2024-03-13 22:37:59.265
15.0, -743.0732423961163, -350.8362749433145, -502.42002999735996, -423.0331736379303, 0.8640000410377979, 0.3840000182390213, 0.4640000220388174, 0.0, 0.0, 0.0, 0.0, 0.0, 1.7103946792658148E9, 0.0, 2024-03-13 22:37:59.265
16.0, -764.544008041732, -367.1459786500782, -511.6725424877368, -433.6357900123112, 0.8640000410377979, 0.3840000182390213, 0.4640000220388174, 0.0, 0.0, 0.0, 0.0, 0.0, 1.7103946792798035E9, 0.0, 2024-03-13 22:37:59.279
16.0, -753.3654470741749, -361.4613307174295, -505.0454397662543, -425.7707804054953, 0.8640000410377979, 0.3840000182390213, 0.4640000220388174, 0.0, 0.0, 0.0, 0.0, 0.0, 1.7103946792798035E9, 0.0, 2024-03-13 22:37:59.279
17.0, -749.8275017160922, -361.3603534186259, -495.19080338301137, -425.5837854077108, 0.8640000410377979, 0.3840000182390213, 0.4640000220388174, 0.0, 0.0, 0.0, 0.0, 0.0, 1.7103946792954953E9, 0.0, 2024-03-13 22:37:59.295
17.0, -766.0773670235649, -377.9617693219334, -490.6580446367152, -423.02195393806323, 0.8640000410377979, 0.3840000182390213, 0.4640000220388174, 0.0, 0.0, 0.0, 0.0, 0.0, 1.7103946792954953E9, 0.0, 2024-03-13 22:37:59.295
18.0, -761.8176209740341, -361.9587374115363, -483.6494721197523, -413.72082274826244, 0.8640000410377979, 0.3840000182390213, 0.4640000220388174, 0.0, 0.0, 0.0, 0.0, 0.0, 1.7103946792958047E9, 0.0, 2024-03-13 22:37:59.295
18.0, -749.5657087191939, -361.9923965111375, -483.4250781224109, -413.171057454776, 0.8640000410377979, 0.3840000182390213, 0.4640000220388174, 0.0, 0.0, 0.0, 0.0, 0.0, 1.7103946792958047E9, 0.0, 2024-03-13 22:37:59.295
19.0, -753.3504874743521, -363.1742048971355, -471.2404840667732, -410.33995318831876, 0.8640000410377979, 0.3840000182390213, 0.4640000220388174, 0.0, 0.0, 0.0, 0.0, 0.0, 1.7103946793093464E9, 0.0, 2024-03-13 22:37:59.309
19.0, -762.2140503693372, -357.60175396315753, -467.41456641210243, -403.5034160693176, 0.8640000410377979, 0.3840000182390213, 0.4640000220388174, 0.0, 0.0, 0.0, 0.0, 0.0, 1.7103946793093464E9, 0.0, 2024-03-13 22:37:59.309
20.0, -755.1194601533934, -365.81831416580826, -474.5876945271157, -405.63515904406086, 0.8640000410377979, 0.3840000182390213, 0.4640000220388174, 0.0, 0.0, 0.0, 0.0, 0.0, 1.7103946793250597E9, 0.0, 2024-03-13 22:37:59.325
20.0, -759.719537098892, -375.6617308491841, -478.73898347793147, -414.5062017389573, 0.8640000410377979, 0.3840000182390213, 0.4640000220388174, 0.0, 0.0, 0.0, 0.0, 0.0, 1.7103946793250597E9, 0.0, 2024-03-13 22:37:59.325
21.0, -759.9925497956574, -367.82290054205805, -475.82560141244903, -408.2493491130881, 0.8640000410377979, 0.3680000174790621, 0.4640000220388174, 0.0, 0.0, 0.0, 0.0, 0.0, 1.7103946793258104E9, 0.0, 2024-03-13 22:37:59.325
21.0, -760.949964184314, -373.7618616716936, -489.0947664552368, -420.2581678708084, 0.8640000410377979, 0.3680000174790621, 0.4640000220388174, 0.0, 0.0, 0.0, 0.0, 0.0, 1.7103946793258104E9, 0.0, 2024-03-13 22:37:59.325
22.0, -763.9418841488659, -386.4064634218812, -501.8478253041394, -431.8967365329154, 0.8640000410377979, 0.3680000174790621, 0.4640000220388174, 0.0, 0.0, 0.0, 0.0, 0.0, 1.7103946793558445E9, 0.0, 2024-03-13 22:37:59.355
22.0, -764.5552277415991, -372.2883410891518, -487.34075337601826, -429.3386449632235, 0.8640000410377979, 0.3680000174790621, 0.4640000220388174, 0.0, 0.0, 0.0, 0.0, 0.0, 1.7103946793558445E9, 0.0, 2024-03-13 22:37:59.355
23.0, -761.5932269766927, -380.24310829490423, -497.5058014555834, -432.8915499211289, 0.8640000410377979, 0.3680000174790621, 0.4640000220388174, 0.0, 0.0, 0.0, 0.0, 0.0, 1.7103946793565156E9, 0.0, 2024-03-13 22:37:59.356
23.0, -756.5294024366885, -374.38642496429384, -505.856998056639, -433.4525349144824, 0.8640000410377979, 0.3680000174790621, 0.4640000220388174, 0.0, 0.0, 0.0, 0.0, 0.0, 1.7103946793565156E9, 0.0, 2024-03-13 22:37:59.356
24.0, -751.3234616983682, -377.11655193194747, -506.20106885256246, -430.75980694638565, 0.8640000410377979, 0.3680000174790621, 0.4640000220388174, 0.0, 0.0, 0.0, 0.0, 0.0, 1.7103946793572695E9, 0.0, 2024-03-13 22:37:59.357
24.0, -768.2053700983524, -373.986255669035, -495.3553589810617, -422.505847744178, 0.8640000410377979, 0.3680000174790621, 0.4640000220388174, 0.0, 0.0, 0.0, 0.0, 0.0, 1.7103946793572695E9, 0.0, 2024-03-13 22:37:59.357
25.0, -751.1551662003621, -363.1068866979331, -493.8743585986085, -418.56773309083655, 0.8640000410377979, 0.3680000174790621, 0.4640000220388174, 0.0, 0.0, 0.0, 0.0, 0.0, 1.71039467936941E9, 0.0, 2024-03-13 22:37:59.369
25.0, -744.2737502818927, -357.8785065598786, -485.19031090149656, -412.9952821568586, 0.8640000410377979, 0.3680000174790621, 0.4640000220388174, 0.0, 0.0, 0.0, 0.0, 0.0, 1.71039467936941E9, 0.0, 2024-03-13 22:37:59.369
26.0, -748.2492639347911, -352.81842191983014, -478.9783370750956, -404.4608304579742, 0.8640000410377979, 0.3680000174790621, 0.4640000220388174, 0.0, 0.0, 0.0, 0.0, 0.0, 1.710394679385062E9, 0.0, 2024-03-13 22:37:59.385
26.0, -751.2673631990328, -354.400399601087, -493.8182600992732, -407.8828389174305, 0.8640000410377979, 0.3680000174790621, 0.4640000220388174, 0.0, 0.0, 0.0, 0.0, 0.0, 1.710394679385062E9, 0.0, 2024-03-13 22:37:59.385
27.0, -754.3752200622112, -357.3586604660377, -485.9607302923687, -409.5508342976682, 0.8640000410377979, 0.3680000174790621, 0.4640000220388174, 0.0, 0.0, 0.0, 0.0, 0.0, 1.710394679385784E9, 0.0, 2024-03-13 22:37:59.385
27.0, -749.9172593150288, -354.03762930538505, -475.90039941156283, -404.210257160943, 0.8640000410377979, 0.3680000174790621, 0.4640000220388174, 0.0, 0.0, 0.0, 0.0, 0.0, 1.710394679385784E9, 0.0, 2024-03-13 22:37:59.385
28.0, -754.304161963053, -350.96343154180795, -474.59143442707136, -404.82360075367615, 0.8640000410377979, 0.3680000174790621, 0.4640000220388174, 0.0, 0.0, 0.0, 0.0, 0.0, 1.7103946794000473E9, 0.0, 2024-03-13 22:37:59.400
28.0, -736.7602912709117, -354.5799147989601, -480.0629080622457, -399.89815251203254, 0.8640000410377979, 0.3680000174790621, 0.4640000220388174, 0.0, 0.0, 0.0, 0.0, 0.0, 1.7103946794000473E9, 0.0, 2024-03-13 22:37:59.400
29.0, -744.8683943748474, -357.19410486798733, -469.59866798622534, -402.7217769785784, 0.8640000410377979, 0.3680000174790621, 0.4640000220388174, 0.0, 0.0, 0.0, 0.0, 0.0, 1.7103946794154327E9, 0.0, 2024-03-13 22:37:59.415
29.0, -747.4863243438303, -359.77463583741337, -474.9841239224188, -402.64323907950893, 0.8640000410377979, 0.3680000174790621, 0.4640000220388174, 0.0, 0.0, 0.0, 0.0, 0.0, 1.7103946794154327E9, 0.0, 2024-03-13 22:37:59.415
30.0, -749.0234232256189, -363.095666998066, -487.4753897744231, -407.9800763162784, 0.8640000410377979, 0.3680000174790621, 0.4480000212788582, 0.0, 0.0, 0.0, 0.0, 0.0, 1.7103946794159856E9, 0.0, 2024-03-13 22:37:59.415
30.0, -762.7899949625134, -367.3928120471537, -487.08270027907565, -418.89684428693727, 0.8640000410377979, 0.3680000174790621, 0.4480000212788582, 0.0, 0.0, 0.0, 0.0, 0.0, 1.7103946794159856E9, 0.0, 2024-03-13 22:37:59.415
31.0, -768.5868398938328, -388.72146149445325, -484.97713660402223, -423.72505512973294, 0.8640000410377979, 0.3840000182390213, 0.4480000212788582, 0.0, 0.0, 0.0, 0.0, 0.0, 1.7103946794293683E9, 0.0, 2024-03-13 22:37:59.429
31.0, -789.0740118511021, -393.54593243729323, -509.2303878166713, -436.3846164797433, 0.8640000410377979, 0.3840000182390213, 0.4480000212788582, 0.0, 0.0, 0.0, 0.0, 0.0, 1.7103946794293683E9, 0.0, 2024-03-13 22:37:59.429
32.0, -772.2930807499215, -393.21308134123683, -501.98620160249993, -429.38726366264746, 0.8640000410377979, 0.3840000182390213, 0.4480000212788582, 0.0, 0.0, 0.0, 0.0, 0.0, 1.7103946794452505E9, 0.0, 2024-03-13 22:37:59.445
32.0, -783.4529422177002, -387.820145605132, -498.86338513949886, -426.20460880035535, 0.8640000410377979, 0.3840000182390213, 0.4480000212788582, 0.0, 0.0, 0.0, 0.0, 0.0, 1.7103946794452505E9, 0.0, 2024-03-13 22:37:59.445
33.0, -785.1545966975391, -386.5523195201531, -504.38721737405285, -426.4701416972093, 0.8640000410377979, 0.3840000182390213, 0.4480000212788582, 0.0, 0.0, 0.0, 0.0, 0.0, 1.7103946794458177E9, 0.0, 2024-03-13 22:37:59.445
33.0, -765.07507383544, -375.42237725201994, -487.81946057034656, -419.64108437811956, 0.8640000410377979, 0.3840000182390213, 0.4480000212788582, 0.0, 0.0, 0.0, 0.0, 0.0, 1.7103946794458177E9, 0.0, 2024-03-13 22:37:59.445
34.0, -769.8247467791662, -385.64352383092046, -485.908371692989, -416.12931831972674, 0.8640000410377979, 0.3840000182390213, 0.4480000212788582, 0.0, 0.0, 0.0, 0.0, 0.0, 1.7103946794593737E9, 0.0, 2024-03-13 22:37:59.459
34.0, -768.295127697289, -381.3014999823645, -482.2432697364129, -409.3974983994849, 0.8640000410377979, 0.3840000182390213, 0.4480000212788582, 0.0, 0.0, 0.0, 0.0, 0.0, 1.7103946794593737E9, 0.0, 2024-03-13 22:37:59.459
35.0, -765.1461319345981, -369.2552822250873, -480.5715344562195, -411.15151147870347, 0.8640000410377979, 0.3840000182390213, 0.4480000212788582, 0.0, 0.0, 0.0, 0.0, 0.0, 1.7103946794753375E9, 0.0, 2024-03-13 22:37:59.475
35.0, -753.7768360693008, -363.2751821959391, -480.1339661614038, -407.6509651201777, 0.8640000410377979, 0.3840000182390213, 0.4480000212788582, 0.0, 0.0, 0.0, 0.0, 0.0, 1.7103946794753375E9, 0.0, 2024-03-13 22:37:59.475
36.0, -753.2121111759916, -358.49185015261173, -475.14867952046916, -404.37107285903767, 0.8640000410377979, 0.3840000182390213, 0.4480000212788582, 0.0, 0.0, 0.0, 0.0, 0.0, 1.7103946794759784E9, 0.0, 2024-03-13 22:37:59.475
36.0, -751.6862319940701, -362.70671740267426, -491.71269642421976, -411.8022540709935, 0.8640000410377979, 0.3840000182390213, 0.4480000212788582, 0.0, 0.0, 0.0, 0.0, 0.0, 1.7103946794759784E9, 0.0, 2024-03-13 22:37:59.475
37.0, -747.744377440773, -361.70816411450505, -484.18801771337166, -410.97947608074173, 0.8640000410377979, 0.3840000182390213, 0.4480000212788582, 0.0, 0.0, 0.0, 0.0, 0.0, 1.7103946794895098E9, 0.0, 2024-03-13 22:37:59.489
37.0, -759.6522188996896, -363.0657477984205, -480.52665565675125, -413.63854494923726, 0.8640000410377979, 0.3840000182390213, 0.4480000212788582, 0.0, 0.0, 0.0, 0.0, 0.0, 1.7103946794895098E9, 0.0, 2024-03-13 22:37:59.489
38.0, -767.7902412032709, -364.5467481808737, -484.0346818151884, -415.63191162562, 0.8640000410377979, 0.3840000182390213, 0.4480000212788582, 0.0, 0.0, 0.0, 0.0, 0.0, 1.7103946795050795E9, 0.0, 2024-03-13 22:37:59.505
38.0, -747.8416148396209, -365.00301597546786, -484.4423309103586, -406.07646723883227, 0.8640000410377979, 0.3840000182390213, 0.4480000212788582, 0.0, 0.0, 0.0, 0.0, 0.0, 1.7103946795050795E9, 0.0, 2024-03-13 22:37:59.505
39.0, -753.5561819719151, -370.49692901037633, -473.15157294413075, -407.11241952655837, 0.8640000410377979, 0.3840000182390213, 0.4480000212788582, 0.0, 0.0, 0.0, 0.0, 0.0, 1.710394679505804E9, 0.0, 2024-03-13 22:37:59.505
39.0, -755.7552431458607, -369.6554515203461, -477.12334669707343, -406.78330833045766, 0.8640000410377979, 0.3840000182390213, 0.4480000212788582, 0.0, 0.0, 0.0, 0.0, 0.0, 1.710394679505804E9, 0.0, 2024-03-13 22:37:59.505
40.0, -757.9505644198507, -367.8042010422796, -489.3528195521794, -412.16128446673974, 0.8640000410377979, 0.3840000182390213, 0.4640000220388174, 0.0, 0.0, 0.0, 0.0, 0.0, 1.710394679519415E9, 0.0, 2024-03-13 22:37:59.519
40.0, -768.6055393936113, -371.8096338948235, -490.16063794260845, -421.13330446043983, 0.8640000410377979, 0.3840000182390213, 0.4640000220388174, 0.0, 0.0, 0.0, 0.0, 0.0, 1.710394679519415E9, 0.0, 2024-03-13 22:37:59.519
41.0, -781.6054316395894, -390.557752372697, -502.09091880125925, -431.08891814248636, 0.8640000410377979, 0.3840000182390213, 0.4640000220388174, 0.0, 0.0, 0.0, 0.0, 0.0, 1.7103946795350742E9, 0.0, 2024-03-13 22:37:59.535
41.0, -782.1028383336961, -388.05201940238476, -512.2896259804256, -434.6418231003918, 0.8640000410377979, 0.3840000182390213, 0.4640000220388174, 0.0, 0.0, 0.0, 0.0, 0.0, 1.7103946795350742E9, 0.0, 2024-03-13 22:37:59.535
42.0, -772.4015378486365, -385.13489743694663, -492.24002231797203, -420.3292259699665, 0.8640000410377979, 0.3840000182390213, 0.4640000220388174, 0.0, 0.0, 0.0, 0.0, 0.0, 1.710394679535824E9, 0.0, 2024-03-13 22:37:59.535
42.0, -789.6387367444113, -390.97662116773427, -489.04240785585716, -421.746648053173, 0.8640000410377979, 0.3840000182390213, 0.4640000220388174, 0.0, 0.0, 0.0, 0.0, 0.0, 1.710394679535824E9, 0.0, 2024-03-13 22:37:59.535
43.0, -794.5342657864094, -392.82787164580077, -506.5862785479985, -431.8144587338902, 0.8640000410377979, 0.3840000182390213, 0.4640000220388174, 0.0, 0.0, 0.0, 0.0, 0.0, 1.7103946795493824E9, 0.0, 2024-03-13 22:37:59.549
43.0, -768.2876478973776, -376.9594761338085, -484.9509573043324, -415.71418942464516, 0.8640000410377979, 0.3840000182390213, 0.4640000220388174, 0.0, 0.0, 0.0, 0.0, 0.0, 1.7103946795493824E9, 0.0, 2024-03-13 22:37:59.549
44.0, -780.6667167507112, -390.39693667460233, -488.11865256680176, -424.27856032317504, 0.8640000410377979, 0.3840000182390213, 0.4640000220388174, 0.0, 0.0, 0.0, 0.0, 0.0, 1.7103946795650623E9, 0.0, 2024-03-13 22:37:59.565
44.0, -799.2091407310218, -397.0689181955531, -508.1532966294326, -434.27905280468985, 0.8640000410377979, 0.3840000182390213, 0.4640000220388174, 0.0, 0.0, 0.0, 0.0, 0.0, 1.7103946795650623E9, 0.0, 2024-03-13 22:37:59.565
45.0, -781.2389214439318, -392.61843724828213, -511.0292796953581, -434.6979215997271, 0.8640000410377979, 0.3840000182390213, 0.4640000220388174, 0.0, 0.0, 0.0, 0.0, 0.0, 1.710394679565838E9, 0.0, 2024-03-13 22:37:59.565
45.0, -775.5767129110172, -386.93752921558917, -490.9871558328159, -425.64736370695755, 0.8640000410377979, 0.3840000182390213, 0.4640000220388174, 0.0, 0.0, 0.0, 0.0, 0.0, 1.710394679565838E9, 0.0, 2024-03-13 22:37:59.565
46.0, -790.1211838386953, -401.13792934734374, -499.3308726339601, -441.224047022406, 0.8640000410377979, 0.3840000182390213, 0.4640000220388174, 0.0, 0.0, 0.0, 0.0, 0.0, 1.7103946795958493E9, 0.0, 2024-03-13 22:37:59.595
46.0, -785.132157297805, -398.0338123841211, -510.39349670289084, -438.87538985023275, 0.8640000410377979, 0.3840000182390213, 0.4640000220388174, 0.0, 0.0, 0.0, 0.0, 0.0, 1.7103946795958493E9, 0.0, 2024-03-13 22:37:59.595
47.0, -783.322045719251, -393.2878793403506, -511.1900953934528, -440.54712513042614, 0.8640000410377979, 0.3840000182390213, 0.4640000220388174, 0.0, 0.0, 0.0, 0.0, 0.0, 1.710394679596456E9, 0.0, 2024-03-13 22:37:59.596
47.0, -785.3976901946589, -400.65548225305974, -498.63899114215747, -437.5926041654311, 0.8640000410377979, 0.3840000182390213, 0.4640000220388174, 0.0, 0.0, 0.0, 0.0, 0.0, 1.710394679596456E9, 0.0, 2024-03-13 22:37:59.596
48.0, -789.0141734518111, -403.92041491437703, -513.2395605691709, -443.8307572915219, 0.8640000410377979, 0.3840000182390213, 0.4640000220388174, 0.0, 0.0, 0.0, 0.0, 0.0, 1.7103946795974505E9, 0.0, 2024-03-13 22:37:59.597
48.0, -786.5009606815875, -398.179668482393, -514.6457629525103, -447.3051243503578, 0.8640000410377979, 0.3840000182390213, 0.4640000220388174, 0.0, 0.0, 0.0, 0.0, 0.0, 1.7103946795974505E9, 0.0, 2024-03-13 22:37:59.597
49.0, -768.3848852962255, -375.7253091484308, -492.3634390165098, -428.7365210703574, 0.8640000410377979, 0.3840000182390213, 0.4640000220388174, 0.0, 0.0, 0.0, 0.0, 0.0, 1.710394679609396E9, 0.0, 2024-03-13 22:37:59.609
49.0, -775.0793062169105, -383.7286950536072, -501.2195221115835, -432.1847088295035, 0.8640000410377979, 0.3840000182390213, 0.4640000220388174, 0.0, 0.0, 0.0, 0.0, 0.0, 1.710394679609396E9, 0.0, 2024-03-13 22:37:59.609
50.0, -771.7769745560363, -376.05442034453154, -499.0017614378594, -428.69164227088913, 0.8640000410377979, 0.3840000182390213, 0.4480000212788582, 0.0, 0.0, 0.0, 0.0, 0.0, 1.7103946796250193E9, 0.0, 2024-03-13 22:37:59.625
50.0, -768.246508997865, -382.6665634661913, -499.2186756352894, -430.54289274895564, 0.8640000410377979, 0.3840000182390213, 0.4480000212788582, 0.0, 0.0, 0.0, 0.0, 0.0, 1.7103946796250193E9, 0.0, 2024-03-13 22:37:59.625
51.0, -779.5559664638713, -381.53337377961725, -497.8386525516398, -427.82772538112476, 0.8640000410377979, 0.3840000182390213, 0.4480000212788582, 0.0, 0.0, 0.0, 0.0, 0.0, 1.7103946796258557E9, 0.0, 2024-03-13 22:37:59.625
51.0, -772.214542850852, -375.86368544679135, -501.0736660133116, -425.87175770429894, 0.8640000410377979, 0.3840000182390213, 0.4480000212788582, 0.0, 0.0, 0.0, 0.0, 0.0, 1.7103946796258557E9, 0.0, 2024-03-13 22:37:59.625
52.0, -773.1345582399517, -386.4027235219255, -502.7790603931062, -428.90481656836346, 0.8640000410377979, 0.3840000182390213, 0.4480000212788582, 0.0, 0.0, 0.0, 0.0, 0.0, 1.7103946796393485E9, 0.0, 2024-03-13 22:37:59.639
52.0, -773.2056163391098, -376.4695492396131, -502.322792598512, -427.4013767861761, 0.8640000410377979, 0.3840000182390213, 0.4480000212788582, 0.0, 0.0, 0.0, 0.0, 0.0, 1.7103946796393485E9, 0.0, 2024-03-13 22:37:59.639
53.0, -772.3080403497443, -367.37411254737526, -496.847579063382, -420.3292259699665, 0.8640000410377979, 0.3840000182390213, 0.4480000212788582, 0.0, 0.0, 0.0, 0.0, 0.0, 1.7103946796550195E9, 0.0, 2024-03-13 22:37:59.655
53.0, -766.7542889155447, -371.11401250306517, -491.9183909217827, -422.0383602497168, 0.8640000410377979, 0.3840000182390213, 0.4480000212788582, 0.0, 0.0, 0.0, 0.0, 0.0, 1.7103946796550195E9, 0.0, 2024-03-13 22:37:59.655
54.0, -769.9145043781027, -372.7595684835687, -486.1065863906406, -418.57521289074793, 0.8640000410377979, 0.3840000182390213, 0.4480000212788582, 0.0, 0.0, 0.0, 0.0, 0.0, 1.7103946796557813E9, 0.0, 2024-03-13 22:37:59.655
54.0, -763.4482173547149, -366.15116526186466, -487.2921346765943, -423.27626713505015, 0.8640000410377979, 0.3840000182390213, 0.4480000212788582, 0.0, 0.0, 0.0, 0.0, 0.0, 1.7103946796557813E9, 0.0, 2024-03-13 22:37:59.655
55.0, -771.8742119548842, -375.78888744767755, -511.0031003956683, -428.1082178778015, 0.8640000410377979, 0.3840000182390213, 0.4480000212788582, 0.0, 0.0, 0.0, 0.0, 0.0, 1.7103946796694052E9, 0.0, 2024-03-13 22:37:59.669
55.0, -756.5219226367772, -364.9880563756451, -485.5082023977302, -413.42163075180724, 0.8640000410377979, 0.3840000182390213, 0.4480000212788582, 0.0, 0.0, 0.0, 0.0, 0.0, 1.7103946796694052E9, 0.0, 2024-03-13 22:37:59.669
56.0, -760.5871938886121, -365.6200994681567, -491.6304186251946, -418.60139219043776, 0.8640000410377979, 0.3840000182390213, 0.4480000212788582, 0.0, 0.0, 0.0, 0.0, 0.0, 1.7103946796851628E9, 0.0, 2024-03-13 22:37:59.685
56.0, -756.596720635891, -357.75134996138513, -489.01622855616733, -415.05596703244373, 0.8640000410377979, 0.3840000182390213, 0.4480000212788582, 0.0, 0.0, 0.0, 0.0, 0.0, 1.7103946796851628E9, 0.0, 2024-03-13 22:37:59.685
57.0, -753.0325959781185, -359.6960979383439, -481.49528974527493, -407.9987758160569, 0.8640000410377979, 0.3840000182390213, 0.4480000212788582, 0.0, 0.0, 0.0, 0.0, 0.0, 1.7103946796858284E9, 0.0, 2024-03-13 22:37:59.685
57.0, -758.9939965074882, -372.1798839904368, -474.909325923305, -406.7608689307235, 0.8640000410377979, 0.3840000182390213, 0.4480000212788582, 0.0, 0.0, 0.0, 0.0, 0.0, 1.7103946796858284E9, 0.0, 2024-03-13 22:37:59.685
58.0, -753.9713108669966, -369.27398172486573, -489.26680185319856, -418.4443163922988, 0.8640000410377979, 0.3840000182390213, 0.4480000212788582, 0.0, 0.0, 0.0, 0.0, 0.0, 1.7103946796998596E9, 0.0, 2024-03-13 22:37:59.699
58.0, -755.5458087483421, -368.9074715292081, -487.53148827375844, -415.0671867323108, 0.8640000410377979, 0.3840000182390213, 0.4480000212788582, 0.0, 0.0, 0.0, 0.0, 0.0, 1.7103946796998596E9, 0.0, 2024-03-13 22:37:59.699
59.0, -756.824854533188, -363.204124096781, -482.03757523884997, -422.20291584776714, 0.8640000410377979, 0.3840000182390213, 0.4480000212788582, 0.0, 0.0, 0.0, 0.0, 0.0, 1.7103946797151084E9, 0.0, 2024-03-13 22:37:59.715
59.0, -761.3950122790411, -364.9057785766199, -477.26172299543396, -418.2498415946029, 0.8640000410377979, 0.3840000182390213, 0.4480000212788582, 0.0, 0.0, 0.0, 0.0, 0.0, 1.7103946797151084E9, 0.0, 2024-03-13 22:37:59.715
60.0, -767.4012916078791, -377.845832423307, -504.16656327666715, -423.60537833115086, 0.8640000410377979, 0.3840000182390213, 0.4480000212788582, 0.0, 0.0, 0.0, 0.0, 0.0, 1.710394679715844E9, 0.0, 2024-03-13 22:37:59.715
60.0, -754.7604297576472, -364.434551182203, -480.59771375590935, -413.8479793467559, 0.8640000410377979, 0.3840000182390213, 0.4480000212788582, 0.0, 0.0, 0.0, 0.0, 0.0, 1.710394679715844E9, 0.0, 2024-03-13 22:37:59.715
61.0, -762.3337271679193, -360.49269662890583, -479.60290036769584, -408.9973291042261, 0.8640000410377979, 0.3840000182390213, 0.4480000212788582, 0.0, 0.0, 0.0, 0.0, 0.0, 1.7103946797293088E9, 0.0, 2024-03-13 22:37:59.729
61.0, -758.911718708463, -364.3896723827347, -493.1375983073376, -420.02255417359993, 0.8640000410377979, 0.3840000182390213, 0.4480000212788582, 0.0, 0.0, 0.0, 0.0, 0.0, 1.7103946797293088E9, 0.0, 2024-03-13 22:37:59.729
62.0, -753.2981288749725, -361.1621387209743, -483.4624771219678, -415.9535430218093, 0.8640000410377979, 0.3840000182390213, 0.4480000212788582, 0.0, 0.0, 0.0, 0.0, 0.0, 1.7103946797450688E9, 0.0, 2024-03-13 22:37:59.745
62.0, -755.3887329502031, -359.22861044388264, -467.9119731062092, -404.86473965318874, 0.8640000410377979, 0.3840000182390213, 0.4480000212788582, 0.0, 0.0, 0.0, 0.0, 0.0, 1.7103946797450688E9, 0.0, 2024-03-13 22:37:59.745
63.0, -746.1848391592503, -359.89431263599545, -480.5378753566183, -403.79138836590573, 0.8640000410377979, 0.3840000182390213, 0.4480000212788582, 0.0, 0.0, 0.0, 0.0, 0.0, 1.7103946797458847E9, 0.0, 2024-03-13 22:37:59.745
63.0, -750.1379134124145, -362.22801020834595, -501.1858630119823, -417.64023790182546, 0.8640000410377979, 0.3840000182390213, 0.4480000212788582, 0.0, 0.0, 0.0, 0.0, 0.0, 1.7103946797458847E9, 0.0, 2024-03-13 22:37:59.745
64.0, -745.175066171214, -356.4760440764949, -485.1828311015852, -413.04390085628256, 0.8640000410377979, 0.3840000182390213, 0.4480000212788582, 0.0, 0.0, 0.0, 0.0, 0.0, 1.710394679759612E9, 0.0, 2024-03-13 22:37:59.759
64.0, -747.6508799418807, -353.48038421198726, -483.33532052347437, -414.3266865410842, 0.8640000410377979, 0.3840000182390213, 0.4480000212788582, 0.0, 0.0, 0.0, 0.0, 0.0, 1.710394679759612E9, 0.0, 2024-03-13 22:37:59.759
65.0, -751.7946890927851, -365.4779832698405, -498.6315113422461, -420.8565518637188, 0.8640000410377979, 0.3840000182390213, 0.4480000212788582, 0.0, 0.0, 0.0, 0.0, 0.0, 1.7103946797750616E9, 0.0, 2024-03-13 22:37:59.775
65.0, -734.7295255949721, -356.4685642765835, -475.93779841111973, -402.871372976806, 0.8640000410377979, 0.3840000182390213, 0.4480000212788582, 0.0, 0.0, 0.0, 0.0, 0.0, 1.7103946797750616E9, 0.0, 2024-03-13 22:37:59.775
66.0, -760.7779287863523, -358.77608254924417, -491.0282947323285, -417.27746760612354, 0.8640000410377979, 0.3840000182390213, 0.4480000212788582, 0.0, 0.0, 0.0, 0.0, 0.0, 1.7103946797757869E9, 0.0, 2024-03-13 22:37:59.775
66.0, -755.5308491485193, -369.6591914203018, -499.12891803635284, -419.7420616769232, 0.8640000410377979, 0.3840000182390213, 0.4480000212788582, 0.0, 0.0, 0.0, 0.0, 0.0, 1.7103946797757869E9, 0.0, 2024-03-13 22:37:59.775
67.0, -747.2469707466662, -374.30414716526866, -495.90886417450383, -421.46615555649623, 0.8640000410377979, 0.3840000182390213, 0.4480000212788582, 0.0, 0.0, 0.0, 0.0, 0.0, 1.710394679789374E9, 0.0, 2024-03-13 22:37:59.789
67.0, -747.5611223429441, -359.4380448414013, -466.8423617188819, -405.066694250796, 0.8640000410377979, 0.3840000182390213, 0.4480000212788582, 0.0, 0.0, 0.0, 0.0, 0.0, 1.710394679789374E9, 0.0, 2024-03-13 22:37:59.789
68.0, -758.0478018186986, -369.46097672265023, -491.94083032151684, -414.9961286331527, 0.8640000410377979, 0.3840000182390213, 0.4480000212788582, 0.0, 0.0, 0.0, 0.0, 0.0, 1.7103946798050797E9, 0.0, 2024-03-13 22:37:59.805
68.0, -744.8048160756007, -354.22462430316955, -488.5150819621049, -414.5809997380711, 0.8640000410377979, 0.3840000182390213, 0.4480000212788582, 0.0, 0.0, 0.0, 0.0, 0.0, 1.7103946798050797E9, 0.0, 2024-03-13 22:37:59.805
69.0, -741.581022313796, -363.26022259611636, -486.2561823888682, -412.72226946009323, 0.8640000410377979, 0.3840000182390213, 0.4480000212788582, 0.0, 0.0, 0.0, 0.0, 0.0, 1.7103946798057945E9, 0.0, 2024-03-13 22:37:59.805
69.0, -745.0479095727205, -358.21883745584637, -474.8307880242355, -402.53104208083823, 0.8640000410377979, 0.3840000182390213, 0.4480000212788582, 0.0, 0.0, 0.0, 0.0, 0.0, 1.7103946798057945E9, 0.0, 2024-03-13 22:37:59.805
70.0, -747.6508799418807, -360.48147692903876, -498.5155744436197, -415.0036084330641, 0.8640000410377979, 0.3840000182390213, 0.4480000212788582, 0.0, 0.0, 0.0, 0.0, 0.0, 1.7103946798193657E9, 0.0, 2024-03-13 22:37:59.819
70.0, -735.7879172824323, -352.2387374266982, -478.45475108129904, -406.3158208359964, 0.8640000410377979, 0.3840000182390213, 0.4480000212788582, 0.0, 0.0, 0.0, 0.0, 0.0, 1.7103946798193657E9, 0.0, 2024-03-13 22:37:59.819
71.0, -747.5536425430328, -350.69789864495397, -480.167625261005, -411.4095645756461, 0.8640000410377979, 0.3840000182390213, 0.4480000212788582, 0.0, 0.0, 0.0, 0.0, 0.0, 1.7103946798350427E9, 0.0, 2024-03-13 22:37:59.835
71.0, -750.4071862092242, -356.3638470778242, -489.79412774695083, -410.4708496867679, 0.8640000410377979, 0.3840000182390213, 0.4480000212788582, 0.0, 0.0, 0.0, 0.0, 0.0, 1.7103946798350427E9, 0.0, 2024-03-13 22:37:59.835
72.0, -733.6711339075118, -358.3160748546943, -480.167625261005, -414.4052244401537, 0.8640000410377979, 0.3840000182390213, 0.4480000212788582, 0.0, 0.0, 0.0, 0.0, 0.0, 1.7103946798358543E9, 0.0, 2024-03-13 22:37:59.835
72.0, -758.2310569165275, -368.82145383022726, -480.92682495201007, -416.439730016049, 0.8640000410377979, 0.3840000182390213, 0.4480000212788582, 0.0, 0.0, 0.0, 0.0, 0.0, 1.7103946798358543E9, 0.0, 2024-03-13 22:37:59.835
73.0, -768.7738348916173, -378.2572214184329, -493.8556590988301, -422.8162594405003, 0.8640000410377979, 0.3840000182390213, 0.4480000212788582, 0.0, 0.0, 0.0, 0.0, 0.0, 1.7103946798497684E9, 0.0, 2024-03-13 22:37:59.849
73.0, -760.1159664941952, -368.6606381321326, -501.39155750954524, -424.1850628242828, 0.8640000410377979, 0.3840000182390213, 0.4480000212788582, 0.0, 0.0, 0.0, 0.0, 0.0, 1.7103946798497684E9, 0.0, 2024-03-13 22:37:59.849
74.0, -759.7606759984046, -370.45953001081944, -482.85287342919037, -417.94690969819203, 0.8640000410377979, 0.3840000182390213, 0.4480000212788582, 0.0, 0.0, 0.0, 0.0, 0.0, 1.7103946798654177E9, 0.0, 2024-03-13 22:37:59.865
74.0, -758.48911001347, -378.72096901293844, -490.68422393640503, -421.8476253519766, 0.8640000410377979, 0.3840000182390213, 0.4480000212788582, 0.0, 0.0, 0.0, 0.0, 0.0, 1.7103946798654177E9, 0.0, 2024-03-13 22:37:59.865
75.0, -751.9255855912343, -363.3649397948757, -490.56454713782296, -414.94377003377303, 0.8640000410377979, 0.3840000182390213, 0.4480000212788582, 0.0, 0.0, 0.0, 0.0, 0.0, 1.7103946798661144E9, 0.0, 2024-03-13 22:37:59.866
75.0, -745.3022227697074, -362.6468790033832, -477.7254705899395, -408.2456092131324, 0.8640000410377979, 0.3840000182390213, 0.4480000212788582, 0.0, 0.0, 0.0, 0.0, 0.0, 1.7103946798661144E9, 0.0, 2024-03-13 22:37:59.866
76.0, -744.3485482810065, -347.6162210814655, -472.4746510521509, -406.48411633400247, 0.8640000410377979, 0.3840000182390213, 0.4480000212788582, 0.0, 0.0, 0.0, 0.0, 0.0, 1.7103946798796754E9, 0.0, 2024-03-13 22:37:59.879
76.0, -753.4776440728456, -358.3459940543398, -484.8499800055288, -413.4702494512312, 0.8640000410377979, 0.3840000182390213, 0.4480000212788582, 0.0, 0.0, 0.0, 0.0, 0.0, 1.7103946798796754E9, 0.0, 2024-03-13 22:37:59.879
77.0, -744.1690330831334, -363.07322759833187, -491.0993528314866, -420.74809476500377, 0.8640000410377979, 0.3840000182390213, 0.4480000212788582, 0.0, 0.0, 0.0, 0.0, 0.0, 1.710394679895104E9, 0.0, 2024-03-13 22:37:59.895
77.0, -740.7956433231011, -356.3937662774697, -472.2764363544993, -405.6949974433519, 0.8640000410377979, 0.3840000182390213, 0.4480000212788582, 0.0, 0.0, 0.0, 0.0, 0.0, 1.710394679895104E9, 0.0, 2024-03-13 22:37:59.895
78.0, -759.6073401002213, -366.93280435260385, -491.26764832949266, -416.20037641888484, 0.8640000410377979, 0.3840000182390213, 0.4480000212788582, 0.0, 0.0, 0.0, 0.0, 0.0, 1.7103946798958037E9, 0.0, 2024-03-13 22:37:59.895
78.0, -732.0928961262107, -348.99624416511506, -475.2159977196716, -407.3255938240327, 0.8640000410377979, 0.3840000182390213, 0.4480000212788582, 0.0, 0.0, 0.0, 0.0, 0.0, 1.7103946798958037E9, 0.0, 2024-03-13 22:37:59.895
79.0, -745.2947429697961, -365.6574984677136, -480.6612920551561, -412.9878023569472, 0.8640000410377979, 0.3840000182390213, 0.4480000212788582, 0.0, 0.0, 0.0, 0.0, 0.0, 1.7103946799093213E9, 0.0, 2024-03-13 22:37:59.909
79.0, -755.1755586527288, -368.40258503519, -491.34992612851784, -420.01881427364424, 0.8640000410377979, 0.3840000182390213, 0.4480000212788582, 0.0, 0.0, 0.0, 0.0, 0.0, 1.7103946799093213E9, 0.0, 2024-03-13 22:37:59.909
80.0, -746.2708568582311, -363.41729839425534, -498.6988295414485, -417.0007150094025, 0.8640000410377979, 0.3840000182390213, 0.4640000220388174, 0.0, 0.0, 0.0, 0.0, 0.0, 1.710394679925351E9, 0.0, 2024-03-13 22:37:59.925
80.0, -749.7115648174658, -360.14488593302667, -485.01079570362344, -418.635051290039, 0.8640000410377979, 0.3840000182390213, 0.4640000220388174, 0.0, 0.0, 0.0, 0.0, 0.0, 1.710394679925351E9, 0.0, 2024-03-13 22:37:59.925
81.0, -746.9328191503882, -367.5087489457801, -487.5838468731381, -422.83121904032305, 0.8640000410377979, 0.3840000182390213, 0.4640000220388174, 0.0, 0.0, 0.0, 0.0, 0.0, 1.7103946799259682E9, 0.0, 2024-03-13 22:37:59.925
81.0, -748.2754432344809, -355.3129351902753, -500.5799992191605, -421.746648053173, 0.8640000410377979, 0.3840000182390213, 0.4640000220388174, 0.0, 0.0, 0.0, 0.0, 0.0, 1.7103946799259682E9, 0.0, 2024-03-13 22:37:59.925
82.0, -736.1245082784444, -357.38109986577183, -482.9127118284814, -413.7694414476864, 0.8640000410377979, 0.3840000182390213, 0.4640000220388174, 0.0, 0.0, 0.0, 0.0, 0.0, 1.7103946799394984E9, 0.0, 2024-03-13 22:37:59.939
82.0, -750.276289710775, -356.22921067941934, -474.3109419303946, -408.78789470670745, 0.8640000410377979, 0.3840000182390213, 0.4640000220388174, 0.0, 0.0, 0.0, 0.0, 0.0, 1.7103946799394984E9, 0.0, 2024-03-13 22:37:59.939
83.0, -760.1982442932203, -366.8019078541547, -483.8065479178913, -415.6169520257972, 0.8640000410377979, 0.3840000182390213, 0.4640000220388174, 0.0, 0.0, 0.0, 0.0, 0.0, 1.7103946799551158E9, 0.0, 2024-03-13 22:37:59.955
83.0, -756.596720635891, -370.766201807186, -496.16691727144644, -421.53721365565434, 0.8640000410377979, 0.3840000182390213, 0.4640000220388174, 0.0, 0.0, 0.0, 0.0, 0.0, 1.7103946799551158E9, 0.0, 2024-03-13 22:37:59.955
84.0, -753.8441542685032, -364.52804868109524, -474.318421730306, -406.04654803918675, 0.8640000410377979, 0.3840000182390213, 0.4640000220388174, 0.0, 0.0, 0.0, 0.0, 0.0, 1.7103946799557993E9, 0.0, 2024-03-13 22:37:59.955
84.0, -755.4448314495385, -365.08529377449304, -471.00487036956474, -404.0905803623609, 0.8640000410377979, 0.3840000182390213, 0.4640000220388174, 0.0, 0.0, 0.0, 0.0, 0.0, 1.7103946799557993E9, 0.0, 2024-03-13 22:37:59.955
85.0, -751.2075247997418, -360.8816462242976, -484.79014160623774, -409.92856419319287, 0.8640000410377979, 0.3840000182390213, 0.4640000220388174, 0.0, 0.0, 0.0, 0.0, 0.0, 1.7103946799694767E9, 0.0, 2024-03-13 22:37:59.969
85.0, -759.7494562985376, -374.31162696518004, -491.33870642865077, -418.7809073883109, 0.8640000410377979, 0.3840000182390213, 0.4640000220388174, 0.0, 0.0, 0.0, 0.0, 0.0, 1.7103946799694767E9, 0.0, 2024-03-13 22:37:59.969
86.0, -758.7509030103683, -369.2852014247328, -480.6837314548902, -409.2441625013016, 0.8640000410377979, 0.3840000182390213, 0.4640000220388174, 0.0, 0.0, 0.0, 0.0, 0.0, 1.7103946799852648E9, 0.0, 2024-03-13 22:37:59.985
86.0, -753.485123872757, -372.7633083835244, -499.12517813639715, -421.4474560567178, 0.8640000410377979, 0.3840000182390213, 0.4640000220388174, 0.0, 0.0, 0.0, 0.0, 0.0, 1.7103946799852648E9, 0.0, 2024-03-13 22:37:59.985
87.0, -742.7403913000599, -365.11521297413856, -487.5501877735369, -415.89744452247396, 0.8640000410377979, 0.3840000182390213, 0.4640000220388174, 0.0, 0.0, 0.0, 0.0, 0.0, 1.710394679985814E9, 0.0, 2024-03-13 22:37:59.985
87.0, -745.0628691725433, -362.2841087076813, -473.70881803752854, -406.8468866297044, 0.8640000410377979, 0.3840000182390213, 0.4640000220388174, 0.0, 0.0, 0.0, 0.0, 0.0, 1.710394679985814E9, 0.0, 2024-03-13 22:37:59.985
88.0, -757.3708799267188, -367.63216564431787, -497.9583293502219, -420.5910189668648, 0.8640000410377979, 0.3840000182390213, 0.4640000220388174, 0.0, 0.0, 0.0, 0.0, 0.0, 1.71039467999939E9, 0.0, 2024-03-13 22:37:59.999
88.0, -751.1476864004508, -360.8068482251838, -498.75866794073954, -420.516220967751, 0.8640000410377979, 0.3840000182390213, 0.4640000220388174, 0.0, 0.0, 0.0, 0.0, 0.0, 1.71039467999939E9, 0.0, 2024-03-13 22:37:59.999
89.0, -737.3212762642652, -346.3521348964423, -475.7321039135568, -407.1423387262039, 0.8640000410377979, 0.3840000182390213, 0.4640000220388174, 0.0, 0.0, 0.0, 0.0, 0.0, 1.7103946800150557E9, 0.0, 2024-03-13 22:38:00.015
89.0, -743.0994216958061, -360.1299263332039, -484.92851790459827, -412.8157669589855, 0.8640000410377979, 0.3840000182390213, 0.4640000220388174, 0.0, 0.0, 0.0, 0.0, 0.0, 1.7103946800150557E9, 0.0, 2024-03-13 22:38:00.015
90.0, -754.2742427634075, -365.11147307418287, -495.38901808066294, -426.1447704010643, 0.8640000410377979, 0.3840000182390213, 0.4480000212788582, 0.0, 0.0, 0.0, 0.0, 0.0, 1.710394680015856E9, 0.0, 2024-03-13 22:38:00.015
90.0, -752.5052700843662, -370.44831031095237, -501.68326970608905, -431.3619308392517, 0.8640000410377979, 0.3840000182390213, 0.4480000212788582, 0.0, 0.0, 0.0, 0.0, 0.0, 1.710394680015856E9, 0.0, 2024-03-13 22:38:00.015
91.0, -755.2540965517983, -356.11701368074864, -492.0380677203648, -422.9621155387722, 0.8640000410377979, 0.3840000182390213, 0.4480000212788582, 0.0, 0.0, 0.0, 0.0, 0.0, 1.7103946800294328E9, 0.0, 2024-03-13 22:38:00.029
91.0, -756.3162281392142, -354.41535920090973, -499.0017614378594, -426.2868865993805, 0.8640000410377979, 0.3840000182390213, 0.4480000212788582, 0.0, 0.0, 0.0, 0.0, 0.0, 1.7103946800294328E9, 0.0, 2024-03-13 22:38:00.029
92.0, -737.8224228583276, -343.84266202617437, -496.1706571714021, -419.708402577322, 0.8800000417977571, 0.3840000182390213, 0.4480000212788582, 0.0, 0.0, 0.0, 0.0, 0.0, 1.71039468004505E9, 0.0, 2024-03-13 22:38:00.045
92.0, -740.724585223943, -344.91601331345737, -474.3558207298629, -408.78789470670745, 0.8800000417977571, 0.3840000182390213, 0.4480000212788582, 0.0, 0.0, 0.0, 0.0, 0.0, 1.71039468004505E9, 0.0, 2024-03-13 22:38:00.045
93.0, -746.0389830609784, -354.52755619958043, -491.48830242687836, -414.67449723696336, 0.8800000417977571, 0.3840000182390213, 0.4480000212788582, 0.0, 0.0, 0.0, 0.0, 0.0, 1.7103946800458062E9, 0.0, 2024-03-13 22:38:00.045
93.0, -740.6834463244304, -350.95969164185226, -503.1754897884093, -415.87126522278413, 0.8800000417977571, 0.3840000182390213, 0.4480000212788582, 0.0, 0.0, 0.0, 0.0, 0.0, 1.7103946800458062E9, 0.0, 2024-03-13 22:38:00.045
94.0, -743.7090253885835, -357.7663095612079, -492.64019161323085, -418.5527734910138, 0.8800000417977571, 0.3840000182390213, 0.4480000212788582, 0.0, 0.0, 0.0, 0.0, 0.0, 1.7103946800594664E9, 0.0, 2024-03-13 22:38:00.059
94.0, -751.1364667005837, -356.5845011752099, -502.0684794015251, -420.27686737058684, 0.8800000417977571, 0.3840000182390213, 0.4480000212788582, 0.0, 0.0, 0.0, 0.0, 0.0, 1.7103946800594664E9, 0.0, 2024-03-13 22:38:00.059
95.0, -755.0970207536593, -354.77438959665596, -507.2295413403772, -420.31052647018805, 0.8800000417977571, 0.3840000182390213, 0.4480000212788582, 0.0, 0.0, 0.0, 0.0, 0.0, 1.7103946800750577E9, 0.0, 2024-03-13 22:38:00.075
95.0, -759.9588906960562, -357.6241933628917, -493.31337360525504, -419.5887257787399, 0.8800000417977571, 0.3840000182390213, 0.4480000212788582, 0.0, 0.0, 0.0, 0.0, 0.0, 1.7103946800750577E9, 0.0, 2024-03-13 22:38:00.075
96.0, -760.7854085862637, -357.6840317621827, -480.8445471529849, -409.8724656938575, 0.8800000417977571, 0.3840000182390213, 0.4480000212788582, 0.0, 0.0, 0.0, 0.0, 0.0, 1.710394680075898E9, 0.0, 2024-03-13 22:38:00.075
96.0, -751.3085020985454, -355.2456169910729, -482.89401232870296, -405.56410094490275, 0.8800000417977571, 0.3840000182390213, 0.4480000212788582, 0.0, 0.0, 0.0, 0.0, 0.0, 1.710394680075898E9, 0.0, 2024-03-13 22:38:00.075
97.0, -745.5378364669159, -359.29592864308506, -481.48780994536355, -408.4288643109612, 0.8800000417977571, 0.3840000182390213, 0.4480000212788582, 0.0, 0.0, 0.0, 0.0, 0.0, 1.7103946801058474E9, 0.0, 2024-03-13 22:38:00.105
97.0, -746.0539426608011, -365.05163467489183, -484.59566680854186, -411.8471328704618, 0.8800000417977571, 0.3840000182390213, 0.4480000212788582, 0.0, 0.0, 0.0, 0.0, 0.0, 1.7103946801058474E9, 0.0, 2024-03-13 22:38:00.105
98.0, -761.3576132794842, -367.71818334329873, -486.45439708651975, -414.7006765366532, 0.8800000417977571, 0.3840000182390213, 0.4480000212788582, 0.0, 0.0, 0.0, 0.0, 0.0, 1.710394680106459E9, 0.0, 2024-03-13 22:38:00.106
98.0, -759.9102719966322, -371.55906059779227, -503.3026463869028, -421.23802165919915, 0.8800000417977571, 0.3840000182390213, 0.4480000212788582, 0.0, 0.0, 0.0, 0.0, 0.0, 1.710394680106459E9, 0.0, 2024-03-13 22:38:00.106
99.0, -743.9109799861908, -353.92543230671436, -482.14977223752066, -405.4294645464979, 0.8800000417977571, 0.3840000182390213, 0.4480000212788582, 0.0, 0.0, 0.0, 0.0, 0.0, 1.7103946801072474E9, 0.0, 2024-03-13 22:38:00.107
99.0, -759.6372592998669, -360.22342383209616, -482.40782533446327, -408.6569982082583, 0.8800000417977571, 0.3840000182390213, 0.4480000212788582, 0.0, 0.0, 0.0, 0.0, 0.0, 1.7103946801072474E9, 0.0, 2024-03-13 22:38:00.107
100.0, -749.3749738214538, -358.29363545496017, -499.1064786366187, -417.67389700142667, 0.8800000417977571, 0.3840000182390213, 0.4480000212788582, 0.0, 0.0, 0.0, 0.0, 0.0, 1.7103946801365087E9, 0.0, 2024-03-13 22:38:00.136
100.0, -746.9290792504326, -357.77752926107496, -491.37610542820767, -415.23548223031685, 0.8800000417977571, 0.3840000182390213, 0.4480000212788582, 0.0, 0.0, 0.0, 0.0, 0.0, 1.7103946801365087E9, 0.0, 2024-03-13 22:38:00.136
0.0, -748.4100796328858, -355.98798713227734, -476.89895269973204, -401.16784854698926, 0.8800000417977571, 0.3840000182390213, 0.4480000212788582, 0.0, 0.0, 0.0, 0.0, 0.0, 1.7103946801371734E9, 0.0, 2024-03-13 22:38:00.137
1.0, -745.4069399684668, -352.1433699778281, -489.7380292476155, -410.43906053714454, 0.8800000417977571, 0.3840000182390213, 0.4480000212788582, 0.0, 0.0, 0.0, 0.0, 0.0, 1.710394680137885E9, 0.0, 2024-03-13 22:38:00.137
1.0, -743.630487489514, -356.45921452669427, -493.53776760259643, -414.9792990833521, 0.8800000417977571, 0.3840000182390213, 0.4480000212788582, 0.0, 0.0, 0.0, 0.0, 0.0, 1.710394680137885E9, 0.0, 2024-03-13 22:38:00.137
2.0, -754.9773439550772, -360.4796069790609, -490.7066633361392, -412.47730601299554, 0.8640000410377979, 0.3840000182390213, 0.4480000212788582, 0.0, 0.0, 0.0, 0.0, 0.0, 1.7103946801386397E9, 0.0, 2024-03-13 22:38:00.138
2.0, -758.1861781170592, -364.83659042743966, -492.5766133139841, -415.0802763821557, 0.8640000410377979, 0.3840000182390213, 0.4480000212788582, 0.0, 0.0, 0.0, 0.0, 0.0, 1.7103946801386397E9, 0.0, 2024-03-13 22:38:00.138
3.0, -749.8574209157377, -368.9056015792303, -494.5512804905884, -419.96458572428674, 0.8640000410377979, 0.3840000182390213, 0.4480000212788582, 0.0, 0.0, 0.0, 0.0, 0.0, 1.7103946801498003E9, 0.0, 2024-03-13 22:38:00.149
3.0, -759.0837541064247, -371.2019001520239, -497.75263485265896, -422.3506418960169, 0.8640000410377979, 0.3840000182390213, 0.4480000212788582, 0.0, 0.0, 0.0, 0.0, 0.0, 1.7103946801498003E9, 0.0, 2024-03-13 22:38:00.149
4.0, -749.8836002154276, -361.72125376434997, -491.82115352293476, -416.52013786509633, 0.8640000410377979, 0.3840000182390213, 0.4480000212788582, 0.0, 0.0, 0.0, 0.0, 0.0, 1.710394680165034E9, 0.0, 2024-03-13 22:38:00.165
4.0, -751.4393985969946, -367.4171213968657, -505.3782908623107, -422.4291797950864, 0.8640000410377979, 0.3840000182390213, 0.4480000212788582, 0.0, 0.0, 0.0, 0.0, 0.0, 1.710394680165034E9, 0.0, 2024-03-13 22:38:00.165
5.0, -751.8881865916774, -377.3016769797541, -490.8151204348542, -421.0940355109051, 0.8640000410377979, 0.3840000182390213, 0.4480000212788582, 0.0, 0.0, 0.0, 0.0, 0.0, 1.710394680180128E9, 0.0, 2024-03-13 22:38:00.180
5.0, -754.4761973610148, -363.336890545208, -486.9443239807151, -421.88689430151135, 0.8640000410377979, 0.3840000182390213, 0.4480000212788582, 0.0, 0.0, 0.0, 0.0, 0.0, 1.710394680180128E9, 0.0, 2024-03-13 22:38:00.180
6.0, -767.7191831041127, -374.10406251763925, -503.31760598672554, -423.8615614781156, 0.8640000410377979, 0.3840000182390213, 0.4480000212788582, 0.0, 0.0, 0.0, 0.0, 0.0, 1.710394680181158E9, 0.0, 2024-03-13 22:38:00.181
6.0, -750.8260550042614, -363.493966343347, -482.3255475354381, -415.80955687351525, 0.8640000410377979, 0.3840000182390213, 0.4480000212788582, 0.0, 0.0, 0.0, 0.0, 0.0, 1.710394680181158E9, 0.0, 2024-03-13 22:38:00.181
7.0, -755.269056151621, -363.3294107452966, -467.0891951159574, -404.2308266106993, 0.8640000410377979, 0.3840000182390213, 0.4480000212788582, 0.0, 0.0, 0.0, 0.0, 0.0, 1.710394680194374E9, 0.0, 2024-03-13 22:38:00.194
7.0, -761.9896563719958, -366.6093030064367, -494.6896567889489, -423.6371674807742, 0.8640000410377979, 0.3840000182390213, 0.4480000212788582, 0.0, 0.0, 0.0, 0.0, 0.0, 1.710394680194374E9, 0.0, 2024-03-13 22:38:00.194
8.0, -757.1464859293774, -368.4119347850792, -505.09405846567824, -423.13976078666747, 0.8640000410377979, 0.3840000182390213, 0.4480000212788582, 0.0, 0.0, 0.0, 0.0, 0.0, 1.710394680210038E9, 0.0, 2024-03-13 22:38:00.210
8.0, -755.4410915495828, -366.3063711100258, -487.8456398700364, -415.96289277169853, 0.8640000410377979, 0.3840000182390213, 0.4480000212788582, 0.0, 0.0, 0.0, 0.0, 0.0, 1.710394680210038E9, 0.0, 2024-03-13 22:38:00.210
9.0, -752.3519341861829, -359.94106138544157, -481.7608226421289, -406.28029178641737, 0.8640000410377979, 0.3840000182390213, 0.4480000212788582, 0.0, 0.0, 0.0, 0.0, 0.0, 1.7103946802107553E9, 0.0, 2024-03-13 22:38:00.210
9.0, -757.1764051290229, -364.9375677262433, -505.94675565557554, -421.5278639057651, 0.8640000410377979, 0.3840000182390213, 0.4480000212788582, 0.0, 0.0, 0.0, 0.0, 0.0, 1.7103946802107553E9, 0.0, 2024-03-13 22:38:00.210
10.0, -747.864054239355, -358.65079590072855, -481.0652012503706, -407.76877196878195, 0.8640000410377979, 0.3840000182390213, 0.4480000212788582, 0.0, 0.0, 0.0, 0.0, 0.0, 1.7103946802243664E9, 0.0, 2024-03-13 22:38:00.224
10.0, -742.2542043058202, -356.522792825941, -476.0574752097018, -399.98978006094694, 0.8640000410377979, 0.3840000182390213, 0.4480000212788582, 0.0, 0.0, 0.0, 0.0, 0.0, 1.7103946802243664E9, 0.0, 2024-03-13 22:38:00.224
11.0, -734.2433386007324, -345.4115500575863, -476.97001079889014, -400.31515135709196, 0.8640000410377979, 0.3840000182390213, 0.4480000212788582, 0.0, 0.0, 0.0, 0.0, 0.0, 1.7103946802400398E9, 0.0, 2024-03-13 22:38:00.240
11.0, -736.4199603749439, -342.27751389471814, -471.9510650583543, -399.7018077643588, 0.8640000410377979, 0.3840000182390213, 0.4480000212788582, 0.0, 0.0, 0.0, 0.0, 0.0, 1.7103946802400398E9, 0.0, 2024-03-13 22:38:00.240
12.0, -744.0343966847286, -350.5613922965713, -477.695551390294, -406.58322368282825, 0.8640000410377979, 0.3840000182390213, 0.4480000212788582, 0.0, 0.0, 0.0, 0.0, 0.0, 1.7103946802407482E9, 0.0, 2024-03-13 22:38:00.240
12.0, -743.3425151929259, -348.50444732094184, -474.6101339268498, -397.98145378474146, 0.8640000410377979, 0.3840000182390213, 0.4480000212788582, 0.0, 0.0, 0.0, 0.0, 0.0, 1.7103946802407482E9, 0.0, 2024-03-13 22:38:00.240
13.0, -729.2131731603295, -350.23602100042626, -484.5470481091179, -402.2711190339178, 0.8640000410377979, 0.3840000182390213, 0.4480000212788582, 0.0, 0.0, 0.0, 0.0, 0.0, 1.7103946802543793E9, 0.0, 2024-03-13 22:38:00.254
13.0, -735.7654778826982, -336.4283103640191, -466.6815460207872, -396.13394320663065, 0.8640000410377979, 0.3840000182390213, 0.4480000212788582, 0.0, 0.0, 0.0, 0.0, 0.0, 1.7103946802543793E9, 0.0, 2024-03-13 22:38:00.254
14.0, -739.494158138521, -338.75826803641394, -466.9433390176855, -396.06288510747254, 0.8640000410377979, 0.3840000182390213, 0.4480000212788582, 0.0, 0.0, 0.0, 0.0, 0.0, 1.7103946802700355E9, 0.0, 2024-03-13 22:38:00.270
14.0, -748.0248699374497, -356.474174126517, -490.56080723786727, -410.50263883639127, 0.8640000410377979, 0.3840000182390213, 0.4480000212788582, 0.0, 0.0, 0.0, 0.0, 0.0, 1.7103946802700355E9, 0.0, 2024-03-13 22:38:00.270
15.0, -750.010756813921, -359.7391067878343, -478.2752358834259, -405.9287411905825, 0.8640000410377979, 0.3840000182390213, 0.4480000212788582, 0.0, 0.0, 0.0, 0.0, 0.0, 1.7103946802707624E9, 0.0, 2024-03-13 22:38:00.270
15.0, -749.262776822783, -356.27595942886546, -478.720283978153, -404.39538220874965, 0.8640000410377979, 0.3840000182390213, 0.4480000212788582, 0.0, 0.0, 0.0, 0.0, 0.0, 1.7103946802707624E9, 0.0, 2024-03-13 22:38:00.270
16.0, -736.8724882695824, -349.8059325055219, -484.5395683092065, -401.73257344029844, 0.8640000410377979, 0.3840000182390213, 0.4480000212788582, 0.0, 0.0, 0.0, 0.0, 0.0, 1.710394680284389E9, 0.0, 2024-03-13 22:38:00.284
16.0, -726.1352354967967, -350.94660199200734, -486.3982985871844, -407.9445472666994, 0.8640000410377979, 0.3840000182390213, 0.4480000212788582, 0.0, 0.0, 0.0, 0.0, 0.0, 1.710394680284389E9, 0.0, 2024-03-13 22:38:00.284
17.0, -743.9782981853932, -353.97592095611617, -479.4009457700886, -408.419514561072, 0.8640000410377979, 0.3840000182390213, 0.4480000212788582, 0.0, 0.0, 0.0, 0.0, 0.0, 1.710394680300131E9, 0.0, 2024-03-13 22:38:00.300
17.0, -736.2666244767606, -350.6997685949318, -470.6047010743059, -399.7429466638714, 0.8640000410377979, 0.3840000182390213, 0.4480000212788582, 0.0, 0.0, 0.0, 0.0, 0.0, 1.710394680300131E9, 0.0, 2024-03-13 22:38:00.300
18.0, -745.5901950662956, -356.8107651225291, -484.82380070583895, -410.7868712330237, 0.8640000410377979, 0.3840000182390213, 0.4480000212788582, 0.0, 0.0, 0.0, 0.0, 0.0, 1.7103946803152285E9, 0.0, 2024-03-13 22:38:00.315
18.0, -754.1134270653129, -371.46743304887787, -481.1773982490413, -412.7465788098052, 0.8640000410377979, 0.3840000182390213, 0.4480000212788582, 0.0, 0.0, 0.0, 0.0, 0.0, 1.7103946803152285E9, 0.0, 2024-03-13 22:38:00.315
19.0, -757.0492485305294, -360.6030236775987, -484.5881870086305, -413.1205688053742, 0.8640000410377979, 0.3840000182390213, 0.4480000212788582, 0.0, 0.0, 0.0, 0.0, 0.0, 1.7103946803159552E9, 0.0, 2024-03-13 22:38:00.315
19.0, -741.4950046148151, -353.38875666307285, -484.1693182135932, -404.6384757058695, 0.8640000410377979, 0.3840000182390213, 0.4480000212788582, 0.0, 0.0, 0.0, 0.0, 0.0, 1.7103946803159552E9, 0.0, 2024-03-13 22:38:00.315
20.0, -738.5891023492441, -351.7357208826579, -473.3610073416494, -400.4086488559842, 0.8640000410377979, 0.3840000182390213, 0.4480000212788582, 0.0, 0.0, 0.0, 0.0, 0.0, 1.7103946803306744E9, 0.0, 2024-03-13 22:38:00.330
20.0, -738.8995140455663, -344.75332766538486, -471.48731746384874, -402.7573060281575, 0.8640000410377979, 0.3840000182390213, 0.4480000212788582, 0.0, 0.0, 0.0, 0.0, 0.0, 1.7103946803306744E9, 0.0, 2024-03-13 22:38:00.330
21.0, -734.8155432939529, -354.46584785031155, -482.4265248342417, -409.8294568443671, 0.8640000410377979, 0.3840000182390213, 0.4480000212788582, 0.0, 0.0, 0.0, 0.0, 0.0, 1.710394680330982E9, 0.0, 2024-03-13 22:38:00.330
21.0, -738.6078018490225, -360.1841548825614, -486.1664247899316, -414.62026868760586, 0.8640000410377979, 0.3840000182390213, 0.4480000212788582, 0.0, 0.0, 0.0, 0.0, 0.0, 1.710394680330982E9, 0.0, 2024-03-13 22:38:00.330
22.0, -730.4996987450868, -352.61085747228935, -468.5440161987208, -400.6330428533256, 0.8640000410377979, 0.3840000182390213, 0.4480000212788582, 0.0, 0.0, 0.0, 0.0, 0.0, 1.7103946803446848E9, 0.0, 2024-03-13 22:38:00.344
22.0, -745.3957202685997, -357.68590171216056, -487.4828695743345, -411.1159824291244, 0.8640000410377979, 0.3840000182390213, 0.4480000212788582, 0.0, 0.0, 0.0, 0.0, 0.0, 1.7103946803446848E9, 0.0, 2024-03-13 22:38:00.344
23.0, -739.6100950371474, -363.553804742638, -487.2846548766829, -408.2362594632432, 0.8640000410377979, 0.3840000182390213, 0.4480000212788582, 0.0, 0.0, 0.0, 0.0, 0.0, 1.710394680360074E9, 0.0, 2024-03-13 22:38:00.360
23.0, -750.7026383057237, -364.54487823089585, -480.12274646153674, -411.9425003193319, 0.8640000410377979, 0.3840000182390213, 0.4480000212788582, 0.0, 0.0, 0.0, 0.0, 0.0, 1.710394680360074E9, 0.0, 2024-03-13 22:38:00.360
24.0, -757.1016071299091, -370.2332660635002, -489.3266402524896, -420.03938372340053, 0.8640000410377979, 0.3840000182390213, 0.4480000212788582, 0.0, 0.0, 0.0, 0.0, 0.0, 1.710394680360814E9, 0.0, 2024-03-13 22:38:00.360
24.0, -743.2789368936792, -358.3029852048494, -491.914651021827, -412.6418616110459, 0.8640000410377979, 0.3840000182390213, 0.4480000212788582, 0.0, 0.0, 0.0, 0.0, 0.0, 1.710394680360814E9, 0.0, 2024-03-13 22:38:00.360
25.0, -731.9021612284705, -354.1890952535905, -476.07991460943595, -408.4905726602301, 0.8640000410377979, 0.3840000182390213, 0.4480000212788582, 0.0, 0.0, 0.0, 0.0, 0.0, 1.7103946803743892E9, 0.0, 2024-03-13 22:38:00.374
25.0, -743.5407298905775, -347.9920810270123, -474.85696732392535, -404.4589605079964, 0.8640000410377979, 0.3840000182390213, 0.4480000212788582, 0.0, 0.0, 0.0, 0.0, 0.0, 1.7103946803743892E9, 0.0, 2024-03-13 22:38:00.374
26.0, -747.5274632433429, -353.9310421566479, -486.93684418080375, -409.0403379537165, 0.8640000410377979, 0.3840000182390213, 0.4480000212788582, 0.0, 0.0, 0.0, 0.0, 0.0, 1.710394680390175E9, 0.0, 2024-03-13 22:38:00.390
26.0, -742.7553508998826, -351.8479178813286, -465.4623386352323, -395.3710036156699, 0.8640000410377979, 0.3840000182390213, 0.4480000212788582, 0.0, 0.0, 0.0, 0.0, 0.0, 1.710394680390175E9, 0.0, 2024-03-13 22:38:00.390
27.0, -746.8692408511415, -360.9657939733006, -475.066401721444, -401.7475330401212, 0.8640000410377979, 0.3840000182390213, 0.4480000212788582, 0.0, 0.0, 0.0, 0.0, 0.0, 1.7103946803908477E9, 0.0, 2024-03-13 22:38:00.390
27.0, -753.2981288749725, -364.2008074349724, -489.3303801524453, -411.9275407195091, 0.8640000410377979, 0.3840000182390213, 0.4480000212788582, 0.0, 0.0, 0.0, 0.0, 0.0, 1.7103946803908477E9, 0.0, 2024-03-13 22:38:00.390
28.0, -743.0246236966923, -364.1596685354598, -481.772042341996, -410.81305053271353, 0.8640000410377979, 0.3840000182390213, 0.4480000212788582, 0.0, 0.0, 0.0, 0.0, 0.0, 1.7103946804043753E9, 0.0, 2024-03-13 22:38:00.404
28.0, -736.5695563731715, -363.8268174394034, -487.4417306748219, -416.3855014666915, 0.8640000410377979, 0.3840000182390213, 0.4480000212788582, 0.0, 0.0, 0.0, 0.0, 0.0, 1.7103946804043753E9, 0.0, 2024-03-13 22:38:00.404
29.0, -753.2121111759916, -368.3446165858768, -500.09381222492084, -424.2093721739948, 0.8640000410377979, 0.3840000182390213, 0.4480000212788582, 0.0, 0.0, 0.0, 0.0, 0.0, 1.71039468042019E9, 0.0, 2024-03-13 22:38:00.420
29.0, -743.4509722916409, -352.8502110694535, -499.4842085321434, -415.32336987927556, 0.8640000410377979, 0.3840000182390213, 0.4480000212788582, 0.0, 0.0, 0.0, 0.0, 0.0, 1.71039468042019E9, 0.0, 2024-03-13 22:38:00.420
30.0, -733.2896641120315, -349.91064970428124, -480.7622693539597, -408.4980524601415, 0.8640000410377979, 0.3840000182390213, 0.4480000212788582, 0.0, 0.0, 0.0, 0.0, 0.0, 1.7103946804208417E9, 0.0, 2024-03-13 22:38:00.420
30.0, -744.161553283222, -355.10163084277883, -485.1753513016738, -410.43532063718885, 0.8640000410377979, 0.3840000182390213, 0.4480000212788582, 0.0, 0.0, 0.0, 0.0, 0.0, 1.7103946804208417E9, 0.0, 2024-03-13 22:38:00.420
31.0, -748.3876402331516, -356.46669432660565, -490.5795067376457, -411.8714422201738, 0.8640000410377979, 0.3840000182390213, 0.4480000212788582, 0.0, 0.0, 0.0, 0.0, 0.0, 1.7103946804343762E9, 0.0, 2024-03-13 22:38:00.434
31.0, -735.6869399836287, -353.1120040663518, -494.19972989475355, -412.387548414059, 0.8640000410377979, 0.3840000182390213, 0.4480000212788582, 0.0, 0.0, 0.0, 0.0, 0.0, 1.7103946804343762E9, 0.0, 2024-03-13 22:38:00.434
32.0, -737.1081019667909, -343.8557516760193, -479.44956446951255, -401.66151534114033, 0.8800000417977571, 0.3840000182390213, 0.4480000212788582, 0.0, 0.0, 0.0, 0.0, 0.0, 1.7103946804502344E9, 0.0, 2024-03-13 22:38:00.450
32.0, -733.7197526069358, -346.5185604444705, -481.9515575398691, -400.1431159591302, 0.8800000417977571, 0.3840000182390213, 0.4480000212788582, 0.0, 0.0, 0.0, 0.0, 0.0, 1.7103946804502344E9, 0.0, 2024-03-13 22:38:00.450
33.0, -732.463146221824, -343.0741125852801, -482.86409312905744, -397.19981469400227, 0.8800000417977571, 0.3840000182390213, 0.4480000212788582, 0.0, 0.0, 0.0, 0.0, 0.0, 1.710394680465028E9, 0.0, 2024-03-13 22:38:00.465
33.0, -733.9553663041443, -340.2579679186456, -481.7346433424391, -403.6661017173901, 0.8800000417977571, 0.3840000182390213, 0.4480000212788582, 0.0, 0.0, 0.0, 0.0, 0.0, 1.710394680465028E9, 0.0, 2024-03-13 22:38:00.465
34.0, -740.9302797215059, -346.71677514212206, -481.132519449573, -399.17074197065085, 0.8800000417977571, 0.3840000182390213, 0.4480000212788582, 0.0, 0.0, 0.0, 0.0, 0.0, 1.7103946804658172E9, 0.0, 2024-03-13 22:38:00.465
34.0, -733.4168207105249, -342.2513345950283, -486.33846018789336, -400.7863787515089, 0.8800000417977571, 0.3840000182390213, 0.4480000212788582, 0.0, 0.0, 0.0, 0.0, 0.0, 1.7103946804658172E9, 0.0, 2024-03-13 22:38:00.465
35.0, -735.4588060863316, -347.83874512882903, -478.82126127695665, -404.9750667018816, 0.8800000417977571, 0.3840000182390213, 0.4480000212788582, 0.0, 0.0, 0.0, 0.0, 0.0, 1.71039468048051E9, 0.0, 2024-03-13 22:38:00.480
35.0, -742.7516109999269, -349.2898263116367, -473.8097953363322, -401.1192298475653, 0.8800000417977571, 0.3840000182390213, 0.4480000212788582, 0.0, 0.0, 0.0, 0.0, 0.0, 1.71039468048051E9, 0.0, 2024-03-13 22:38:00.480
36.0, -752.8306413805112, -358.20948770595714, -497.8872712510638, -411.84152302052826, 0.8800000417977571, 0.3840000182390213, 0.4480000212788582, 0.0, 0.0, 0.0, 0.0, 0.0, 1.710394680480978E9, 0.0, 2024-03-13 22:38:00.480
36.0, -749.999537114054, -358.4563211030327, -492.4307572157122, -415.88809477258474, 0.8800000417977571, 0.3840000182390213, 0.4480000212788582, 0.0, 0.0, 0.0, 0.0, 0.0, 1.710394680480978E9, 0.0, 2024-03-13 22:38:00.480
37.0, -742.3963205041364, -347.7377678300254, -466.03454332845286, -399.73546686396, 0.8800000417977571, 0.3840000182390213, 0.4480000212788582, 0.0, 0.0, 0.0, 0.0, 0.0, 1.7103946804944532E9, 0.0, 2024-03-13 22:38:00.494
37.0, -742.3626614045352, -356.631249924656, -488.05133436759934, -407.2339662751183, 0.8800000417977571, 0.3840000182390213, 0.4480000212788582, 0.0, 0.0, 0.0, 0.0, 0.0, 1.7103946804944532E9, 0.0, 2024-03-13 22:38:00.494
38.0, -749.6292870184407, -364.68699442921206, -503.27272718725726, -423.1958592860028, 0.8800000417977571, 0.3840000182390213, 0.4480000212788582, 0.0, 0.0, 0.0, 0.0, 0.0, 1.710394680510137E9, 0.0, 2024-03-13 22:38:00.510
38.0, -751.8545274920762, -369.69846036983654, -489.9100646455772, -417.5785295525566, 0.8800000417977571, 0.3840000182390213, 0.4480000212788582, 0.0, 0.0, 0.0, 0.0, 0.0, 1.710394680510137E9, 0.0, 2024-03-13 22:38:00.510
39.0, -763.1340657584369, -366.39612870896235, -488.5487410617061, -416.946486460045, 0.8800000417977571, 0.3840000182390213, 0.4480000212788582, 0.0, 0.0, 0.0, 0.0, 0.0, 1.7103946805107949E9, 0.0, 2024-03-13 22:38:00.510
39.0, -762.9545505605638, -368.3707958855666, -501.31675951043144, -421.5278639057651, 0.8800000417977571, 0.3840000182390213, 0.4480000212788582, 0.0, 0.0, 0.0, 0.0, 0.0, 1.7103946805107949E9, 0.0, 2024-03-13 22:38:00.510
40.0, -737.6915263598785, -353.4560748622753, -474.19126513181254, -405.13214250002056, 0.8800000417977571, 0.3840000182390213, 0.4480000212788582, 0.0, 0.0, 0.0, 0.0, 0.0, 1.7103946805243788E9, 0.0, 2024-03-13 22:38:00.524
40.0, -754.5210761604831, -354.0394992553629, -488.6272789607756, -414.25001859199256, 0.8800000417977571, 0.3840000182390213, 0.4480000212788582, 0.0, 0.0, 0.0, 0.0, 0.0, 1.7103946805243788E9, 0.0, 2024-03-13 22:38:00.524
41.0, -755.4971900489181, -365.2367597226985, -498.23508194694296, -412.92609400767833, 0.8800000417977571, 0.3840000182390213, 0.4480000212788582, 0.0, 0.0, 0.0, 0.0, 0.0, 1.7103946805401025E9, 0.0, 2024-03-13 22:38:00.540
41.0, -746.996397449635, -362.9404611499049, -488.45150366285816, -410.40540143754333, 0.8800000417977571, 0.3840000182390213, 0.4480000212788582, 0.0, 0.0, 0.0, 0.0, 0.0, 1.7103946805401025E9, 0.0, 2024-03-13 22:38:00.540
42.0, -755.0858010537922, -365.99595941370353, -482.26196923619136, -411.5198916243389, 0.8800000417977571, 0.3840000182390213, 0.4480000212788582, 0.0, 0.0, 0.0, 0.0, 0.0, 1.7103946805408092E9, 0.0, 2024-03-13 22:38:00.540
42.0, -754.8688868563622, -362.8619232508354, -501.4850550084375, -419.6915730275214, 0.8800000417977571, 0.3840000182390213, 0.4480000212788582, 0.0, 0.0, 0.0, 0.0, 0.0, 1.7103946805408092E9, 0.0, 2024-03-13 22:38:00.540
43.0, -748.3652008334175, -363.17233494715765, -493.72102270042524, -414.48189238924533, 0.8800000417977571, 0.3840000182390213, 0.4480000212788582, 0.0, 0.0, 0.0, 0.0, 0.0, 1.7103946805544128E9, 0.0, 2024-03-13 22:38:00.554
43.0, -753.653419370763, -363.35185014503077, -476.2519500073977, -409.77335834503174, 0.8800000417977571, 0.3840000182390213, 0.4480000212788582, 0.0, 0.0, 0.0, 0.0, 0.0, 1.7103946805544128E9, 0.0, 2024-03-13 22:38:00.554
44.0, -754.2592831635848, -367.65647499402985, -499.9629157264717, -420.15158072207123, 0.8800000417977571, 0.3840000182390213, 0.4480000212788582, 0.0, 0.0, 0.0, 0.0, 0.0, 1.7103946805700831E9, 0.0, 2024-03-13 22:38:00.570
44.0, -751.6899718940258, -374.9418001077138, -499.4729888322763, -419.9758054241538, 0.8800000417977571, 0.3840000182390213, 0.4480000212788582, 0.0, 0.0, 0.0, 0.0, 0.0, 1.7103946805700831E9, 0.0, 2024-03-13 22:38:00.570
45.0, -744.4233462801203, -371.51605174830183, -485.71015699533746, -409.0852167531848, 0.8800000417977571, 0.3840000182390213, 0.4480000212788582, 0.0, 0.0, 0.0, 0.0, 0.0, 1.7103946805708325E9, 0.0, 2024-03-13 22:38:00.570
45.0, -755.0558818541467, -372.99331223079935, -481.2559361481108, -409.02911825384945, 0.8800000417977571, 0.3840000182390213, 0.4480000212788582, 0.0, 0.0, 0.0, 0.0, 0.0, 1.7103946805708325E9, 0.0, 2024-03-13 22:38:00.570
46.0, -746.0128037612885, -364.13348923576996, -490.90487803379074, -413.3487027026713, 0.8800000417977571, 0.3840000182390213, 0.4480000212788582, 0.0, 0.0, 0.0, 0.0, 0.0, 1.7103946806008496E9, 0.0, 2024-03-13 22:38:00.600
46.0, -752.14623968862, -366.7775985044427, -487.2435159771703, -410.7793914331123, 0.8800000417977571, 0.3840000182390213, 0.4480000212788582, 0.0, 0.0, 0.0, 0.0, 0.0, 1.7103946806008496E9, 0.0, 2024-03-13 22:38:00.600
47.0, -751.820868392475, -362.94794094981626, -474.7223309255205, -408.35593626182526, 0.8800000417977571, 0.3840000182390213, 0.4480000212788582, 0.0, 0.0, 0.0, 0.0, 0.0, 1.710394680601431E9, 0.0, 2024-03-13 22:38:00.601
47.0, -754.2779826633632, -363.87543613882735, -492.4718961152248, -419.18294663354754, 0.8800000417977571, 0.3840000182390213, 0.4480000212788582, 0.0, 0.0, 0.0, 0.0, 0.0, 1.710394680601431E9, 0.0, 2024-03-13 22:38:00.601
48.0, -745.2723035700619, -363.2620925460942, -489.8539661462419, -411.18330062832683, 0.8800000417977571, 0.3840000182390213, 0.4480000212788582, 0.0, 0.0, 0.0, 0.0, 0.0, 1.710394680602245E9, 0.0, 2024-03-13 22:38:00.602
48.0, -755.3999526500702, -367.10670970054343, -483.2081639249809, -413.76757149770856, 0.8800000417977571, 0.3840000182390213, 0.4480000212788582, 0.0, 0.0, 0.0, 0.0, 0.0, 1.710394680602245E9, 0.0, 2024-03-13 22:38:00.602
49.0, -758.5489484127611, -368.161361488048, -492.24002231797203, -412.7465788098052, 0.8800000417977571, 0.3840000182390213, 0.4480000212788582, 0.0, 0.0, 0.0, 0.0, 0.0, 1.710394680614842E9, 0.0, 2024-03-13 22:38:00.614
49.0, -751.072888401337, -374.227479216177, -496.5147279673256, -417.8702417491004, 0.8800000417977571, 0.3840000182390213, 0.4480000212788582, 0.0, 0.0, 0.0, 0.0, 0.0, 1.710394680614842E9, 0.0, 2024-03-13 22:38:00.614
50.0, -757.3634001268074, -370.80921065667644, -492.2998607172631, -422.48527829442173, 0.8800000417977571, 0.3840000182390213, 0.4480000212788582, 0.0, 0.0, 0.0, 0.0, 0.0, 1.7103946806300907E9, 0.0, 2024-03-13 22:38:00.630
50.0, -760.2169437929988, -374.2798378155567, -492.4831158150919, -421.55778310541064, 0.8800000417977571, 0.3840000182390213, 0.4480000212788582, 0.0, 0.0, 0.0, 0.0, 0.0, 1.7103946806300907E9, 0.0, 2024-03-13 22:38:00.630
51.0, -766.6233924170956, -384.77399709122255, -510.61041090032086, -429.76686350815, 0.8800000417977571, 0.3840000182390213, 0.4480000212788582, 0.0, 0.0, 0.0, 0.0, 0.0, 1.7103946806308205E9, 0.0, 2024-03-13 22:38:00.630
51.0, -758.3881327146664, -381.6399609283544, -497.7376752528362, -425.92598625365645, 0.8800000417977571, 0.3840000182390213, 0.4480000212788582, 0.0, 0.0, 0.0, 0.0, 0.0, 1.7103946806308205E9, 0.0, 2024-03-13 22:38:00.630
52.0, -755.3700334504247, -367.02443190151826, -487.04904117947444, -418.2629312444478, 0.8800000417977571, 0.3840000182390213, 0.4480000212788582, 0.0, 0.0, 0.0, 0.0, 0.0, 1.71039468064443E9, 0.0, 2024-03-13 22:38:00.644
52.0, -756.5742812361568, -366.1455554119311, -487.9877560683526, -416.3406226672232, 0.8800000417977571, 0.3840000182390213, 0.4480000212788582, 0.0, 0.0, 0.0, 0.0, 0.0, 1.71039468064443E9, 0.0, 2024-03-13 22:38:00.644
53.0, -745.3358818693087, -355.4382218387909, -479.40842556999996, -409.1861940519884, 0.8800000417977571, 0.3840000182390213, 0.4480000212788582, 0.0, 0.0, 0.0, 0.0, 0.0, 1.7103946806602216E9, 0.0, 2024-03-13 22:38:00.660
53.0, -752.8904797798023, -366.84865660360083, -483.8065479178913, -411.20947992801666, 0.8800000417977571, 0.3840000182390213, 0.4480000212788582, 0.0, 0.0, 0.0, 0.0, 0.0, 1.7103946806602216E9, 0.0, 2024-03-13 22:38:00.660
54.0, -757.9430846199393, -370.54741765977815, -484.56200770894065, -407.70145376957953, 0.8800000417977571, 0.3840000182390213, 0.4480000212788582, 0.0, 0.0, 0.0, 0.0, 0.0, 1.7103946806610231E9, 0.0, 2024-03-13 22:38:00.661
54.0, -755.2391369519755, -362.03166546067223, -494.6597375893034, -413.786270997487, 0.8800000417977571, 0.3840000182390213, 0.4480000212788582, 0.0, 0.0, 0.0, 0.0, 0.0, 1.7103946806610231E9, 0.0, 2024-03-13 22:38:00.661
55.0, -742.1532270070165, -363.90909523842856, -473.70133823761716, -404.1971675110981, 0.8800000417977571, 0.3840000182390213, 0.4480000212788582, 0.0, 0.0, 0.0, 0.0, 0.0, 1.7103946806746423E9, 0.0, 2024-03-13 22:38:00.674
55.0, -758.6723651112989, -365.9623003141023, -486.9069249811582, -414.51929138880223, 0.8800000417977571, 0.3840000182390213, 0.4480000212788582, 0.0, 0.0, 0.0, 0.0, 0.0, 1.7103946806746423E9, 0.0, 2024-03-13 22:38:00.674
56.0, -755.0596217541024, -368.2623387868516, -497.04953366098925, -413.5319578005001, 0.8800000417977571, 0.3840000182390213, 0.4480000212788582, 0.0, 0.0, 0.0, 0.0, 0.0, 1.7103946806902256E9, 0.0, 2024-03-13 22:38:00.690
56.0, -747.4601450441405, -371.2056400519796, -493.27597460569814, -417.7206457508728, 0.8800000417977571, 0.3840000182390213, 0.4480000212788582, 0.0, 0.0, 0.0, 0.0, 0.0, 1.7103946806902256E9, 0.0, 2024-03-13 22:38:00.690
57.0, -761.8138810740784, -363.23965314636007, -487.16497807810083, -419.22034563310444, 0.8800000417977571, 0.3840000182390213, 0.4480000212788582, 0.0, 0.0, 0.0, 0.0, 0.0, 1.7103946806910477E9, 0.0, 2024-03-13 22:38:00.691
57.0, -754.883846456185, -363.47152694361284, -496.60448556626216, -414.5978292878717, 0.8800000417977571, 0.3840000182390213, 0.4480000212788582, 0.0, 0.0, 0.0, 0.0, 0.0, 1.7103946806910477E9, 0.0, 2024-03-13 22:38:00.691
58.0, -742.8002296993509, -353.6617693598382, -490.53088803822175, -416.8716884609312, 0.8800000417977571, 0.3840000182390213, 0.4480000212788582, 0.0, 0.0, 0.0, 0.0, 0.0, 1.7103946807043445E9, 0.0, 2024-03-13 22:38:00.704
58.0, -737.5307106617838, -341.7726274007, -471.59951446251944, -402.1626619352028, 0.8800000417977571, 0.3840000182390213, 0.4480000212788582, 0.0, 0.0, 0.0, 0.0, 0.0, 1.7103946807043445E9, 0.0, 2024-03-13 22:38:00.704
59.0, -746.3531346572563, -343.9567289748229, -477.33278109459206, -401.35484354477376, 0.8800000417977571, 0.3840000182390213, 0.4480000212788582, 0.0, 0.0, 0.0, 0.0, 0.0, 1.710394680720196E9, 0.0, 2024-03-13 22:38:00.720
59.0, -745.2536040702835, -352.5622387728654, -495.75926817627624, -411.81160382088274, 0.8800000417977571, 0.3840000182390213, 0.4480000212788582, 0.0, 0.0, 0.0, 0.0, 0.0, 1.710394680720196E9, 0.0, 2024-03-13 22:38:00.720
60.0, -734.561230096966, -350.79326609382406, -477.2841623951681, -403.5539047187194, 0.8800000417977571, 0.3840000182390213, 0.4480000212788582, 0.0, 0.0, 0.0, 0.0, 0.0, 1.710394680720873E9, 0.0, 2024-03-13 22:38:00.720
60.0, -751.8507875921205, -355.90944923320785, -485.2389296009205, -410.7606919333339, 0.8800000417977571, 0.3840000182390213, 0.4480000212788582, 0.0, 0.0, 0.0, 0.0, 0.0, 1.710394680720873E9, 0.0, 2024-03-13 22:38:00.720
61.0, -742.654373601079, -351.6609228835441, -488.8142739585601, -410.84296973235905, 0.8800000417977571, 0.3840000182390213, 0.4480000212788582, 0.0, 0.0, 0.0, 0.0, 0.0, 1.7103946807347689E9, 0.0, 2024-03-13 22:38:00.734
61.0, -740.6273478250951, -359.84008408663794, -499.89933742722496, -419.47091893013567, 0.8800000417977571, 0.3840000182390213, 0.4480000212788582, 0.0, 0.0, 0.0, 0.0, 0.0, 1.7103946807347689E9, 0.0, 2024-03-13 22:38:00.734
62.0, -762.0943735707551, -361.58287746598944, -488.01767526799813, -418.8201763378456, 0.8800000417977571, 0.3840000182390213, 0.4480000212788582, 0.0, 0.0, 0.0, 0.0, 0.0, 1.7103946807503424E9, 0.0, 2024-03-13 22:38:00.750
62.0, -759.2445698045194, -373.0793299297802, -489.8390065464191, -419.6092952284962, 0.8800000417977571, 0.3840000182390213, 0.4480000212788582, 0.0, 0.0, 0.0, 0.0, 0.0, 1.7103946807503424E9, 0.0, 2024-03-13 22:38:00.750
63.0, -752.7745428811759, -363.28079204587266, -493.34703270485625, -416.9390066601336, 0.8800000417977571, 0.3840000182390213, 0.4480000212788582, 0.0, 0.0, 0.0, 0.0, 0.0, 1.710394680750879E9, 0.0, 2024-03-13 22:38:00.750
63.0, -754.9137656558305, -365.0422849250026, -487.0939199789427, -413.9695260953158, 0.8800000417977571, 0.3840000182390213, 0.4480000212788582, 0.0, 0.0, 0.0, 0.0, 0.0, 1.710394680750879E9, 0.0, 2024-03-13 22:38:00.750
64.0, -759.9626305960119, -370.36042266199365, -496.8438391634263, -418.4873252417892, 0.8800000417977571, 0.3840000182390213, 0.4480000212788582, 0.0, 0.0, 0.0, 0.0, 0.0, 1.7103946807647889E9, 0.0, 2024-03-13 22:38:00.764
64.0, -761.2528960807249, -373.84974932065234, -508.9947741194628, -426.99559764098376, 0.8800000417977571, 0.3840000182390213, 0.4480000212788582, 0.0, 0.0, 0.0, 0.0, 0.0, 1.7103946807647889E9, 0.0, 2024-03-13 22:38:00.764
65.0, -751.5254162959754, -366.4597070082091, -484.6517653078772, -417.3877946548164, 0.8800000417977571, 0.3840000182390213, 0.4480000212788582, 0.0, 0.0, 0.0, 0.0, 0.0, 1.7103946807800765E9, 0.0, 2024-03-13 22:38:00.780
65.0, -758.634966111742, -376.96508598374203, -491.49204232683405, -421.5764826051891, 0.8800000417977571, 0.3840000182390213, 0.4480000212788582, 0.0, 0.0, 0.0, 0.0, 0.0, 1.7103946807800765E9, 0.0, 2024-03-13 22:38:00.780
66.0, -760.3328806916252, -369.06641727732494, -509.27900651609525, -429.6210074098781, 0.8800000417977571, 0.3840000182390213, 0.4480000212788582, 0.0, 0.0, 0.0, 0.0, 0.0, 1.7103946807812247E9, 0.0, 2024-03-13 22:38:00.781
66.0, -757.307301627472, -377.7841240740381, -513.6584293642081, -433.469364464283, 0.8800000417977571, 0.3840000182390213, 0.4480000212788582, 0.0, 0.0, 0.0, 0.0, 0.0, 1.7103946807812247E9, 0.0, 2024-03-13 22:38:00.781
67.0, -760.9088252848014, -374.80342380935326, -501.623431306798, -425.82126905489713, 0.8800000417977571, 0.3840000182390213, 0.4480000212788582, 0.0, 0.0, 0.0, 0.0, 0.0, 1.7103946807949915E9, 0.0, 2024-03-13 22:38:00.794
67.0, -755.2428768519312, -369.61992247076705, -505.7672404577024, -422.4291797950864, 0.8800000417977571, 0.3840000182390213, 0.4480000212788582, 0.0, 0.0, 0.0, 0.0, 0.0, 1.7103946807949915E9, 0.0, 2024-03-13 22:38:00.794
68.0, -746.8729807510972, -377.8626619731076, -501.0661862134002, -421.4306265069172, 0.8800000417977571, 0.3840000182390213, 0.4480000212788582, 0.0, 0.0, 0.0, 0.0, 0.0, 1.7103946808100798E9, 0.0, 2024-03-13 22:38:00.810
68.0, -746.1437002597377, -368.80836418038234, -491.38358522811905, -417.18584005720913, 0.8800000417977571, 0.3840000182390213, 0.4480000212788582, 0.0, 0.0, 0.0, 0.0, 0.0, 1.7103946808100798E9, 0.0, 2024-03-13 22:38:00.810
69.0, -763.4743966544047, -372.2004534401931, -488.7245163596235, -417.27185775619, 0.8800000417977571, 0.3840000182390213, 0.4480000212788582, 0.0, 0.0, 0.0, 0.0, 0.0, 1.7103946808108096E9, 0.0, 2024-03-13 22:38:00.810
69.0, -750.265070010908, -364.5710575305857, -484.5133890095167, -411.92380081955343, 0.8800000417977571, 0.3840000182390213, 0.4480000212788582, 0.0, 0.0, 0.0, 0.0, 0.0, 1.7103946808108096E9, 0.0, 2024-03-13 22:38:00.810
70.0, -751.7909491928294, -374.5752899120562, -484.0309419152327, -416.69591316301376, 0.8800000417977571, 0.3840000182390213, 0.43200002051889896, 0.0, 0.0, 0.0, 0.0, 0.0, 1.7103946808245044E9, 0.0, 2024-03-13 22:38:00.824
70.0, -761.3538733795285, -369.7919578687288, -485.9495105925016, -413.84610939677805, 0.8800000417977571, 0.3840000182390213, 0.43200002051889896, 0.0, 0.0, 0.0, 0.0, 0.0, 1.7103946808245044E9, 0.0, 2024-03-13 22:38:00.824
71.0, -766.6196525171399, -375.07269660616294, -494.97388918558136, -416.06760997045785, 0.8800000417977571, 0.3680000174790621, 0.43200002051889896, 0.0, 0.0, 0.0, 0.0, 0.0, 1.7103946808400917E9, 0.0, 2024-03-13 22:38:00.840
71.0, -757.1165667297319, -367.50313909584656, -492.9206841099076, -418.3414691435173, 0.8800000417977571, 0.3680000174790621, 0.43200002051889896, 0.0, 0.0, 0.0, 0.0, 0.0, 1.7103946808400917E9, 0.0, 2024-03-13 22:38:00.840
72.0, -767.8912185020745, -374.25365851586685, -484.8873790050857, -419.84864882566035, 0.8800000417977571, 0.3680000174790621, 0.43200002051889896, 0.0, 0.0, 0.0, 0.0, 0.0, 1.7103946808408267E9, 0.0, 2024-03-13 22:38:00.840
72.0, -767.9061781018972, -381.4193068309687, -493.2909342055209, -420.63402781635523, 0.8800000417977571, 0.3680000174790621, 0.43200002051889896, 0.0, 0.0, 0.0, 0.0, 0.0, 1.7103946808408267E9, 0.0, 2024-03-13 22:38:00.840
73.0, -763.8857856495306, -382.3767212196253, -494.5587602904998, -419.8935276251286, 0.8800000417977571, 0.3680000174790621, 0.43200002051889896, 0.0, 0.0, 0.0, 0.0, 0.0, 1.7103946808551495E9, 0.0, 2024-03-13 22:38:00.855
73.0, -764.6973439399153, -374.0479640183039, -485.45958369830623, -419.06700973492116, 0.8800000417977571, 0.3680000174790621, 0.43200002051889896, 0.0, 0.0, 0.0, 0.0, 0.0, 1.7103946808551495E9, 0.0, 2024-03-13 22:38:00.855
74.0, -766.6495717167854, -379.2800840563141, -495.2618614821695, -421.15013401024044, 0.8800000417977571, 0.3680000174790621, 0.43200002051889896, 0.0, 0.0, 0.0, 0.0, 0.0, 1.710394680870154E9, 0.0, 2024-03-13 22:38:00.870
74.0, -757.9543043198064, -370.58107675937936, -498.1079253484495, -421.8756746016443, 0.8800000417977571, 0.3680000174790621, 0.43200002051889896, 0.0, 0.0, 0.0, 0.0, 0.0, 1.710394680870154E9, 0.0, 2024-03-13 22:38:00.870
75.0, -757.6887714229524, -372.3874484379776, -503.82623238069937, -426.40843334794044, 0.8800000417977571, 0.3680000174790621, 0.43200002051889896, 0.0, 0.0, 0.0, 0.0, 0.0, 1.710394680870802E9, 0.0, 2024-03-13 22:38:00.870
75.0, -756.1404528412968, -368.7447858811356, -492.08668641978875, -417.36535525508225, 0.8800000417977571, 0.3680000174790621, 0.43200002051889896, 0.0, 0.0, 0.0, 0.0, 0.0, 1.710394680870802E9, 0.0, 2024-03-13 22:38:00.870
76.0, -751.3795601977035, -362.32711755717173, -500.1012920248322, -414.1565210931003, 0.8800000417977571, 0.3680000174790621, 0.43200002051889896, 0.0, 0.0, 0.0, 0.0, 0.0, 1.7103946808848696E9, 0.0, 2024-03-13 22:38:00.884
76.0, -744.69261907693, -352.8876100690104, -483.6494721197523, -402.47307363152504, 0.8800000417977571, 0.3680000174790621, 0.43200002051889896, 0.0, 0.0, 0.0, 0.0, 0.0, 1.7103946808848696E9, 0.0, 2024-03-13 22:38:00.884
77.0, -745.934265862219, -345.13479746086523, -457.0774829345755, -388.5905649960041, 0.8800000417977571, 0.3680000174790621, 0.43200002051889896, 0.0, 0.0, 0.0, 0.0, 0.0, 1.710394680900328E9, 0.0, 2024-03-13 22:38:00.900
77.0, -746.0277633611113, -350.27715989993885, -485.5381215973757, -404.2607458103448, 0.8800000417977571, 0.3680000174790621, 0.43200002051889896, 0.0, 0.0, 0.0, 0.0, 0.0, 1.710394680900328E9, 0.0, 2024-03-13 22:38:00.900
78.0, -742.0298103084788, -353.2204611650668, -491.08065333170816, -406.61688278242946, 0.8800000417977571, 0.3680000174790621, 0.43200002051889896, 0.0, 0.0, 0.0, 0.0, 0.0, 1.7103946809009368E9, 0.0, 2024-03-13 22:38:00.900
78.0, -754.7043312583119, -359.3464172924869, -481.96651713969186, -407.8323502680287, 0.8800000417977571, 0.3680000174790621, 0.43200002051889896, 0.0, 0.0, 0.0, 0.0, 0.0, 1.7103946809009368E9, 0.0, 2024-03-13 22:38:00.900
79.0, -760.8976055849344, -362.6674484531395, -482.8491335292347, -410.7195530338213, 0.8800000417977571, 0.3680000174790621, 0.43200002051889896, 0.0, 0.0, 0.0, 0.0, 0.0, 1.7103946809147773E9, 0.0, 2024-03-13 22:38:00.914
79.0, -747.0487560490146, -353.2952591641806, -478.37621318222955, -400.1917346585542, 0.8800000417977571, 0.3680000174790621, 0.43200002051889896, 0.0, 0.0, 0.0, 0.0, 0.0, 1.7103946809147773E9, 0.0, 2024-03-13 22:38:00.914
80.0, -752.4566513849422, -355.7037547356449, -475.1785987201147, -402.31973773334175, 0.8800000417977571, 0.3680000174790621, 0.43200002051889896, 0.0, 0.0, 0.0, 0.0, 0.0, 1.710394680930328E9, 0.0, 2024-03-13 22:38:00.930
80.0, -758.3469938151538, -355.23626724118367, -470.2120115789585, -397.97771388478577, 0.8800000417977571, 0.3680000174790621, 0.43200002051889896, 0.0, 0.0, 0.0, 0.0, 0.0, 1.710394680930328E9, 0.0, 2024-03-13 22:38:00.930
81.0, -742.2018457064405, -348.16411642497405, -475.29453561874107, -397.05769849568605, 0.8800000417977571, 0.3680000174790621, 0.43200002051889896, 0.0, 0.0, 0.0, 0.0, 0.0, 1.71039468093103E9, 0.0, 2024-03-13 22:38:00.931
81.0, -743.9670784855261, -354.97821414424106, -486.439437486697, -405.259299098514, 0.8800000417977571, 0.3680000174790621, 0.43200002051889896, 0.0, 0.0, 0.0, 0.0, 0.0, 1.71039468093103E9, 0.0, 2024-03-13 22:38:00.931
82.0, -748.5222766315565, -356.1600225302391, -481.0951204500161, -405.69686739332974, 0.8800000417977571, 0.3680000174790621, 0.43200002051889896, 0.0, 0.0, 0.0, 0.0, 0.0, 1.7103946809447243E9, 0.0, 2024-03-13 22:38:00.944
82.0, -748.0061704376712, -354.68276204774156, -486.0617075911723, -401.69143454078585, 0.8800000417977571, 0.3680000174790621, 0.43200002051889896, 0.0, 0.0, 0.0, 0.0, 0.0, 1.7103946809447243E9, 0.0, 2024-03-13 22:38:00.944
83.0, -745.8632077630609, -350.01162700308487, -490.8001608350314, -407.28258497454226, 0.8800000417977571, 0.3680000174790621, 0.43200002051889896, 0.0, 0.0, 0.0, 0.0, 0.0, 1.7103946809600697E9, 0.0, 2024-03-13 22:38:00.960
83.0, -748.7878095284104, -351.20465508894995, -476.34170760633424, -407.66405477002263, 0.8800000417977571, 0.3680000174790621, 0.43200002051889896, 0.0, 0.0, 0.0, 0.0, 0.0, 1.7103946809600697E9, 0.0, 2024-03-13 22:38:00.960
84.0, -745.8781673628837, -343.97168857464567, -469.602407886181, -400.7153206523508, 0.8800000417977571, 0.3680000174790621, 0.43200002051889896, 0.0, 0.0, 0.0, 0.0, 0.0, 1.710394680960808E9, 0.0, 2024-03-13 22:38:00.960
84.0, -742.4411993036047, -356.61629032483324, -483.97484341589734, -408.0754437651485, 0.8800000417977571, 0.3680000174790621, 0.43200002051889896, 0.0, 0.0, 0.0, 0.0, 0.0, 1.710394680960808E9, 0.0, 2024-03-13 22:38:00.960
85.0, -729.6918803546578, -344.83560546441004, -474.26232323097065, -403.9765134137124, 0.8800000417977571, 0.3680000174790621, 0.43200002051889896, 0.0, 0.0, 0.0, 0.0, 0.0, 1.71039468097441E9, 0.0, 2024-03-13 22:38:00.974
85.0, -740.1673401305452, -348.09679822577164, -473.52182303974405, -400.64800245314837, 0.8800000417977571, 0.3680000174790621, 0.43200002051889896, 0.0, 0.0, 0.0, 0.0, 0.0, 1.71039468097441E9, 0.0, 2024-03-13 22:38:00.974
86.0, -739.4492793390527, -354.1554361539893, -483.29792152391747, -403.29211172182113, 0.8800000417977571, 0.3680000174790621, 0.43200002051889896, 0.0, 0.0, 0.0, 0.0, 0.0, 1.710394680990075E9, 0.0, 2024-03-13 22:38:00.990
86.0, -737.0108645679429, -344.75706756534055, -476.22203080775216, -391.6610228596255, 0.8800000417977571, 0.3680000174790621, 0.43200002051889896, 0.0, 0.0, 0.0, 0.0, 0.0, 1.710394680990075E9, 0.0, 2024-03-13 22:38:00.990
87.0, -732.0367976268753, -331.60757932113484, -464.40020704781637, -384.0652860496193, 0.8800000417977571, 0.3680000174790621, 0.43200002051889896, 0.0, 0.0, 0.0, 0.0, 0.0, 1.7103946809907777E9, 0.0, 2024-03-13 22:38:00.990
87.0, -737.7775440588593, -341.60433190269396, -467.287409813609, -389.49936068523675, 0.8800000417977571, 0.3680000174790621, 0.43200002051889896, 0.0, 0.0, 0.0, 0.0, 0.0, 1.7103946809907777E9, 0.0, 2024-03-13 22:38:00.990
88.0, -739.0229307441041, -347.49093443294987, -477.4038391937502, -392.3641240512952, 0.8800000417977571, 0.3680000174790621, 0.43200002051889896, 0.0, 0.0, 0.0, 0.0, 0.0, 1.710394681004386E9, 0.0, 2024-03-13 22:38:01.004
88.0, -731.2401989363134, -338.8517655353062, -449.6014229231514, -382.38607096951455, 0.8800000417977571, 0.3680000174790621, 0.43200002051889896, 0.0, 0.0, 0.0, 0.0, 0.0, 1.710394681004386E9, 0.0, 2024-03-13 22:38:01.004
89.0, -750.3136887103319, -356.9977601203136, -484.401192010846, -405.2219000989571, 0.8800000417977571, 0.3680000174790621, 0.43200002051889896, 0.0, 0.0, 0.0, 0.0, 0.0, 1.7103946810201223E9, 0.0, 2024-03-13 22:38:01.020
89.0, -756.7911954335868, -359.16316219465807, -482.71449713082984, -404.83295050356537, 0.8800000417977571, 0.3680000174790621, 0.43200002051889896, 0.0, 0.0, 0.0, 0.0, 0.0, 1.7103946810201223E9, 0.0, 2024-03-13 22:38:01.020
90.0, -743.2041388945654, -355.8944896333851, -468.10644790390506, -396.8968827975914, 0.8800000417977571, 0.3680000174790621, 0.43200002051889896, 0.0, 0.0, 0.0, 0.0, 0.0, 1.7103946810210495E9, 0.0, 2024-03-13 22:38:01.021
90.0, -755.1792985526845, -355.5204996378161, -473.26750984275714, -397.4391682911664, 0.8800000417977571, 0.3680000174790621, 0.43200002051889896, 0.0, 0.0, 0.0, 0.0, 0.0, 1.7103946810210495E9, 0.0, 2024-03-13 22:38:01.021
91.0, -739.494158138521, -349.7722734059207, -482.37042633490637, -401.4894799431786, 0.8800000417977571, 0.3840000182390213, 0.43200002051889896, 0.0, 0.0, 0.0, 0.0, 0.0, 1.7103946810345724E9, 0.0, 2024-03-13 22:38:01.034
91.0, -740.2944967290387, -351.5973445842974, -481.5775675443001, -404.0475715128705, 0.8800000417977571, 0.3840000182390213, 0.43200002051889896, 0.0, 0.0, 0.0, 0.0, 0.0, 1.7103946810345724E9, 0.0, 2024-03-13 22:38:01.034
92.0, -741.8428153106943, -341.37993790535256, -465.309002737049, -391.148656565696, 0.8800000417977571, 0.3840000182390213, 0.43200002051889896, 0.0, 0.0, 0.0, 0.0, 0.0, 1.7103946810501845E9, 0.0, 2024-03-13 22:38:01.050
92.0, -747.8303951397538, -348.39225032227114, -491.1853705304675, -401.05565154831856, 0.8800000417977571, 0.3840000182390213, 0.43200002051889896, 0.0, 0.0, 0.0, 0.0, 0.0, 1.7103946810501845E9, 0.0, 2024-03-13 22:38:01.050
93.0, -738.0804759552702, -343.4705419805832, -482.8416537293233, -393.72170773521066, 0.8800000417977571, 0.3840000182390213, 0.43200002051889896, 0.0, 0.0, 0.0, 0.0, 0.0, 1.7103946810508592E9, 0.0, 2024-03-13 22:38:01.050
93.0, -730.207986548543, -344.98520146263763, -465.7278715320863, -393.58333143685013, 0.8800000417977571, 0.3840000182390213, 0.43200002051889896, 0.0, 0.0, 0.0, 0.0, 0.0, 1.7103946810508592E9, 0.0, 2024-03-13 22:38:01.050
94.0, -734.4602527981624, -337.38946465263143, -465.52217703452334, -392.35290435142815, 0.8800000417977571, 0.3840000182390213, 0.43200002051889896, 0.0, 0.0, 0.0, 0.0, 0.0, 1.710394681064496E9, 0.0, 2024-03-13 22:38:01.064
94.0, -732.2050931248814, -345.4040702576749, -475.5825079153292, -396.1788220060989, 0.8800000417977571, 0.3840000182390213, 0.43200002051889896, 0.0, 0.0, 0.0, 0.0, 0.0, 1.710394681064496E9, 0.0, 2024-03-13 22:38:01.064
95.0, -728.229579471983, -339.3940510288812, -458.2368519208394, -386.5971983196214, 0.8800000417977571, 0.3840000182390213, 0.43200002051889896, 0.0, 0.0, 0.0, 0.0, 0.0, 1.7103946810800369E9, 0.0, 2024-03-13 22:38:01.080
95.0, -737.6017687609419, -338.78818723605946, -476.82415470061824, -395.973127508536, 0.8800000417977571, 0.3840000182390213, 0.43200002051889896, 0.0, 0.0, 0.0, 0.0, 0.0, 1.7103946810800369E9, 0.0, 2024-03-13 22:38:01.080
96.0, -739.4717187387869, -345.2208151598461, -487.0191219798289, -398.602277177386, 0.8800000417977571, 0.3840000182390213, 0.43200002051889896, 0.0, 0.0, 0.0, 0.0, 0.0, 1.710394681080766E9, 0.0, 2024-03-13 22:38:01.080
96.0, -728.8055240651593, -344.28210027096793, -483.33532052347437, -404.933927802369, 0.8800000417977571, 0.3840000182390213, 0.43200002051889896, 0.0, 0.0, 0.0, 0.0, 0.0, 1.710394681080766E9, 0.0, 2024-03-13 22:38:01.080
97.0, -732.1003759261221, -349.12153081363067, -470.58974147448316, -396.2311806054786, 0.8800000417977571, 0.3840000182390213, 0.43200002051889896, 0.0, 0.0, 0.0, 0.0, 0.0, 1.7103946810943997E9, 0.0, 2024-03-13 22:38:01.094
97.0, -746.0726421605796, -357.596144113224, -470.1633928795345, -399.5297723663971, 0.8800000417977571, 0.3840000182390213, 0.43200002051889896, 0.0, 0.0, 0.0, 0.0, 0.0, 1.7103946810943997E9, 0.0, 2024-03-13 22:38:01.094
98.0, -741.9886714089662, -365.43123452039436, -488.8853320577182, -410.5736969355494, 0.8800000417977571, 0.3840000182390213, 0.43200002051889896, 0.0, 0.0, 0.0, 0.0, 0.0, 1.7103946811100883E9, 0.0, 2024-03-13 22:38:01.110
98.0, -749.3525344217196, -370.0013922662474, -484.4647703100927, -413.99944529496133, 0.8800000417977571, 0.3840000182390213, 0.43200002051889896, 0.0, 0.0, 0.0, 0.0, 0.0, 1.7103946811100883E9, 0.0, 2024-03-13 22:38:01.110
99.0, -746.2783366581425, -353.0484257671051, -472.9570981464349, -402.8882025266066, 0.8800000417977571, 0.3840000182390213, 0.43200002051889896, 0.0, 0.0, 0.0, 0.0, 0.0, 1.7103946811108315E9, 0.0, 2024-03-13 22:38:01.110
99.0, -745.0142504731193, -357.9327351092361, -491.1330119310878, -412.3090105149895, 0.8800000417977571, 0.3840000182390213, 0.43200002051889896, 0.0, 0.0, 0.0, 0.0, 0.0, 1.7103946811108315E9, 0.0, 2024-03-13 22:38:01.110
100.0, -749.5544890193269, -369.4553668727167, -485.0556745030917, -417.06990315858275, 0.8800000417977571, 0.3840000182390213, 0.43200002051889896, 0.0, 0.0, 0.0, 0.0, 0.0, 1.7103946811250253E9, 0.0, 2024-03-13 22:38:01.125
100.0, -761.6044466765597, -370.8578293561004, -492.131565219257, -416.7520116623491, 0.8800000417977571, 0.3840000182390213, 0.43200002051889896, 0.0, 0.0, 0.0, 0.0, 0.0, 1.7103946811250253E9, 0.0, 2024-03-13 22:38:01.125
0.0, -752.3650238360278, -362.1045935098082, -492.7430388620123, -418.6574906897731, 0.8800000417977571, 0.3840000182390213, 0.43200002051889896, 0.0, 0.0, 0.0, 0.0, 0.0, 1.7103946811258073E9, 0.0, 2024-03-13 22:38:01.125
1.0, -741.8259857608937, -367.7593222428113, -483.10157677624375, -415.9273637221195, 0.8800000417977571, 0.3840000182390213, 0.43200002051889896, 0.0, 0.0, 0.0, 0.0, 0.0, 1.7103946811394293E9, 0.0, 2024-03-13 22:38:01.139
1.0, -757.3016917775385, -365.242369572632, -488.3823155136779, -417.79731369996443, 0.8800000417977571, 0.3840000182390213, 0.43200002051889896, 0.0, 0.0, 0.0, 0.0, 0.0, 1.7103946811394293E9, 0.0, 2024-03-13 22:38:01.139
2.0, -761.1687483317219, -366.3979986589402, -494.3923347424716, -418.9679023860954, 0.8800000417977571, 0.3840000182390213, 0.43200002051889896, 0.0, 0.0, 0.0, 0.0, 0.0, 1.7103946811555128E9, 0.0, 2024-03-13 22:38:01.155
2.0, -737.7756741088815, -356.18433187995106, -477.3009919449687, -404.4383910582401, 0.8800000417977571, 0.3840000182390213, 0.43200002051889896, 0.0, 0.0, 0.0, 0.0, 0.0, 1.7103946811555128E9, 0.0, 2024-03-13 22:38:01.155
3.0, -757.2194139785133, -368.0921733388677, -486.4525271365419, -410.45589008694515, 0.8800000417977571, 0.3840000182390213, 0.43200002051889896, 0.0, 0.0, 0.0, 0.0, 0.0, 1.7103946811701007E9, 0.0, 2024-03-13 22:38:01.170
3.0, -762.6460088142194, -364.34479358326644, -496.10520892217755, -413.9564364454709, 0.8800000417977571, 0.3840000182390213, 0.43200002051889896, 0.0, 0.0, 0.0, 0.0, 0.0, 1.7103946811701007E9, 0.0, 2024-03-13 22:38:01.170
4.0, -757.9823535694741, -368.26794863678515, -501.21765216160566, -423.53058033203706, 0.8800000417977571, 0.3840000182390213, 0.43200002051889896, 0.0, 0.0, 0.0, 0.0, 0.0, 1.710394681170782E9, 0.0, 2024-03-13 22:38:01.170
4.0, -765.9483404750936, -374.53228106256574, -491.673427474685, -423.24260803544894, 0.8800000417977571, 0.3840000182390213, 0.43200002051889896, 0.0, 0.0, 0.0, 0.0, 0.0, 1.710394681170782E9, 0.0, 2024-03-13 22:38:01.170
5.0, -770.0584905263968, -381.5595530793071, -487.2790450267494, -421.56713285529986, 0.8800000417977571, 0.3840000182390213, 0.43200002051889896, 0.0, 0.0, 0.0, 0.0, 0.0, 1.7103946811850412E9, 0.0, 2024-03-13 22:38:01.185
5.0, -758.4423612640239, -374.2966673653573, -494.0819230461493, -421.8401455520652, 0.8800000417977571, 0.3840000182390213, 0.43200002051889896, 0.0, 0.0, 0.0, 0.0, 0.0, 1.7103946811850412E9, 0.0, 2024-03-13 22:38:01.185
6.0, -749.5563589693047, -369.30016102455556, -496.06780992262065, -425.05645951395854, 0.8800000417977571, 0.3840000182390213, 0.43200002051889896, 0.0, 0.0, 0.0, 0.0, 0.0, 1.710394681185768E9, 0.0, 2024-03-13 22:38:01.185
6.0, -757.8103181715123, -372.1387450909242, -487.0022924300283, -418.72106898901984, 0.8800000417977571, 0.3840000182390213, 0.43200002051889896, 0.0, 0.0, 0.0, 0.0, 0.0, 1.710394681185768E9, 0.0, 2024-03-13 22:38:01.185
7.0, -757.3091715774499, -359.26226954348385, -487.84376992005855, -410.15669809048995, 0.8800000417977571, 0.3840000182390213, 0.43200002051889896, 0.0, 0.0, 0.0, 0.0, 0.0, 1.7103946812000396E9, 0.0, 2024-03-13 22:38:01.200
7.0, -765.0694639855064, -374.2929274654016, -502.3396221483126, -426.09615170164034, 0.8800000417977571, 0.3840000182390213, 0.43200002051889896, 0.0, 0.0, 0.0, 0.0, 0.0, 1.7103946812000396E9, 0.0, 2024-03-13 22:38:01.200
8.0, -756.4190753879957, -376.82857963535935, -492.0100184706971, -426.80299279326573, 0.8800000417977571, 0.3840000182390213, 0.43200002051889896, 0.0, 0.0, 0.0, 0.0, 0.0, 1.710394681215557E9, 0.0, 2024-03-13 22:38:01.215
8.0, -763.0536579093896, -374.1882102666423, -490.99276568274945, -421.9261632510461, 0.8800000417977571, 0.3840000182390213, 0.43200002051889896, 0.0, 0.0, 0.0, 0.0, 0.0, 1.710394681215557E9, 0.0, 2024-03-13 22:38:01.215
9.0, -755.6935347965918, -374.16203096695244, -496.3557822192088, -421.60079195490107, 0.8800000417977571, 0.3840000182390213, 0.43200002051889896, 0.0, 0.0, 0.0, 0.0, 0.0, 1.7103946812160172E9, 0.0, 2024-03-13 22:38:01.216
9.0, -755.510279698763, -377.6176985260099, -492.3914882661775, -430.9542817440815, 0.8800000417977571, 0.3840000182390213, 0.43200002051889896, 0.0, 0.0, 0.0, 0.0, 0.0, 1.7103946812160172E9, 0.0, 2024-03-13 22:38:01.216
10.0, -775.4252469628118, -386.57475891988724, -499.26168448477983, -433.01870651962236, 0.8800000417977571, 0.3840000182390213, 0.4480000212788582, 0.0, 0.0, 0.0, 0.0, 0.0, 1.7103946812297747E9, 0.0, 2024-03-13 22:38:01.229
10.0, -772.4707259978168, -383.0293337618932, -508.2112650787458, -435.16540909418836, 0.8800000417977571, 0.3840000182390213, 0.4480000212788582, 0.0, 0.0, 0.0, 0.0, 0.0, 1.7103946812297747E9, 0.0, 2024-03-13 22:38:01.229
11.0, -762.1224228204228, -386.4850013209507, -490.974066182971, -426.32054569898173, 0.8800000417977571, 0.3680000174790621, 0.4480000212788582, 0.0, 0.0, 0.0, 0.0, 0.0, 1.7103946812451231E9, 0.0, 2024-03-13 22:38:01.245
11.0, -773.1513877897523, -390.2623002761975, -497.788163902238, -431.02159994328395, 0.8800000417977571, 0.3680000174790621, 0.4480000212788582, 0.0, 0.0, 0.0, 0.0, 0.0, 1.7103946812451231E9, 0.0, 2024-03-13 22:38:01.245
12.0, -772.5866628964432, -383.63893745467067, -506.7601838959381, -427.3751974864863, 0.8800000417977571, 0.3680000174790621, 0.4480000212788582, 0.0, 0.0, 0.0, 0.0, 0.0, 1.7103946812458627E9, 0.0, 2024-03-13 22:38:01.245
12.0, -765.0582442856394, -383.695035954006, -497.2047395091504, -426.1821694006212, 0.8800000417977571, 0.3680000174790621, 0.4480000212788582, 0.0, 0.0, 0.0, 0.0, 0.0, 1.7103946812458627E9, 0.0, 2024-03-13 22:38:01.245
13.0, -760.8358972356655, -383.61275815498084, -490.22234629187733, -423.6614768304862, 0.8800000417977571, 0.3680000174790621, 0.4480000212788582, 0.0, 0.0, 0.0, 0.0, 0.0, 1.7103946812593656E9, 0.0, 2024-03-13 22:38:01.259
13.0, -781.9064935860224, -395.72255421150476, -509.909179658629, -436.9343817732297, 0.8800000417977571, 0.3680000174790621, 0.4480000212788582, 0.0, 0.0, 0.0, 0.0, 0.0, 1.7103946812593656E9, 0.0, 2024-03-13 22:38:01.259
14.0, -766.7673785653897, -383.82593245245516, -517.0897875735536, -440.99217322515324, 0.8800000417977571, 0.3680000174790621, 0.4480000212788582, 0.0, 0.0, 0.0, 0.0, 0.0, 1.7103946812755167E9, 0.0, 2024-03-13 22:38:01.275
14.0, -765.1816609841771, -387.8238855050877, -499.03729048743844, -432.9925272199325, 0.8800000417977571, 0.3680000174790621, 0.4480000212788582, 0.0, 0.0, 0.0, 0.0, 0.0, 1.7103946812755167E9, 0.0, 2024-03-13 22:38:01.275
15.0, -772.7960972939618, -385.93523602746427, -497.29823700804263, -431.84063803358003, 0.8800000417977571, 0.3680000174790621, 0.4480000212788582, 0.0, 0.0, 0.0, 0.0, 0.0, 1.7103946812901225E9, 0.0, 2024-03-13 22:38:01.290
15.0, -772.1266552018933, -379.8541586995125, -501.9431927530095, -429.7088950588368, 0.8800000417977571, 0.3680000174790621, 0.4480000212788582, 0.0, 0.0, 0.0, 0.0, 0.0, 1.7103946812901225E9, 0.0, 2024-03-13 22:38:01.290
16.0, -768.7757048415951, -393.42999553866684, -510.81049554795027, -439.61589004145935, 0.8800000417977571, 0.3680000174790621, 0.4480000212788582, 0.0, 0.0, 0.0, 0.0, 0.0, 1.7103946812908225E9, 0.0, 2024-03-13 22:38:01.290
16.0, -778.678959924262, -385.1535969367251, -499.609495180659, -428.7739200699143, 0.8800000417977571, 0.3680000174790621, 0.4480000212788582, 0.0, 0.0, 0.0, 0.0, 0.0, 1.7103946812908225E9, 0.0, 2024-03-13 22:38:01.290
17.0, -768.0127652506344, -374.48740226309747, -491.6397683750838, -420.63963766628876, 0.8800000417977571, 0.3680000174790621, 0.4480000212788582, 0.0, 0.0, 0.0, 0.0, 0.0, 1.710394681305133E9, 0.0, 2024-03-13 22:38:01.305
17.0, -768.3269168469124, -380.2954668942839, -498.7941969903186, -428.8935968684964, 0.8800000417977571, 0.3680000174790621, 0.4480000212788582, 0.0, 0.0, 0.0, 0.0, 0.0, 1.710394681305133E9, 0.0, 2024-03-13 22:38:01.305
18.0, -767.5639772559516, -377.2175292307511, -487.6044163228944, -416.75014171237126, 0.8800000417977571, 0.3680000174790621, 0.4480000212788582, 0.0, 0.0, 0.0, 0.0, 0.0, 1.710394681305817E9, 0.0, 2024-03-13 22:38:01.305
18.0, -769.9425536277704, -370.38099211174995, -494.77006463799626, -418.960422586184, 0.8800000417977571, 0.3680000174790621, 0.4480000212788582, 0.0, 0.0, 0.0, 0.0, 0.0, 1.710394681305817E9, 0.0, 2024-03-13 22:38:01.305
19.0, -755.2709261015989, -371.5478408979252, -498.11353519838303, -421.6905495538376, 0.8800000417977571, 0.3680000174790621, 0.4480000212788582, 0.0, 0.0, 0.0, 0.0, 0.0, 1.71039468131939E9, 0.0, 2024-03-13 22:38:01.319
19.0, -743.7295948383398, -362.130772809498, -479.8964825142175, -411.0355745800771, 0.8800000417977571, 0.3680000174790621, 0.4480000212788582, 0.0, 0.0, 0.0, 0.0, 0.0, 1.71039468131939E9, 0.0, 2024-03-13 22:38:01.319
20.0, -761.142569032032, -368.30908753629774, -478.8156514270231, -415.45239642774686, 0.8800000417977571, 0.3680000174790621, 0.4480000212788582, 0.0, 0.0, 0.0, 0.0, 0.0, 1.7103946813351252E9, 0.0, 2024-03-13 22:38:01.335
20.0, -753.6665090206079, -357.66533226240426, -488.2401993153617, -413.53756765043363, 0.8800000417977571, 0.3680000174790621, 0.4480000212788582, 0.0, 0.0, 0.0, 0.0, 0.0, 1.7103946813351252E9, 0.0, 2024-03-13 22:38:01.335
21.0, -752.3164051366039, -360.55627492815256, -484.99022625386715, -410.9458169811405, 0.8800000417977571, 0.3680000174790621, 0.4480000212788582, 0.0, 0.0, 0.0, 0.0, 0.0, 1.710394681335819E9, 0.0, 2024-03-13 22:38:01.335
21.0, -755.3120650011115, -357.14548616856337, -475.632996564731, -406.27094203652814, 0.8800000417977571, 0.3680000174790621, 0.4480000212788582, 0.0, 0.0, 0.0, 0.0, 0.0, 1.710394681335819E9, 0.0, 2024-03-13 22:38:01.335
22.0, -760.3497102414258, -371.731095995754, -487.50343902409077, -408.52610170980915, 0.8800000417977571, 0.3680000174790621, 0.4480000212788582, 0.0, 0.0, 0.0, 0.0, 0.0, 1.710394681349386E9, 0.0, 2024-03-13 22:38:01.349
22.0, -757.223153878469, -367.97623644024134, -484.88550905510783, -412.38193856412545, 0.8800000417977571, 0.3680000174790621, 0.4480000212788582, 0.0, 0.0, 0.0, 0.0, 0.0, 1.710394681349386E9, 0.0, 2024-03-13 22:38:01.349
23.0, -759.5605913507752, -364.64398557972163, -468.0447395546362, -405.52296204539016, 0.8800000417977571, 0.3680000174790621, 0.4480000212788582, 0.0, 0.0, 0.0, 0.0, 0.0, 1.7103946813651009E9, 0.0, 2024-03-13 22:38:01.365
23.0, -761.3931423290633, -373.0737200798467, -473.4526348905638, -407.321853924077, 0.8800000417977571, 0.3680000174790621, 0.4480000212788582, 0.0, 0.0, 0.0, 0.0, 0.0, 1.7103946813651009E9, 0.0, 2024-03-13 22:38:01.365
24.0, -762.4777133162133, -375.6542510492727, -489.43696730118245, -411.96680966904387, 0.8800000417977571, 0.3680000174790621, 0.4480000212788582, 0.0, 0.0, 0.0, 0.0, 0.0, 1.7103946813660376E9, 0.0, 2024-03-13 22:38:01.366
24.0, -756.6247698855586, -374.67065736092627, -475.7040546638891, -409.3526196000166, 0.8800000417977571, 0.3680000174790621, 0.4480000212788582, 0.0, 0.0, 0.0, 0.0, 0.0, 1.7103946813660376E9, 0.0, 2024-03-13 22:38:01.366
25.0, -759.5231923512183, -365.5901802685112, -484.9790065540001, -411.93689046939835, 0.8800000417977571, 0.3680000174790621, 0.4480000212788582, 0.0, 0.0, 0.0, 0.0, 0.0, 1.7103946813955135E9, 0.0, 2024-03-13 22:38:01.395
25.0, -748.1090176864527, -360.5039163287729, -492.5410842644051, -413.5413075503893, 0.8800000417977571, 0.3680000174790621, 0.4480000212788582, 0.0, 0.0, 0.0, 0.0, 0.0, 1.7103946813955135E9, 0.0, 2024-03-13 22:38:01.395
26.0, -736.6649238220416, -351.6889721332118, -476.69138825219125, -401.18467809678987, 0.8800000417977571, 0.3680000174790621, 0.4480000212788582, 0.0, 0.0, 0.0, 0.0, 0.0, 1.7103946813962567E9, 0.0, 2024-03-13 22:38:01.396
26.0, -751.0298795518465, -354.10494750458747, -471.53780611325055, -401.098660397809, 0.8800000417977571, 0.3680000174790621, 0.4480000212788582, 0.0, 0.0, 0.0, 0.0, 0.0, 1.7103946813962567E9, 0.0, 2024-03-13 22:38:01.396
27.0, -743.7856933376752, -353.4317655125633, -467.58099196013063, -396.44248495297506, 0.8800000417977571, 0.3680000174790621, 0.4480000212788582, 0.0, 0.0, 0.0, 0.0, 0.0, 1.7103946814100857E9, 0.0, 2024-03-13 22:38:01.410
27.0, -746.5532193048857, -353.6972984094173, -485.0837237527594, -404.9432775522582, 0.8800000417977571, 0.3680000174790621, 0.4480000212788582, 0.0, 0.0, 0.0, 0.0, 0.0, 1.7103946814100857E9, 0.0, 2024-03-13 22:38:01.410
28.0, -738.6059318990447, -356.5732814753428, -468.6281639477238, -394.8418077719398, 0.8800000417977571, 0.3680000174790621, 0.4480000212788582, 0.0, 0.0, 0.0, 0.0, 0.0, 1.7103946814108226E9, 0.0, 2024-03-13 22:38:01.410
28.0, -747.9182827887125, -364.19145768508315, -479.7543663159013, -407.04136142740026, 0.8800000417977571, 0.3680000174790621, 0.4480000212788582, 0.0, 0.0, 0.0, 0.0, 0.0, 1.7103946814108226E9, 0.0, 2024-03-13 22:38:01.410
29.0, -747.2675401964225, -364.81976087763906, -478.80069182720035, -405.38084584707394, 0.8800000417977571, 0.3680000174790621, 0.4480000212788582, 0.0, 0.0, 0.0, 0.0, 0.0, 1.7103946814250748E9, 0.0, 2024-03-13 22:38:01.425
29.0, -755.3943428001367, -366.04644806310534, -478.5239392304793, -404.4383910582401, 0.8800000417977571, 0.3680000174790621, 0.4480000212788582, 0.0, 0.0, 0.0, 0.0, 0.0, 1.7103946814250748E9, 0.0, 2024-03-13 22:38:01.425
30.0, -753.3934963238426, -358.0617616577074, -474.38760987948626, -398.1366596329026, 0.8800000417977571, 0.3680000174790621, 0.4480000212788582, 0.0, 0.0, 0.0, 0.0, 0.0, 1.7103946814258237E9, 0.0, 2024-03-13 22:38:01.425
30.0, -747.9070630888455, -360.8741664243862, -485.79804464429617, -406.01288893958554, 0.8800000417977571, 0.3680000174790621, 0.4480000212788582, 0.0, 0.0, 0.0, 0.0, 0.0, 1.7103946814258237E9, 0.0, 2024-03-13 22:38:01.425
31.0, -733.0110415653326, -349.6432468574494, -461.71308892965317, -391.5058170114644, 0.8800000417977571, 0.3680000174790621, 0.4480000212788582, 0.0, 0.0, 0.0, 0.0, 0.0, 1.710394681439573E9, 0.0, 2024-03-13 22:38:01.439
31.0, -745.6967822150327, -353.3195685138926, -463.6316576069221, -398.3086950308643, 0.8800000417977571, 0.3680000174790621, 0.4480000212788582, 0.0, 0.0, 0.0, 0.0, 0.0, 1.710394681439573E9, 0.0, 2024-03-13 22:38:01.439
32.0, -749.2235078732483, -357.680291862227, -486.21691343933344, -407.0937200267799, 0.8640000410377979, 0.3680000174790621, 0.4480000212788582, 0.0, 0.0, 0.0, 0.0, 0.0, 1.710394681455182E9, 0.0, 2024-03-13 22:38:01.455
32.0, -740.5132808764465, -359.00047654658556, -478.7071943283081, -400.89670580020174, 0.8640000410377979, 0.3680000174790621, 0.4480000212788582, 0.0, 0.0, 0.0, 0.0, 0.0, 1.710394681455182E9, 0.0, 2024-03-13 22:38:01.455
33.0, -750.9737810525112, -363.92592478822917, -466.82553216908127, -397.0894876453094, 0.8640000410377979, 0.3680000174790621, 0.4480000212788582, 0.0, 0.0, 0.0, 0.0, 0.0, 1.7103946814558E9, 0.0, 2024-03-13 22:38:01.455
33.0, -757.2044543786906, -367.2544357487932, -484.3394836615771, -407.7369828191586, 0.8640000410377979, 0.3680000174790621, 0.4480000212788582, 0.0, 0.0, 0.0, 0.0, 0.0, 1.7103946814558E9, 0.0, 2024-03-13 22:38:01.455
34.0, -742.6188445514999, -361.5772676160559, -491.613589075394, -415.8376061231829, 0.8640000410377979, 0.3680000174790621, 0.4480000212788582, 0.0, 0.0, 0.0, 0.0, 0.0, 1.7103946814693925E9, 0.0, 2024-03-13 22:38:01.469
34.0, -742.3458318547346, -362.347687006928, -476.73252715170383, -408.4251244110055, 0.8640000410377979, 0.3680000174790621, 0.4480000212788582, 0.0, 0.0, 0.0, 0.0, 0.0, 1.7103946814693925E9, 0.0, 2024-03-13 22:38:01.469
35.0, -764.8263704883866, -375.5158747509122, -494.3811150426045, -418.34707899345085, 0.8640000410377979, 0.3680000174790621, 0.4480000212788582, 0.0, 0.0, 0.0, 0.0, 0.0, 1.7103946814853954E9, 0.0, 2024-03-13 22:38:01.485
35.0, -759.104323556181, -366.92906445264816, -495.02437783498317, -414.2556284419261, 0.8640000410377979, 0.3680000174790621, 0.4480000212788582, 0.0, 0.0, 0.0, 0.0, 0.0, 1.7103946814853954E9, 0.0, 2024-03-13 22:38:01.485
36.0, -738.7929268968292, -358.5741279516369, -481.0371520007029, -408.3578062118031, 0.8640000410377979, 0.3680000174790621, 0.4480000212788582, 0.0, 0.0, 0.0, 0.0, 0.0, 1.710394681485933E9, 0.0, 2024-03-13 22:38:01.485
36.0, -752.8175517306663, -360.26456273160875, -485.4240546487272, -411.63769847294316, 0.8640000410377979, 0.3680000174790621, 0.4480000212788582, 0.0, 0.0, 0.0, 0.0, 0.0, 1.710394681485933E9, 0.0, 2024-03-13 22:38:01.485
37.0, -745.7117418148555, -365.67619796749204, -485.0725040528923, -409.1731044021435, 0.8640000410377979, 0.3680000174790621, 0.4480000212788582, 0.0, 0.0, 0.0, 0.0, 0.0, 1.7103946814997702E9, 0.0, 2024-03-13 22:38:01.499
37.0, -743.1349507453851, -364.99927607551217, -479.32053792104125, -405.52670194534585, 0.8640000410377979, 0.3680000174790621, 0.4480000212788582, 0.0, 0.0, 0.0, 0.0, 0.0, 1.7103946814997702E9, 0.0, 2024-03-13 22:38:01.499
38.0, -762.4552739164792, -378.3993376167491, -485.80926434416324, -420.46012246841565, 0.8640000410377979, 0.3680000174790621, 0.4480000212788582, 0.0, 0.0, 0.0, 0.0, 0.0, 1.710394681515258E9, 0.0, 2024-03-13 22:38:01.515
38.0, -752.9933270285837, -363.75014949031174, -490.3083639908582, -416.48834871547297, 0.8640000410377979, 0.3680000174790621, 0.4480000212788582, 0.0, 0.0, 0.0, 0.0, 0.0, 1.710394681515258E9, 0.0, 2024-03-13 22:38:01.515
39.0, -755.8356509949081, -373.9226773697883, -499.62819468043745, -419.9514960744418, 0.8640000410377979, 0.3680000174790621, 0.4480000212788582, 0.0, 0.0, 0.0, 0.0, 0.0, 1.710394681515967E9, 0.0, 2024-03-13 22:38:01.515
39.0, -757.6869014729746, -367.5835469448939, -481.94968758989125, -413.8778985464014, 0.8640000410377979, 0.3680000174790621, 0.4480000212788582, 0.0, 0.0, 0.0, 0.0, 0.0, 1.710394681515967E9, 0.0, 2024-03-13 22:38:01.515
40.0, -758.247886466328, -372.538914386183, -473.2618999928236, -410.3549127881415, 0.8640000410377979, 0.3680000174790621, 0.4480000212788582, 0.0, 0.0, 0.0, 0.0, 0.0, 1.7103946815294008E9, 0.0, 2024-03-13 22:38:01.529
40.0, -762.481453216169, -374.30040726531297, -490.99276568274945, -417.0044549093582, 0.8640000410377979, 0.3680000174790621, 0.4480000212788582, 0.0, 0.0, 0.0, 0.0, 0.0, 1.7103946815294008E9, 0.0, 2024-03-13 22:38:01.529
41.0, -751.916235841345, -372.31452038884163, -488.2701185150072, -415.49353532725945, 0.8640000410377979, 0.3680000174790621, 0.4480000212788582, 0.0, 0.0, 0.0, 0.0, 0.0, 1.7103946815450716E9, 0.0, 2024-03-13 22:38:01.545
41.0, -760.177674843464, -362.4374446058646, -486.61334283463657, -417.94690969819203, 0.8640000410377979, 0.3680000174790621, 0.4480000212788582, 0.0, 0.0, 0.0, 0.0, 0.0, 1.7103946815450716E9, 0.0, 2024-03-13 22:38:01.545
42.0, -769.5236848327331, -370.3174138125032, -500.9446394648403, -428.17179617704824, 0.8800000417977571, 0.3680000174790621, 0.4480000212788582, 0.0, 0.0, 0.0, 0.0, 0.0, 1.710394681545799E9, 0.0, 2024-03-13 22:38:01.545
42.0, -767.6425151550211, -378.7770675122738, -508.3982600765303, -431.6611228357069, 0.8800000417977571, 0.3680000174790621, 0.4480000212788582, 0.0, 0.0, 0.0, 0.0, 0.0, 1.710394681545799E9, 0.0, 2024-03-13 22:38:01.545
43.0, -769.030018038582, -379.12113830819726, -497.91532050073147, -427.2181216883473, 0.8800000417977571, 0.3680000174790621, 0.4480000212788582, 0.0, 0.0, 0.0, 0.0, 0.0, 1.71039468155963E9, 0.0, 2024-03-13 22:38:01.559
43.0, -777.01470444398, -384.1849628482014, -495.5778830284253, -428.8561978689395, 0.8800000417977571, 0.3680000174790621, 0.4480000212788582, 0.0, 0.0, 0.0, 0.0, 0.0, 1.71039468155963E9, 0.0, 2024-03-13 22:38:01.559
44.0, -764.5421380917542, -368.1744511378929, -500.36121507175267, -423.3772444338538, 0.8800000417977571, 0.3680000174790621, 0.4480000212788582, 0.0, 0.0, 0.0, 0.0, 0.0, 1.7103946815751157E9, 0.0, 2024-03-13 22:38:01.575
44.0, -761.348263529595, -372.9278639815748, -492.7205994622782, -422.5918654431589, 0.8800000417977571, 0.3680000174790621, 0.4480000212788582, 0.0, 0.0, 0.0, 0.0, 0.0, 1.7103946815751157E9, 0.0, 2024-03-13 22:38:01.575
45.0, -760.323530941736, -372.97274278104305, -486.20569373946637, -412.31088046496734, 0.8800000417977571, 0.3680000174790621, 0.4480000212788582, 0.0, 0.0, 0.0, 0.0, 0.0, 1.710394681575796E9, 0.0, 2024-03-13 22:38:01.575
45.0, -758.9547275579534, -372.78200788330287, -502.986624840647, -425.2995530110784, 0.8800000417977571, 0.3680000174790621, 0.4480000212788582, 0.0, 0.0, 0.0, 0.0, 0.0, 1.710394681575796E9, 0.0, 2024-03-13 22:38:01.575
46.0, -753.363577124197, -364.34479358326644, -488.29255791474134, -418.2984602940269, 0.8800000417977571, 0.3680000174790621, 0.4480000212788582, 0.0, 0.0, 0.0, 0.0, 0.0, 1.7103946815893779E9, 0.0, 2024-03-13 22:38:01.589
46.0, -750.8279249542393, -360.4328582296148, -478.9989065248519, -409.4348973990418, 0.8800000417977571, 0.3680000174790621, 0.4480000212788582, 0.0, 0.0, 0.0, 0.0, 0.0, 1.7103946815893779E9, 0.0, 2024-03-13 22:38:01.589
47.0, -748.7261011791416, -364.060561186634, -486.7180600333959, -409.625632296782, 0.8800000417977571, 0.3680000174790621, 0.4480000212788582, 0.0, 0.0, 0.0, 0.0, 0.0, 1.7103946816050665E9, 0.0, 2024-03-13 22:38:01.605
47.0, -737.2371285152622, -356.0197762819007, -490.5701569877565, -413.6946434485726, 0.8800000417977571, 0.3680000174790621, 0.4480000212788582, 0.0, 0.0, 0.0, 0.0, 0.0, 1.7103946816050665E9, 0.0, 2024-03-13 22:38:01.605
48.0, -745.1245775218122, -362.4337047059089, -495.51804462913424, -424.6712498185225, 0.8800000417977571, 0.3680000174790621, 0.4480000212788582, 0.0, 0.0, 0.0, 0.0, 0.0, 1.7103946816057875E9, 0.0, 2024-03-13 22:38:01.605
48.0, -754.0666783158667, -364.63276587985456, -502.395720647648, -429.9183294563554, 0.8800000417977571, 0.3680000174790621, 0.4480000212788582, 0.0, 0.0, 0.0, 0.0, 0.0, 1.7103946816057875E9, 0.0, 2024-03-13 22:38:01.605
49.0, -754.2274940139614, -378.4479563161731, -506.0196837047115, -431.98649413185194, 0.8800000417977571, 0.3680000174790621, 0.4480000212788582, 0.0, 0.0, 0.0, 0.0, 0.0, 1.710394681619367E9, 0.0, 2024-03-13 22:38:01.619
49.0, -753.2850392251275, -379.67838340159506, -479.9974598130211, -414.60343913780525, 0.8800000417977571, 0.3680000174790621, 0.4480000212788582, 0.0, 0.0, 0.0, 0.0, 0.0, 1.710394681619367E9, 0.0, 2024-03-13 22:38:01.619
50.0, -757.9337348700501, -377.42322372831404, -494.0183447469026, -423.9943279265426, 0.8800000417977571, 0.3680000174790621, 0.4480000212788582, 0.0, 0.0, 0.0, 0.0, 0.0, 1.7103946816350584E9, 0.0, 2024-03-13 22:38:01.635
50.0, -753.472034222912, -370.67270430829376, -500.2714574728161, -421.42127675702795, 0.8800000417977571, 0.3680000174790621, 0.4480000212788582, 0.0, 0.0, 0.0, 0.0, 0.0, 1.7103946816350584E9, 0.0, 2024-03-13 22:38:01.635
51.0, -735.9431231305934, -354.96138459444046, -489.683800698258, -413.9900955450721, 0.8800000417977571, 0.3680000174790621, 0.4480000212788582, 0.0, 0.0, 0.0, 0.0, 0.0, 1.7103946816357646E9, 0.0, 2024-03-13 22:38:01.635
51.0, -747.6078710923903, -360.3281410308555, -480.46494730748236, -414.42018403997645, 0.8800000417977571, 0.3680000174790621, 0.4480000212788582, 0.0, 0.0, 0.0, 0.0, 0.0, 1.7103946816357646E9, 0.0, 2024-03-13 22:38:01.635
52.0, -745.6145044160075, -349.3141356613487, -493.3040238553658, -416.2115961187519, 0.8800000417977571, 0.3680000174790621, 0.4480000212788582, 0.0, 0.0, 0.0, 0.0, 0.0, 1.7103946816497257E9, 0.0, 2024-03-13 22:38:01.649
52.0, -738.6171515989117, -351.131727039814, -499.81892957817763, -414.6931967367418, 0.8800000417977571, 0.3680000174790621, 0.4480000212788582, 0.0, 0.0, 0.0, 0.0, 0.0, 1.7103946816497257E9, 0.0, 2024-03-13 22:38:01.649
53.0, -732.8838849668391, -344.93097291328013, -468.927355944179, -400.1786450087093, 0.8800000417977571, 0.3680000174790621, 0.4480000212788582, 0.0, 0.0, 0.0, 0.0, 0.0, 1.7103946816659937E9, 0.0, 2024-03-13 22:38:01.665
53.0, -744.7244082265534, -353.2410306148231, -487.33140362612903, -407.16103822598234, 0.8800000417977571, 0.3680000174790621, 0.4480000212788582, 0.0, 0.0, 0.0, 0.0, 0.0, 1.7103946816659937E9, 0.0, 2024-03-13 22:38:01.665
54.0, -745.4536887179129, -352.0255631292239, -481.5233389949426, -401.7718423898332, 0.8800000417977571, 0.3680000174790621, 0.4480000212788582, 0.0, 0.0, 0.0, 0.0, 0.0, 1.7103946816661916E9, 0.0, 2024-03-13 22:38:01.666
54.0, -750.1136040627025, -365.3321271715686, -485.83918354380876, -414.9213306340389, 0.8800000417977571, 0.3680000174790621, 0.4480000212788582, 0.0, 0.0, 0.0, 0.0, 0.0, 1.7103946816661916E9, 0.0, 2024-03-13 22:38:01.666
55.0, -757.4961665752344, -365.1638316735625, -487.1892874278128, -414.5847396380268, 0.8800000417977571, 0.3680000174790621, 0.4480000212788582, 0.0, 0.0, 0.0, 0.0, 0.0, 1.7103946816794107E9, 0.0, 2024-03-13 22:38:01.679
55.0, -745.693042315077, -360.1299263332039, -491.5238314764574, -412.98032255703583, 0.8800000417977571, 0.3680000174790621, 0.4480000212788582, 0.0, 0.0, 0.0, 0.0, 0.0, 1.7103946816794107E9, 0.0, 2024-03-13 22:38:01.679
56.0, -743.7445544381626, -365.4667635699734, -478.43418163154274, -406.248502636794, 0.8800000417977571, 0.3680000174790621, 0.4480000212788582, 0.0, 0.0, 0.0, 0.0, 0.0, 1.7103946816950512E9, 0.0, 2024-03-13 22:38:01.695
56.0, -744.728148126509, -352.55662892293185, -463.94206930324435, -398.9856169228442, 0.8800000417977571, 0.3680000174790621, 0.4480000212788582, 0.0, 0.0, 0.0, 0.0, 0.0, 1.7103946816950512E9, 0.0, 2024-03-13 22:38:01.695
57.0, -749.3394447718747, -353.29338921420276, -468.55336594861, -399.5840009157546, 0.8800000417977571, 0.3680000174790621, 0.4480000212788582, 0.0, 0.0, 0.0, 0.0, 0.0, 1.7103946816961231E9, 0.0, 2024-03-13 22:38:01.696
57.0, -742.0578595581464, -364.23633648455143, -479.50753291882575, -408.17829101393, 0.8800000417977571, 0.3680000174790621, 0.4480000212788582, 0.0, 0.0, 0.0, 0.0, 0.0, 1.7103946816961231E9, 0.0, 2024-03-13 22:38:01.696
58.0, -749.4254624708556, -357.33248116634786, -483.38954907283187, -411.880791970063, 0.8800000417977571, 0.3680000174790621, 0.4480000212788582, 0.0, 0.0, 0.0, 0.0, 0.0, 1.7103946817258377E9, 0.0, 2024-03-13 22:38:01.725
58.0, -759.358636753168, -370.3959517115727, -486.7105802334845, -412.471696163062, 0.8800000417977571, 0.3680000174790621, 0.4480000212788582, 0.0, 0.0, 0.0, 0.0, 0.0, 1.7103946817258377E9, 0.0, 2024-03-13 22:38:01.725
59.0, -747.5068937935866, -359.3295877426863, -485.88406234327704, -405.3247473477386, 0.8800000417977571, 0.3680000174790621, 0.4480000212788582, 0.0, 0.0, 0.0, 0.0, 0.0, 1.71039468172655E9, 0.0, 2024-03-13 22:38:01.726
59.0, -728.8859319142066, -346.681246092543, -468.64686344750226, -397.987063634675, 0.8800000417977571, 0.3680000174790621, 0.4480000212788582, 0.0, 0.0, 0.0, 0.0, 0.0, 1.71039468172655E9, 0.0, 2024-03-13 22:38:01.726
60.0, -758.8425305592827, -362.6543588032946, -478.91288882587105, -410.0258015920408, 0.8800000417977571, 0.3680000174790621, 0.4480000212788582, 0.0, 0.0, 0.0, 0.0, 0.0, 1.7103946817276115E9, 0.0, 2024-03-13 22:38:01.727
60.0, -753.2850392251275, -361.8764596125111, -490.600076187402, -411.90697126975283, 0.8800000417977571, 0.3680000174790621, 0.4480000212788582, 0.0, 0.0, 0.0, 0.0, 0.0, 1.7103946817276115E9, 0.0, 2024-03-13 22:38:01.727
61.0, -736.840699119959, -348.0837085759267, -464.79102659318596, -398.4956900286488, 0.8800000417977571, 0.3680000174790621, 0.4480000212788582, 0.0, 0.0, 0.0, 0.0, 0.0, 1.7103946817395587E9, 0.0, 2024-03-13 22:38:01.739
61.0, -741.7960665612482, -349.9050398543477, -474.05475878342986, -398.4358516293578, 0.8800000417977571, 0.3680000174790621, 0.4480000212788582, 0.0, 0.0, 0.0, 0.0, 0.0, 1.7103946817395587E9, 0.0, 2024-03-13 22:38:01.739
62.0, -757.9823535694741, -371.64507829677314, -507.36978758871555, -425.1462171128951, 0.8800000417977571, 0.3680000174790621, 0.4480000212788582, 0.0, 0.0, 0.0, 0.0, 0.0, 1.710394681755087E9, 0.0, 2024-03-13 22:38:01.755
62.0, -750.4726344584487, -362.60200020391494, -500.43975297082216, -419.6897030775435, 0.8800000417977571, 0.3680000174790621, 0.4480000212788582, 0.0, 0.0, 0.0, 0.0, 0.0, 1.710394681755087E9, 0.0, 2024-03-13 22:38:01.755
63.0, -742.9591754474677, -351.8722272310406, -476.3660169560462, -404.4645703579299, 0.8800000417977571, 0.3680000174790621, 0.4480000212788582, 0.0, 0.0, 0.0, 0.0, 0.0, 1.7103946817558184E9, 0.0, 2024-03-13 22:38:01.755
63.0, -763.1321958084591, -370.4782295105979, -500.59308886900544, -423.8783910279162, 0.8800000417977571, 0.3680000174790621, 0.4480000212788582, 0.0, 0.0, 0.0, 0.0, 0.0, 1.7103946817558184E9, 0.0, 2024-03-13 22:38:01.755
64.0, -743.3331654430367, -359.7708959374577, -500.7539045671001, -416.0358208208345, 0.8800000417977571, 0.3680000174790621, 0.4480000212788582, 0.0, 0.0, 0.0, 0.0, 0.0, 1.710394681769414E9, 0.0, 2024-03-13 22:38:01.769
64.0, -746.0632924106903, -365.3957054708153, -471.8182986099273, -405.5865403446369, 0.8800000417977571, 0.3680000174790621, 0.4480000212788582, 0.0, 0.0, 0.0, 0.0, 0.0, 1.710394681769414E9, 0.0, 2024-03-13 22:38:01.769
65.0, -752.869910330046, -359.4642241410911, -482.4433543840423, -409.2404226013459, 0.8800000417977571, 0.3680000174790621, 0.4480000212788582, 0.0, 0.0, 0.0, 0.0, 0.0, 1.7103946818015783E9, 0.0, 2024-03-13 22:38:01.801
65.0, -759.4820534517057, -363.5519347926602, -496.6774136153981, -420.27312747063115, 0.8800000417977571, 0.3680000174790621, 0.4480000212788582, 0.0, 0.0, 0.0, 0.0, 0.0, 1.7103946818015783E9, 0.0, 2024-03-13 22:38:01.801
66.0, -746.4597218059935, -350.21919145062566, -482.58173068240285, -410.49702898645774, 0.8800000417977571, 0.3680000174790621, 0.4480000212788582, 0.0, 0.0, 0.0, 0.0, 0.0, 1.7103946818022044E9, 0.0, 2024-03-13 22:38:01.802
66.0, -752.4734809347428, -350.8250552434474, -485.1622616518289, -407.1423387262039, 0.8800000417977571, 0.3680000174790621, 0.4480000212788582, 0.0, 0.0, 0.0, 0.0, 0.0, 1.7103946818022044E9, 0.0, 2024-03-13 22:38:01.802
67.0, -755.4242619997822, -365.6088797682896, -494.676567139104, -416.3275330173783, 0.8800000417977571, 0.3680000174790621, 0.4480000212788582, 0.0, 0.0, 0.0, 0.0, 0.0, 1.710394681802964E9, 0.0, 2024-03-13 22:38:01.802
