%OpenBCI Raw EXG Data
%Number of channels = 4
%Sample Rate = 200 Hz
%Board = OpenBCI_GUI$BoardGanglionBLE
Sample Index, EXG Channel 0, EXG Channel 1, EXG Channel 2, EXG Channel 3, Accel Channel 0, Accel Channel 1, Accel Channel 2, Other, Other, Other, Other, Other, Timestamp, Other, Timestamp (Formatted)
2.0, -238.5813078233041, -233.85407427931204, -200.30717167677358, 191.6100343298167, 0.01600000075995922, 0.0, 0.0, 0.0, 0.0, 0.0, 0.0, 0.0, 1.7103875247918725E9, 0.0, 2024-03-13 20:38:44.791
2.0, -139.70396284479648, -233.8690338791348, -128.23742958065122, 263.5077410279773, 0.01600000075995922, 0.0, 0.0, 0.0, 0.0, 0.0, 0.0, 0.0, 1.7103875247918725E9, 0.0, 2024-03-13 20:38:44.791
3.0, -233.5735817826353, -177.49752184702083, -221.4151670266874, 267.9507421753369, 0.01600000075995922, 0.0, 0.0, 0.0, 0.0, 0.0, 0.0, 0.0, 1.7103875248049648E9, 0.0, 2024-03-13 20:38:44.804
3.0, -429.91084965644404, -132.59067312907428, -374.14146151719615, 291.33820654824376, 0.01600000075995922, 0.0, 0.0, 0.0, 0.0, 0.0, 0.0, 0.0, 1.7103875248049648E9, 0.0, 2024-03-13 20:38:44.804
4.0, -238.50837977416813, 76.32948814565316, -185.39432060346007, 78.19756817352027, 0.01600000075995922, 0.0, 0.0, 0.0, 0.0, 0.0, 0.0, 0.0, 1.710387524805473E9, 0.0, 2024-03-13 20:38:44.805
4.0, -342.580445791129, 208.3030777820386, -339.0761595326476, 184.9754518084228, 0.01600000075995922, 0.0, 0.0, 0.0, 0.0, 0.0, 0.0, 0.0, 1.710387524805473E9, 0.0, 2024-03-13 20:38:44.805
5.0, -301.0039779837243, 79.66547890612856, -261.3311192537658, 12.420207752846181, 0.01600000075995922, 0.0, 0.0, 0.0, 0.0, 0.0, 0.0, 0.0, 1.7103875248189583E9, 0.0, 2024-03-13 20:38:44.818
5.0, -203.835767284967, 30.72888798592612, -154.16615597344935, 8.231519802473485, 0.01600000075995922, 0.0, 0.0, 0.0, 0.0, 0.0, 0.0, 0.0, 1.7103875248189583E9, 0.0, 2024-03-13 20:38:44.818
6.0, -6.574744122102857, 6.6607618210837245, -1.929788377135992, -3.2368834116496146, 0.01600000075995922, 0.0, 0.0, 0.0, 0.0, 0.0, 0.0, 0.0, 1.7103875248346963E9, 0.0, 2024-03-13 20:38:44.834
6.0, -228.91366643784568, -237.27234283881262, -203.35519014066085, 189.0687723099254, 0.01600000075995922, 0.0, 0.0, 0.0, 0.0, 0.0, 0.0, 0.0, 1.7103875248346963E9, 0.0, 2024-03-13 20:38:44.834
7.0, -103.32969587575644, -360.973273773212, -50.97857629600912, 81.90193907963112, 0.01600000075995922, 0.0, 0.0, 0.0, 0.0, 0.0, 0.0, 0.0, 1.7103875248353631E9, 0.0, 2024-03-13 20:38:44.835
7.0, -142.8080798080191, -238.84310082020238, -143.60467849858105, 245.70581723889336, 0.01600000075995922, 0.0, 0.0, 0.0, 0.0, 0.0, 0.0, 0.0, 1.7103875248353631E9, 0.0, 2024-03-13 20:38:44.835
8.0, -237.62763333460316, -180.09301241626963, -232.2758364980109, 254.00091534061357, 0.01600000075995922, 0.0, 0.0, 0.0, 0.0, 0.0, 0.0, 0.0, 1.7103875248492806E9, 0.0, 2024-03-13 20:38:44.849
8.0, -432.68211552361026, -134.53542110603303, -389.508710435126, 281.37137316633016, 0.01600000075995922, 0.0, 0.0, 0.0, 0.0, 0.0, 0.0, 0.0, 1.7103875248492806E9, 0.0, 2024-03-13 20:38:44.849
9.0, -209.86074611358345, 82.39934577373788, -188.55453606601804, 77.35235078353435, 0.01600000075995922, 0.0, 0.0, 0.0, 0.0, 0.0, 0.0, 0.0, 1.7103875248646538E9, 0.0, 2024-03-13 20:38:44.864
9.0, -304.50826424220577, 225.94792577298358, -335.56439347425476, 197.62005355861038, 0.01600000075995922, 0.0, 0.0, 0.0, 0.0, 0.0, 0.0, 0.0, 1.7103875248646538E9, 0.0, 2024-03-13 20:38:44.864
10.0, -292.66400108253583, 94.15385133447126, -253.1407383508049, 22.57403613254428, 0.01600000075995922, 0.0, 1.0560000501573086, 0.0, 0.0, 0.0, 0.0, 0.0, 1.7103875248655372E9, 0.0, 2024-03-13 20:38:44.865
10.0, -192.91525941435248, 35.29156593186781, -148.99013443477452, 15.471966116689146, 0.01600000075995922, 0.0, 1.0560000501573086, 0.0, 0.0, 0.0, 0.0, 0.0, 1.7103875248655372E9, 0.0, 2024-03-13 20:38:44.865
11.0, 9.394628688693047, 14.174220832064748, 7.820130807347596, 11.670357811730355, 0.01600000075995922, -0.1600000075995922, 1.0560000501573086, 0.0, 0.0, 0.0, 0.0, 0.0, 1.710387524879078E9, 0.0, 2024-03-13 20:38:44.879
11.0, -223.10186190670356, -223.5319504016079, -189.52504010451958, 202.49875305080786, 0.01600000075995922, -0.1600000075995922, 1.0560000501573086, 0.0, 0.0, 0.0, 0.0, 0.0, 1.710387524879078E9, 0.0, 2024-03-13 20:38:44.879
12.0, -100.93242000415921, -349.286086411681, -37.13346666004509, 99.78240076778457, 0.01600000075995922, -0.1600000075995922, 1.0560000501573086, 0.0, 0.0, 0.0, 0.0, 0.0, 1.710387524894931E9, 0.0, 2024-03-13 20:38:44.894
12.0, -141.49537492357194, -233.6483797817491, -128.1701113814488, 267.5617925799452, 0.01600000075995922, -0.1600000075995922, 1.0560000501573086, 0.0, 0.0, 0.0, 0.0, 0.0, 1.710387524894931E9, 0.0, 2024-03-13 20:38:44.894
13.0, -237.6164136347361, -170.7993610263802, -221.65826052380726, 276.71706767147407, 0.01600000075995922, -0.1600000075995922, 1.0560000501573086, 0.0, 0.0, 0.0, 0.0, 0.0, 1.7103875248954177E9, 0.0, 2024-03-13 20:38:44.895
13.0, -440.0721578360535, -137.6993764685467, -385.1928658862598, 285.3244474194944, 0.01600000075995922, -0.1600000075995922, 1.0560000501573086, 0.0, 0.0, 0.0, 0.0, 0.0, 1.7103875248954177E9, 0.0, 2024-03-13 20:38:44.895
14.0, -223.94894924666733, 79.10075401281938, -186.33677539229393, 77.4084492828697, 0.01600000075995922, -0.1600000075995922, 1.0560000501573086, 0.0, 0.0, 0.0, 0.0, 0.0, 1.7103875249094636E9, 0.0, 2024-03-13 20:38:44.909
14.0, -336.46196946362033, 219.50033824937418, -335.90098447026685, 196.8346745679155, 0.01600000075995922, -0.1600000075995922, 1.0560000501573086, 0.0, 0.0, 0.0, 0.0, 0.0, 1.7103875249094636E9, 0.0, 2024-03-13 20:38:44.909
15.0, -303.55832965346053, 89.16482479358092, -257.9652092936449, 17.790704089216888, 0.01600000075995922, -0.1600000075995922, 1.0560000501573086, 0.0, 0.0, 0.0, 0.0, 0.0, 1.710387524925102E9, 0.0, 2024-03-13 20:38:44.925
15.0, -203.62259298749268, 33.459014953579754, -155.83415135368705, 10.763432072475553, 0.01600000075995922, -0.1600000075995922, 1.0560000501573086, 0.0, 0.0, 0.0, 0.0, 0.0, 1.710387524925102E9, 0.0, 2024-03-13 20:38:44.925
16.0, -1.4697806825861335, -0.1570757981389761, -3.5566448578611016, -0.21130434749647975, 0.01600000075995922, -0.1600000075995922, 1.0560000501573086, 0.0, 0.0, 0.0, 0.0, 0.0, 1.7103875249255714E9, 0.0, 2024-03-13 20:38:44.925
16.0, -230.54426281852648, -233.56610198272392, -194.8132586418651, 201.14116936689243, 0.01600000075995922, -0.1600000075995922, 1.0560000501573086, 0.0, 0.0, 0.0, 0.0, 0.0, 1.7103875249255714E9, 0.0, 2024-03-13 20:38:44.925
17.0, -89.62670243810862, -358.2992453048937, -43.0948671894148, 90.41769127873704, 0.01600000075995922, -0.1600000075995922, 1.0560000501573086, 0.0, 0.0, 0.0, 0.0, 0.0, 1.7103875249394057E9, 0.0, 2024-03-13 20:38:44.939
17.0, -136.4689493831247, -240.63451289897785, -133.52938801795244, 259.60702537419274, 0.01600000075995922, -0.1600000075995922, 1.0560000501573086, 0.0, 0.0, 0.0, 0.0, 0.0, 1.7103875249394057E9, 0.0, 2024-03-13 20:38:44.939
18.0, -228.56211584201083, -180.00325481733307, -221.347848827485, 272.9659480159171, 0.01600000075995922, -0.1600000075995922, 1.0560000501573086, 0.0, 0.0, 0.0, 0.0, 0.0, 1.7103875249546633E9, 0.0, 2024-03-13 20:38:44.954
18.0, -440.307771533262, -141.15504402760416, -380.6862864396535, 286.33796030748636, 0.01600000075995922, -0.1600000075995922, 1.0560000501573086, 0.0, 0.0, 0.0, 0.0, 0.0, 1.7103875249546633E9, 0.0, 2024-03-13 20:38:44.954
19.0, -228.85943788848817, 75.30475555779412, -191.9017465263605, 75.1084108101204, 0.01600000075995922, -0.1600000075995922, 1.0560000501573086, 0.0, 0.0, 0.0, 0.0, 0.0, 1.710387524955351E9, 0.0, 2024-03-13 20:38:44.955
19.0, -328.66801795596257, 234.38140017306432, -323.9445243119262, 207.25777574442327, 0.01600000075995922, -0.1600000075995922, 1.0560000501573086, 0.0, 0.0, 0.0, 0.0, 0.0, 1.710387524955351E9, 0.0, 2024-03-13 20:38:44.955
20.0, -293.68873367039487, 99.62906486960128, -250.62752558058128, 27.892173869535327, 0.01600000075995922, -0.1600000075995922, 1.0560000501573086, 0.0, 0.0, 0.0, 0.0, 0.0, 1.7103875249689865E9, 0.0, 2024-03-13 20:38:44.968
20.0, -190.59278154186904, 44.17008842667565, -144.184362991713, 22.854528629221022, 0.01600000075995922, -0.1600000075995922, 1.0560000501573086, 0.0, 0.0, 0.0, 0.0, 0.0, 1.7103875249689865E9, 0.0, 2024-03-13 20:38:44.968
21.0, 6.174574826844037, 13.007372045889497, 1.447341282851994, 6.427018073853105, 0.01600000075995922, -0.1600000075995922, 1.0560000501573086, 0.0, 0.0, 0.0, 0.0, 0.0, 1.710387524984624E9, 0.0, 2024-03-13 20:38:44.984
21.0, -211.08930324902758, -215.76043829368427, -190.30667919525877, 209.01739867357537, 0.01600000075995922, -0.1600000075995922, 1.0560000501573086, 0.0, 0.0, 0.0, 0.0, 0.0, 1.710387524984624E9, 0.0, 2024-03-13 20:38:44.984
22.0, -92.05015760939568, -347.28150003543124, -37.672012253664434, 95.81436691479757, 0.01600000075995922, -0.1600000075995922, 1.0560000501573086, 0.0, 0.0, 0.0, 0.0, 0.0, 1.7103875249853604E9, 0.0, 2024-03-13 20:38:44.985
22.0, -132.88986512552947, -226.06760257156566, -127.48944958951324, 265.46370870480314, 0.01600000075995922, -0.1600000075995922, 1.0560000501573086, 0.0, 0.0, 0.0, 0.0, 0.0, 1.7103875249853604E9, 0.0, 2024-03-13 20:38:44.985
23.0, -232.20851829880849, -171.70067691570148, -218.65512085938826, 277.7044012597762, 0.01600000075995922, -0.1600000075995922, 1.0560000501573086, 0.0, 0.0, 0.0, 0.0, 0.0, 1.7103875249989212E9, 0.0, 2024-03-13 20:38:44.998
23.0, -443.32587079750374, -138.78394745569676, -383.22193860961124, 287.2392761968076, 0.01600000075995922, -0.1600000075995922, 1.0560000501573086, 0.0, 0.0, 0.0, 0.0, 0.0, 1.7103875249989212E9, 0.0, 2024-03-13 20:38:44.998
24.0, -215.38083844818175, 71.44143890356645, -191.28840293362737, 68.4027701895684, 0.01600000075995922, -0.1600000075995922, 1.0560000501573086, 0.0, 0.0, 0.0, 0.0, 0.0, 1.7103875250311787E9, 0.0, 2024-03-13 20:38:45.031
24.0, -328.29776786034927, 223.92837979691103, -338.60867203818634, 200.6119735231623, 0.01600000075995922, -0.1600000075995922, 1.0560000501573086, 0.0, 0.0, 0.0, 0.0, 0.0, 1.7103875250311787E9, 0.0, 2024-03-13 20:38:45.031
25.0, -316.59562089899555, 95.26460162131116, -255.63151172129437, 22.648834131658077, 0.01600000075995922, -0.1600000075995922, 1.0560000501573086, 0.0, 0.0, 0.0, 0.0, 0.0, 1.710387525031839E9, 0.0, 2024-03-13 20:38:45.031
25.0, -206.2442628564313, 44.727333520073444, -148.82557883672416, 16.728572501800954, 0.01600000075995922, -0.1600000075995922, 1.0560000501573086, 0.0, 0.0, 0.0, 0.0, 0.0, 1.710387525031839E9, 0.0, 2024-03-13 20:38:45.031
26.0, 19.417560569941998, 13.848849535919726, -0.6956213917583227, 5.361146586481482, 0.01600000075995922, -0.1600000075995922, 1.0560000501573086, 0.0, 0.0, 0.0, 0.0, 0.0, 1.7103875250324633E9, 0.0, 2024-03-13 20:38:45.032
26.0, -217.4957518731244, -214.59358950750902, -195.1087107383646, 200.3034317768179, 0.01600000075995922, -0.1600000075995922, 1.0560000501573086, 0.0, 0.0, 0.0, 0.0, 0.0, 1.7103875250324633E9, 0.0, 2024-03-13 20:38:45.032
27.0, -99.08116952609271, -349.31974551128224, -42.9826701907441, 88.802054497879, 0.01600000075995922, -0.1600000075995922, 1.0560000501573086, 0.0, 0.0, 0.0, 0.0, 0.0, 1.7103875250332267E9, 0.0, 2024-03-13 20:38:45.033
27.0, -139.63290474563837, -235.74272375693545, -139.72266234457493, 253.46236974699423, 0.01600000075995922, -0.1600000075995922, 1.0560000501573086, 0.0, 0.0, 0.0, 0.0, 0.0, 1.7103875250332267E9, 0.0, 2024-03-13 20:38:45.033
28.0, -222.13696771813557, -169.74844913883135, -220.76816433435306, 272.82757171755657, 0.01600000075995922, -0.1600000075995922, 1.0560000501573086, 0.0, 0.0, 0.0, 0.0, 0.0, 1.7103875250440085E9, 0.0, 2024-03-13 20:38:45.044
28.0, -420.0001147738658, -142.6622237097472, -389.06740224035457, 283.9855632353574, 0.01600000075995922, -0.1600000075995922, 1.0560000501573086, 0.0, 0.0, 0.0, 0.0, 0.0, 1.7103875250440085E9, 0.0, 2024-03-13 20:38:45.044
29.0, -230.46011506952345, 61.03703722683713, -199.3553671380505, 59.96181598957628, 0.01600000075995922, -0.1600000075995922, 1.0560000501573086, 0.0, 0.0, 0.0, 0.0, 0.0, 1.7103875250589573E9, 0.0, 2024-03-13 20:38:45.058
29.0, -322.3288875310682, 218.7486183582805, -332.8043473069556, 198.14363955240697, 0.01600000075995922, -0.1600000075995922, 1.0560000501573086, 0.0, 0.0, 0.0, 0.0, 0.0, 1.7103875250589573E9, 0.0, 2024-03-13 20:38:45.058
30.0, -322.86369322473183, 78.22187752323225, -261.90706384694204, 9.102916492149234, 0.01600000075995922, -0.1600000075995922, 1.0560000501573086, 0.0, 0.0, 0.0, 0.0, 0.0, 1.7103875250746782E9, 0.0, 2024-03-13 20:38:45.074
30.0, -209.46431671828032, 24.969442054163665, -154.38307017087936, 3.9343747533857822, 0.01600000075995922, -0.1600000075995922, 1.0560000501573086, 0.0, 0.0, 0.0, 0.0, 0.0, 1.7103875250746782E9, 0.0, 2024-03-13 20:38:45.074
31.0, 1.084570987150073, 1.9896267764270306, -3.5678645577281713, -0.8882262394763529, 0.01600000075995922, -0.1600000075995922, 1.0560000501573086, 0.0, 0.0, 0.0, 0.0, 0.0, 1.7103875250754611E9, 0.0, 2024-03-13 20:38:45.075
31.0, -230.56296231830493, -234.62075377022848, -202.73436674801633, 189.6297573032789, 0.01600000075995922, -0.1600000075995922, 1.0560000501573086, 0.0, 0.0, 0.0, 0.0, 0.0, 1.7103875250754611E9, 0.0, 2024-03-13 20:38:45.075
32.0, -105.49883785005659, -369.06641727732494, -50.948657096363604, 74.44457856798545, 0.01600000075995922, -0.1600000075995922, 1.0560000501573086, 0.0, 0.0, 0.0, 0.0, 0.0, 1.710387525089158E9, 0.0, 2024-03-13 20:38:45.089
32.0, -151.16301630903035, -253.1407383508049, -144.5845322869718, 239.8753132079728, 0.01600000075995922, -0.1600000075995922, 1.0560000501573086, 0.0, 0.0, 0.0, 0.0, 0.0, 1.710387525089158E9, 0.0, 2024-03-13 20:38:45.089
33.0, -237.93430513096973, -191.3725506826304, -237.30974183836952, 251.37924547167495, 0.01600000075995922, -0.1600000075995922, 1.0560000501573086, 0.0, 0.0, 0.0, 0.0, 0.0, 1.7103875251046836E9, 0.0, 2024-03-13 20:38:45.104
33.0, -444.53759838314727, -162.57719097379595, -401.93639798788354, 265.95924544893205, 0.01600000075995922, -0.1600000075995922, 1.0560000501573086, 0.0, 0.0, 0.0, 0.0, 0.0, 1.7103875251046836E9, 0.0, 2024-03-13 20:38:45.104
34.0, -233.41837593447417, 54.97465939866379, -207.47468994185328, 46.475736749358475, 0.01600000075995922, -0.1600000075995922, 1.0560000501573086, 0.0, 0.0, 0.0, 0.0, 0.0, 1.7103875251054296E9, 0.0, 2024-03-13 20:38:45.105
34.0, -353.9684411562048, 208.0786837846972, -341.45099600451067, 182.80256993416697, 0.01600000075995922, -0.1600000075995922, 1.0560000501573086, 0.0, 0.0, 0.0, 0.0, 0.0, 1.7103875251054296E9, 0.0, 2024-03-13 20:38:45.105
35.0, -331.315867124591, 75.56654855469242, -264.2819003188051, 3.8034782549366355, 0.01600000075995922, -0.1600000075995922, 1.0560000501573086, 0.0, 0.0, 0.0, 0.0, 0.0, 1.7103875251189775E9, 0.0, 2024-03-13 20:38:45.118
35.0, -214.52814125828445, 18.895844526123255, -160.1911348020658, -6.85149671882391, 0.01600000075995922, -0.1600000075995922, 1.0560000501573086, 0.0, 0.0, 0.0, 0.0, 0.0, 1.7103875251189775E9, 0.0, 2024-03-13 20:38:45.118
36.0, -2.5506117697805166, 0.8302577901631594, 1.0322123877704144, -1.3052250845357776, 0.01600000075995922, -0.1600000075995922, 1.0560000501573086, 0.0, 0.0, 0.0, 0.0, 0.0, 1.7103875251346698E9, 0.0, 2024-03-13 20:38:45.134
36.0, -221.9761520200409, -226.4565521669574, -196.0698650269769, 194.6505729937926, 0.01600000075995922, -0.1600000075995922, 1.0560000501573086, 0.0, 0.0, 0.0, 0.0, 0.0, 1.7103875251346698E9, 0.0, 2024-03-13 20:38:45.134
37.0, -96.93072705157101, -352.1882487772964, -41.02296261396259, 84.94434769358486, 0.01600000075995922, -0.1600000075995922, 1.0560000501573086, 0.0, 0.0, 0.0, 0.0, 0.0, 1.7103875251353528E9, 0.0, 2024-03-13 20:38:45.135
37.0, -140.53422063495964, -241.82754098484293, -132.72156962752342, 248.57993035484105, 0.01600000075995922, -0.1600000075995922, 1.0560000501573086, 0.0, 0.0, 0.0, 0.0, 0.0, 1.7103875251353528E9, 0.0, 2024-03-13 20:38:45.135
38.0, -227.69819895224646, -168.60029985243455, -216.31394348712638, 277.3173216143623, 0.01600000075995922, -0.1600000075995922, 1.0560000501573086, 0.0, 0.0, 0.0, 0.0, 0.0, 1.7103875251489713E9, 0.0, 2024-03-13 20:38:45.148
38.0, -438.72579385200515, -136.27073468547314, -379.5044780536555, 287.4917194438167, 0.01600000075995922, -0.1600000075995922, 1.0560000501573086, 0.0, 0.0, 0.0, 0.0, 0.0, 1.7103875251489713E9, 0.0, 2024-03-13 20:38:45.148
39.0, -231.8176987534389, 82.55268167192116, -177.51061149686575, 85.63435923540965, 0.01600000075995922, -0.1600000075995922, 1.0560000501573086, 0.0, 0.0, 0.0, 0.0, 0.0, 1.71038752516471E9, 0.0, 2024-03-13 20:38:45.164
39.0, -341.8923041992821, 212.6002228311263, -338.769487736281, 190.05984579818323, 0.01600000075995922, -0.1600000075995922, 1.0560000501573086, 0.0, 0.0, 0.0, 0.0, 0.0, 1.71038752516471E9, 0.0, 2024-03-13 20:38:45.164
40.0, -312.96791794197634, 81.57282788353041, -259.3302727774717, 13.588926488999277, 0.01600000075995922, -0.1600000075995922, 1.0400000493973494, 0.0, 0.0, 0.0, 0.0, 0.0, 1.7103875251653872E9, 0.0, 2024-03-13 20:38:45.165
40.0, -222.7746206605807, 29.730334697756916, -153.04418598674238, 0.15520584816113114, 0.01600000075995922, -0.1600000075995922, 1.0400000493973494, 0.0, 0.0, 0.0, 0.0, 0.0, 1.7103875251653872E9, 0.0, 2024-03-13 20:38:45.165
41.0, -17.233458995819092, 0.8713966896757483, -1.129449786618352, -2.857283566147089, 0.01600000075995922, -0.1600000075995922, 1.0400000493973494, 0.0, 0.0, 0.0, 0.0, 0.0, 1.710387525179016E9, 0.0, 2024-03-13 20:38:45.179
41.0, -216.4934586849995, -223.8274024981074, -185.09325865702704, 203.618853087537, 0.01600000075995922, -0.1600000075995922, 1.0400000493973494, 0.0, 0.0, 0.0, 0.0, 0.0, 1.710387525179016E9, 0.0, 2024-03-13 20:38:45.179
42.0, -99.66085401922464, -363.5949436421506, -38.401292745023966, 89.26767204236239, 0.01600000075995922, -0.1600000075995922, 1.0400000493973494, 0.0, 0.0, 0.0, 0.0, 0.0, 1.710387525194919E9, 0.0, 2024-03-13 20:38:45.194
42.0, -143.2493880027905, -246.56973412865773, -136.5100882826373, 248.65472835395485, 0.01600000075995922, -0.1600000075995922, 1.0400000493973494, 0.0, 0.0, 0.0, 0.0, 0.0, 1.710387525194919E9, 0.0, 2024-03-13 20:38:45.194
43.0, -237.26112313894555, -181.37579810107127, -230.55174261843786, 265.4954978544265, 0.01600000075995922, -0.1600000075995922, 1.0400000493973494, 0.0, 0.0, 0.0, 0.0, 0.0, 1.7103875251954172E9, 0.0, 2024-03-13 20:38:45.195
43.0, -447.6080562467687, -149.48754112888128, -388.2072252505459, 277.6969214598648, 0.01600000075995922, -0.1600000075995922, 1.0400000493973494, 0.0, 0.0, 0.0, 0.0, 0.0, 1.7103875251954172E9, 0.0, 2024-03-13 20:38:45.195
44.0, -225.65060372650623, 57.977799063082784, -189.6129277534783, 68.08300874335691, 0.01600000075995922, -0.1600000075995922, 1.0400000493973494, 0.0, 0.0, 0.0, 0.0, 0.0, 1.7103875252089884E9, 0.0, 2024-03-13 20:38:45.208
44.0, -332.01148851634935, 219.22358565265313, -330.9530968288891, 199.17772189015523, 0.01600000075995922, -0.1600000075995922, 1.0400000493973494, 0.0, 0.0, 0.0, 0.0, 0.0, 1.7103875252089884E9, 0.0, 2024-03-13 20:38:45.208
45.0, -299.1340280058794, 90.6196458763443, -252.5423543578945, 23.55201997095719, 0.01600000075995922, -0.1600000075995922, 1.0400000493973494, 0.0, 0.0, 0.0, 0.0, 0.0, 1.7103875252249093E9, 0.0, 2024-03-13 20:38:45.224
45.0, -208.89959182497114, 30.990680982824415, -150.20560192037374, 13.308433992322534, 0.01600000075995922, -0.1600000075995922, 1.0400000493973494, 0.0, 0.0, 0.0, 0.0, 0.0, 1.7103875252249093E9, 0.0, 2024-03-13 20:38:45.224
46.0, -4.686094644479454, 3.709980756044388, -0.18325509782880545, 1.8362908782437444, 0.01600000075995922, -0.1600000075995922, 1.0400000493973494, 0.0, 0.0, 0.0, 0.0, 0.0, 1.7103875252256055E9, 0.0, 2024-03-13 20:38:45.225
46.0, -220.58490923652425, -223.25145790493116, -194.4392686462961, 208.26754873245955, 0.01600000075995922, -0.1600000075995922, 1.0400000493973494, 0.0, 0.0, 0.0, 0.0, 0.0, 1.7103875252256055E9, 0.0, 2024-03-13 20:38:45.225
47.0, -104.42548656277359, -356.8893030215986, -44.415051873773336, 88.2653788542375, 0.01600000075995922, -0.1600000075995922, 1.0400000493973494, 0.0, 0.0, 0.0, 0.0, 0.0, 1.7103875252389925E9, 0.0, 2024-03-13 20:38:45.238
47.0, -148.09629834536463, -244.3519734549336, -134.42322410736233, 247.0390915730968, 0.01600000075995922, -0.1600000075995922, 1.0400000493973494, 0.0, 0.0, 0.0, 0.0, 0.0, 1.7103875252389925E9, 0.0, 2024-03-13 20:38:45.238
48.0, -241.2852554912679, -177.8827315424569, -225.82076917449012, 268.74547091592103, 0.01600000075995922, -0.1600000075995922, 1.0400000493973494, 0.0, 0.0, 0.0, 0.0, 0.0, 1.71038752525471E9, 0.0, 2024-03-13 20:38:45.254
48.0, -444.28328518616036, -140.42576353624463, -387.22737146215513, 280.19143473031, 0.01600000075995922, -0.1600000075995922, 1.0400000493973494, 0.0, 0.0, 0.0, 0.0, 0.0, 1.71038752525471E9, 0.0, 2024-03-13 20:38:45.254
49.0, -249.79539784044027, 59.48871864518151, -198.62608664669096, 56.42948048142716, 0.01600000075995922, -0.1600000075995922, 1.0400000493973494, 0.0, 0.0, 0.0, 0.0, 0.0, 1.7103875252553763E9, 0.0, 2024-03-13 20:38:45.255
49.0, -346.7392145418562, 218.32974956324324, -338.64981093769893, 189.79805280128494, 0.01600000075995922, -0.1600000075995922, 1.0400000493973494, 0.0, 0.0, 0.0, 0.0, 0.0, 1.7103875252553763E9, 0.0, 2024-03-13 20:38:45.255
50.0, -313.5289029353298, 85.05467474227771, -259.16571717942134, 15.978722560685128, 0.01600000075995922, -0.1600000075995922, 1.0560000501573086, 0.0, 0.0, 0.0, 0.0, 0.0, 1.7103875252690265E9, 0.0, 2024-03-13 20:38:45.269
50.0, -217.66965722106397, 22.905017278622836, -159.17014211416245, -0.9742439384572208, 0.01600000075995922, -0.1600000075995922, 1.0560000501573086, 0.0, 0.0, 0.0, 0.0, 0.0, 1.7103875252690265E9, 0.0, 2024-03-13 20:38:45.269
51.0, 11.025225069373846, 3.777298955246806, 0.08975759893655777, 3.0311889140866697, 0.01600000075995922, -0.1600000075995922, 1.0560000501573086, 0.0, 0.0, 0.0, 0.0, 0.0, 1.7103875252847035E9, 0.0, 2024-03-13 20:38:45.284
51.0, -217.3835548744537, -226.3854940677993, -196.0773448268883, 201.95646755723283, 0.01600000075995922, -0.1600000075995922, 1.0560000501573086, 0.0, 0.0, 0.0, 0.0, 0.0, 1.7103875252847035E9, 0.0, 2024-03-13 20:38:45.284
52.0, -96.62405525520444, -350.4903341974132, -30.895313533954322, 97.26170819764957, 0.01600000075995922, -0.1600000075995922, 1.0560000501573086, 0.0, 0.0, 0.0, 0.0, 0.0, 1.71038752528539E9, 0.0, 2024-03-13 20:38:45.285
52.0, -158.0406923275441, -246.4687568298541, -132.48595593031496, 257.7632546960376, 0.01600000075995922, -0.1600000075995922, 1.0560000501573086, 0.0, 0.0, 0.0, 0.0, 0.0, 1.71038752528539E9, 0.0, 2024-03-13 20:38:45.285
53.0, -226.69590576412156, -168.08045375859365, -212.13647523662075, 285.3711961689405, 0.01600000075995922, -0.1600000075995922, 1.0560000501573086, 0.0, 0.0, 0.0, 0.0, 0.0, 1.7103875252991345E9, 0.0, 2024-03-13 20:38:45.299
53.0, -436.66510897642, -134.14647151064128, -375.36440880270675, 297.2248090784997, 0.01600000075995922, -0.1600000075995922, 1.0560000501573086, 0.0, 0.0, 0.0, 0.0, 0.0, 1.7103875252991345E9, 0.0, 2024-03-13 20:38:45.299
54.0, -228.87439748831093, 68.14658704260364, -189.02950336039066, 71.08053855784237, 0.01600000075995922, -0.1600000075995922, 1.0560000501573086, 0.0, 0.0, 0.0, 0.0, 0.0, 1.7103875253146963E9, 0.0, 2024-03-13 20:38:45.314
54.0, -331.38318532379344, 226.00776417227462, -323.45085751777515, 211.26694849692285, 0.01600000075995922, -0.1600000075995922, 1.0560000501573086, 0.0, 0.0, 0.0, 0.0, 0.0, 1.7103875253146963E9, 0.0, 2024-03-13 20:38:45.314
55.0, -290.816490504425, 103.85515181953087, -238.15495922835544, 41.78590220492333, 0.01600000075995922, -0.1600000075995922, 1.0560000501573086, 0.0, 0.0, 0.0, 0.0, 0.0, 1.7103875253154812E9, 0.0, 2024-03-13 20:38:45.315
55.0, -195.39481308497488, 39.13244318636134, -140.22754883859307, 23.415513622574508, 0.01600000075995922, -0.1600000075995922, 1.0560000501573086, 0.0, 0.0, 0.0, 0.0, 0.0, 1.7103875253154812E9, 0.0, 2024-03-13 20:38:45.315
56.0, 1.6679953802376986, 5.134882639162242, 3.455667559057474, 10.383832226973027, 0.01600000075995922, -0.1600000075995922, 1.0560000501573086, 0.0, 0.0, 0.0, 0.0, 0.0, 1.7103875253290014E9, 0.0, 2024-03-13 20:38:45.329
56.0, -231.75599040417, -209.9710731622763, -185.11195815680549, 220.8616618332453, 0.01600000075995922, -0.1600000075995922, 1.0560000501573086, 0.0, 0.0, 0.0, 0.0, 0.0, 1.7103875253290014E9, 0.0, 2024-03-13 20:38:45.329
57.0, -90.07175053283572, -341.5183142037131, -30.59612153749913, 108.67588286241516, 0.01600000075995922, -0.1600000075995922, 1.0560000501573086, 0.0, 0.0, 0.0, 0.0, 0.0, 1.7103875253447945E9, 0.0, 2024-03-13 20:38:45.344
57.0, -147.86068464815617, -250.3245936841704, -131.63699864037335, 251.282008072827, 0.01600000075995922, -0.1600000075995922, 1.0560000501573086, 0.0, 0.0, 0.0, 0.0, 0.0, 1.7103875253447945E9, 0.0, 2024-03-13 20:38:45.344
58.0, -225.9815848725848, -169.8718658373691, -221.22817202890292, 278.23920695343986, 0.01600000075995922, -0.1600000075995922, 1.0560000501573086, 0.0, 0.0, 0.0, 0.0, 0.0, 1.7103875253455615E9, 0.0, 2024-03-13 20:38:45.345
58.0, -418.26106129447, -125.06599441822618, -375.4466866017319, 303.8519117999822, 0.01600000075995922, -0.1600000075995922, 1.0560000501573086, 0.0, 0.0, 0.0, 0.0, 0.0, 1.7103875253455615E9, 0.0, 2024-03-13 20:38:45.345
59.0, -214.7300958558917, 70.23345121787861, -191.71475152857602, 69.87255087215453, 0.01600000075995922, -0.1600000075995922, 1.0560000501573086, 0.0, 0.0, 0.0, 0.0, 0.0, 1.7103875253592432E9, 0.0, 2024-03-13 20:38:45.359
59.0, -326.7606689785607, 219.66489384742454, -338.9564827340655, 201.46093081310391, 0.01600000075995922, -0.1600000075995922, 1.0560000501573086, 0.0, 0.0, 0.0, 0.0, 0.0, 1.7103875253592432E9, 0.0, 2024-03-13 20:38:45.359
60.0, -292.10301608918235, 104.5133742117323, -248.93709080060944, 35.214897982776165, 0.01600000075995922, -0.1600000075995922, 1.0400000493973494, 0.0, 0.0, 0.0, 0.0, 0.0, 1.7103875253750932E9, 0.0, 2024-03-13 20:38:45.375
60.0, -209.71862991526723, 35.403762930538505, -154.63738336786628, 9.929434382356703, 0.01600000075995922, -0.1600000075995922, 1.0400000493973494, 0.0, 0.0, 0.0, 0.0, 0.0, 1.7103875253750932E9, 0.0, 2024-03-13 20:38:45.375
61.0, 9.072997292503715, 13.976006134413183, 9.742439384572208, 11.64604846201837, 0.01600000075995922, -0.1600000075995922, 1.0400000493973494, 0.0, 0.0, 0.0, 0.0, 0.0, 1.7103875253755045E9, 0.0, 2024-03-13 20:38:45.375
61.0, -211.26133864698932, -208.38909548101947, -191.21173498453572, 215.27238134946674, 0.01600000075995922, -0.1600000075995922, 1.0400000493973494, 0.0, 0.0, 0.0, 0.0, 0.0, 1.7103875253755045E9, 0.0, 2024-03-13 20:38:45.375
62.0, -86.7806385718286, -336.19269666681066, -28.830888758413494, 107.73903792351484, 0.01600000075995922, -0.1600000075995922, 1.0400000493973494, 0.0, 0.0, 0.0, 0.0, 0.0, 1.7103875253891428E9, 0.0, 2024-03-13 20:38:45.389
62.0, -145.46340877655894, -244.73718315036967, -134.78599440306425, 252.52178490813822, 0.01600000075995922, -0.1600000075995922, 1.0400000493973494, 0.0, 0.0, 0.0, 0.0, 0.0, 1.7103875253891428E9, 0.0, 2024-03-13 20:38:45.389
63.0, -232.77324319211766, -165.0586145943962, -217.68648677086458, 280.2082642801106, 0.01600000075995922, -0.1600000075995922, 1.0400000493973494, 0.0, 0.0, 0.0, 0.0, 0.0, 1.7103875254046333E9, 0.0, 2024-03-13 20:38:45.404
63.0, -417.15779080754146, -117.91904560290277, -363.5575446425937, 306.6362673169933, 0.01600000075995922, -0.1600000075995922, 1.0400000493973494, 0.0, 0.0, 0.0, 0.0, 0.0, 1.7103875254046333E9, 0.0, 2024-03-13 20:38:45.404
64.0, -204.04520168248564, 73.85741427494213, -177.4582528974861, 80.058168401476, 0.01600000075995922, -0.1600000075995922, 1.0400000493973494, 0.0, 0.0, 0.0, 0.0, 0.0, 1.7103875254053304E9, 0.0, 2024-03-13 20:38:45.405
64.0, -323.0282488227822, 225.70109237590805, -328.70915685547516, 204.84367032302544, 0.01600000075995922, -0.1600000075995922, 1.0400000493973494, 0.0, 0.0, 0.0, 0.0, 0.0, 1.7103875254053304E9, 0.0, 2024-03-13 20:38:45.405
65.0, -280.3709499281831, 114.13239689776674, -236.64029974630103, 41.881269653793424, 0.01600000075995922, -0.1600000075995922, 1.0400000493973494, 0.0, 0.0, 0.0, 0.0, 0.0, 1.7103875254189684E9, 0.0, 2024-03-13 20:38:45.418
65.0, -195.80246218014508, 38.679915291722864, -145.63544417452067, 14.370565579738468, 0.01600000075995922, -0.1600000075995922, 1.0400000493973494, 0.0, 0.0, 0.0, 0.0, 0.0, 1.7103875254189684E9, 0.0, 2024-03-13 20:38:45.418
66.0, 7.416221612133086, 7.24792611412704, 2.647849168628454, 9.933174282312393, 0.01600000075995922, -0.1600000075995922, 1.0400000493973494, 0.0, 0.0, 0.0, 0.0, 0.0, 1.7103875254348493E9, 0.0, 2024-03-13 20:38:45.434
66.0, -213.40430132159963, -212.58526323130354, -184.71552876150236, 218.56723321042955, 0.01600000075995922, -0.1600000075995922, 1.0400000493973494, 0.0, 0.0, 0.0, 0.0, 0.0, 1.7103875254348493E9, 0.0, 2024-03-13 20:38:45.434
67.0, -98.31075013522059, -349.83959160512313, -37.81038855202496, 99.91890711616725, 0.01600000075995922, -0.1600000075995922, 1.0400000493973494, 0.0, 0.0, 0.0, 0.0, 0.0, 1.7103875254355192E9, 0.0, 2024-03-13 20:38:45.435
67.0, -141.9217235185206, -245.05133474664763, -134.13151191081852, 250.77525162883103, 0.01600000075995922, -0.1600000075995922, 1.0400000493973494, 0.0, 0.0, 0.0, 0.0, 0.0, 1.7103875254355192E9, 0.0, 2024-03-13 20:38:45.435
68.0, -224.11163489473984, -168.95933024818078, -223.87976109748706, 275.3800534373149, 0.01600000075995922, -0.1600000075995922, 1.0400000493973494, 0.0, 0.0, 0.0, 0.0, 0.0, 1.7103875254489236E9, 0.0, 2024-03-13 20:38:45.448
68.0, -425.7483410057612, -125.96357040759176, -373.10176932951435, 298.54686371283606, 0.01600000075995922, -0.1600000075995922, 1.0400000493973494, 0.0, 0.0, 0.0, 0.0, 0.0, 1.7103875254489236E9, 0.0, 2024-03-13 20:38:45.448
69.0, -218.19698311481625, 69.55652932589874, -194.3102420978248, 67.86983444588259, 0.01600000075995922, -0.1600000075995922, 1.0400000493973494, 0.0, 0.0, 0.0, 0.0, 0.0, 1.710387525464666E9, 0.0, 2024-03-13 20:38:45.464
69.0, -331.82823341852054, 222.76527091069147, -339.9251168225892, 200.46798737486824, 0.01600000075995922, -0.1600000075995922, 1.0400000493973494, 0.0, 0.0, 0.0, 0.0, 0.0, 1.710387525464666E9, 0.0, 2024-03-13 20:38:45.464
70.0, -286.21641355892643, 104.87240460747853, -253.13325855089352, 29.11325120506808, 0.01600000075995922, -0.1600000075995922, 1.0400000493973494, 0.0, 0.0, 0.0, 0.0, 0.0, 1.7103875254653533E9, 0.0, 2024-03-13 20:38:45.465
70.0, -193.81657530367374, 31.828418572898954, -152.20644839666784, 6.670111570972949, 0.01600000075995922, -0.1600000075995922, 1.0400000493973494, 0.0, 0.0, 0.0, 0.0, 0.0, 1.7103875254653533E9, 0.0, 2024-03-13 20:38:45.465
71.0, -5.707087332382798, -5.101223539561033, -9.24877259042114, -5.179761438630521, 0.01600000075995922, -0.1600000075995922, 1.0400000493973494, 0.0, 0.0, 0.0, 0.0, 0.0, 1.7103875254795127E9, 0.0, 2024-03-13 20:38:45.479
71.0, -220.7494648345746, -212.73859912948683, -193.82218515360728, 212.16078458633274, 0.01600000075995922, -0.1600000075995922, 1.0400000493973494, 0.0, 0.0, 0.0, 0.0, 0.0, 1.7103875254795127E9, 0.0, 2024-03-13 20:38:45.479
72.0, -81.86641003005207, -341.4397763046436, -31.923786021769047, 100.31907641142607, 0.01600000075995922, -0.1600000075995922, 1.0400000493973494, 0.0, 0.0, 0.0, 0.0, 0.0, 1.7103875254948196E9, 0.0, 2024-03-13 20:38:45.494
72.0, -147.5839320514351, -242.85227357270196, -141.61131182219833, 247.62251596618444, 0.01600000075995922, -0.1600000075995922, 1.0400000493973494, 0.0, 0.0, 0.0, 0.0, 0.0, 1.7103875254948196E9, 0.0, 2024-03-13 20:38:45.494
73.0, -234.3888799729757, -172.2167831095867, -234.2056248751469, 273.4166059605777, 0.01600000075995922, -0.1600000075995922, 1.0400000493973494, 0.0, 0.0, 0.0, 0.0, 0.0, 1.710387525495366E9, 0.0, 2024-03-13 20:38:45.495
73.0, -431.1450166418217, -135.74714869167656, -385.99694437673315, 291.13812190061435, 0.01600000075995922, -0.1600000075995922, 1.0400000493973494, 0.0, 0.0, 0.0, 0.0, 0.0, 1.710387525495366E9, 0.0, 2024-03-13 20:38:45.495
74.0, -226.83615201245993, 61.9009541166015, -198.08754105307162, 56.54915728000924, 0.01600000075995922, -0.1600000075995922, 1.0400000493973494, 0.0, 0.0, 0.0, 0.0, 0.0, 1.7103875255092003E9, 0.0, 2024-03-13 20:38:45.509
74.0, -333.42143079964444, 215.44628669740632, -338.5824927384965, 196.57849142095074, 0.01600000075995922, -0.1600000075995922, 1.0400000493973494, 0.0, 0.0, 0.0, 0.0, 0.0, 1.7103875255092003E9, 0.0, 2024-03-13 20:38:45.509
75.0, -305.3048629327677, 100.84079245524481, -255.63525162125006, 28.02868021791801, 0.01600000075995922, -0.1600000075995922, 1.0400000493973494, 0.0, 0.0, 0.0, 0.0, 0.0, 1.7103875255412965E9, 0.0, 2024-03-13 20:38:45.541
75.0, -218.2194225145504, 23.18550977529958, -160.0714580034837, -3.981123502831906, 0.01600000075995922, -0.1600000075995922, 1.0400000493973494, 0.0, 0.0, 0.0, 0.0, 0.0, 1.7103875255412965E9, 0.0, 2024-03-13 20:38:45.541
76.0, -14.847402824088931, -7.719153508543968, -18.55364368017763, -11.578730262815952, 0.01600000075995922, -0.1600000075995922, 1.0400000493973494, 0.0, 0.0, 0.0, 0.0, 0.0, 1.710387525542E9, 0.0, 2024-03-13 20:38:45.542
76.0, -215.89133479213342, -210.74149255314842, -193.23128096060827, 212.04858758766204, 0.01600000075995922, -0.1600000075995922, 1.0400000493973494, 0.0, 0.0, 0.0, 0.0, 0.0, 1.710387525542E9, 0.0, 2024-03-13 20:38:45.542
77.0, -105.45395905058831, -353.9983603558503, -44.78904186934233, 87.95496715791523, 0.01600000075995922, -0.1600000075995922, 1.0400000493973494, 0.0, 0.0, 0.0, 0.0, 0.0, 1.7103875255427995E9, 0.0, 2024-03-13 20:38:45.542
77.0, -155.5536588570103, -263.3731046295725, -153.80712557770312, 231.86257755290717, 0.01600000075995922, -0.1600000075995922, 1.0400000493973494, 0.0, 0.0, 0.0, 0.0, 0.0, 1.7103875255427995E9, 0.0, 2024-03-13 20:38:45.542
78.0, -247.23543632077053, -180.63529790984467, -232.78446289198473, 261.58730240073055, 0.01600000075995922, -0.1600000075995922, 1.0400000493973494, 0.0, 0.0, 0.0, 0.0, 0.0, 1.7103875255433507E9, 0.0, 2024-03-13 20:38:45.543
78.0, -438.4939200547524, -136.04260078817606, -383.345355308149, 287.35334314545617, 0.01600000075995922, -0.1600000075995922, 1.0400000493973494, 0.0, 0.0, 0.0, 0.0, 0.0, 1.7103875255433507E9, 0.0, 2024-03-13 20:38:45.543
79.0, -231.09963796194643, 60.43117343401536, -197.58639445900917, 54.97839929861948, 0.01600000075995922, -0.1600000075995922, 1.0400000493973494, 0.0, 0.0, 0.0, 0.0, 0.0, 1.7103875255539012E9, 0.0, 2024-03-13 20:38:45.553
79.0, -339.035020633135, 212.07663683732972, -344.68600946618244, 187.6962290261872, 0.01600000075995922, -0.1600000075995922, 1.0400000493973494, 0.0, 0.0, 0.0, 0.0, 0.0, 1.7103875255539012E9, 0.0, 2024-03-13 20:38:45.553
80.0, -296.65447433525696, 102.17219683947042, -248.67529780371115, 28.541046511847526, 0.01600000075995922, -0.1600000075995922, 1.0560000501573086, 0.0, 0.0, 0.0, 0.0, 0.0, 1.7103875255689287E9, 0.0, 2024-03-13 20:38:45.568
80.0, -217.55372032243758, 20.937829901929945, -155.96878775209188, -3.251843011472374, 0.01600000075995922, -0.1600000075995922, 1.0560000501573086, 0.0, 0.0, 0.0, 0.0, 0.0, 1.7103875255689287E9, 0.0, 2024-03-13 20:38:45.568
81.0, 0.29171219654381275, -12.4501269524917, -7.210527114570141, -11.533851463347673, 0.01600000075995922, -0.1600000075995922, 1.0560000501573086, 0.0, 0.0, 0.0, 0.0, 0.0, 1.7103875255846786E9, 0.0, 2024-03-13 20:38:45.584
81.0, -212.55160413170233, -222.16688691778108, -187.75232752552256, 210.45539020653814, 0.01600000075995922, -0.1600000075995922, 1.0560000501573086, 0.0, 0.0, 0.0, 0.0, 0.0, 1.7103875255846786E9, 0.0, 2024-03-13 20:38:45.584
82.0, -88.97969974577427, -349.53291980875656, -31.73305112402886, 96.07055006176233, 0.01600000075995922, -0.1600000075995922, 1.0560000501573086, 0.0, 0.0, 0.0, 0.0, 0.0, 1.7103875255853617E9, 0.0, 2024-03-13 20:38:45.585
82.0, -155.00763346347958, -260.1455709678121, -143.70939569734037, 237.2218541894108, 0.01600000075995922, -0.1600000075995922, 1.0560000501573086, 0.0, 0.0, 0.0, 0.0, 0.0, 1.7103875255853617E9, 0.0, 2024-03-13 20:38:45.585
83.0, -239.9837703066878, -181.57027289876714, -228.0497495480813, 262.35772179160267, 0.01600000075995922, -0.1600000075995922, 1.0560000501573086, 0.0, 0.0, 0.0, 0.0, 0.0, 1.7103875255989351E9, 0.0, 2024-03-13 20:38:45.598
83.0, -430.5279331491329, -134.77477470319718, -379.8223695498891, 293.8607690683566, 0.01600000075995922, -0.1600000075995922, 1.0560000501573086, 0.0, 0.0, 0.0, 0.0, 0.0, 1.7103875255989351E9, 0.0, 2024-03-13 20:38:45.598
84.0, -222.6960827615112, 55.73759898962453, -193.00875691324472, 57.79454396525398, 0.01600000075995922, -0.1600000075995922, 1.0560000501573086, 0.0, 0.0, 0.0, 0.0, 0.0, 1.7103875256312792E9, 0.0, 2024-03-13 20:38:45.631
84.0, -335.19414337864146, 212.70494002988562, -343.2835469827987, 189.20340870833024, 0.01600000075995922, -0.1600000075995922, 1.0560000501573086, 0.0, 0.0, 0.0, 0.0, 0.0, 1.7103875256312792E9, 0.0, 2024-03-13 20:38:45.631
85.0, -297.36505532683805, 100.18630996299908, -250.3956517833285, 30.059445893857628, 0.01600000075995922, -0.1600000075995922, 1.0560000501573086, 0.0, 0.0, 0.0, 0.0, 0.0, 1.7103875256317832E9, 0.0, 2024-03-13 20:38:45.631
85.0, -198.4989300481975, 31.93687567161396, -151.60058460384607, 10.215536728966981, 0.01600000075995922, -0.1600000075995922, 1.0560000501573086, 0.0, 0.0, 0.0, 0.0, 0.0, 1.7103875256317832E9, 0.0, 2024-03-13 20:38:45.631
86.0, -2.7076875679194927, 1.2977452846243978, -5.123662939295173, -7.498499411158264, 0.01600000075995922, -0.1600000075995922, 1.0560000501573086, 0.0, 0.0, 0.0, 0.0, 0.0, 1.710387525632501E9, 0.0, 2024-03-13 20:38:45.632
86.0, -211.5605306434445, -202.43891465151682, -184.1096649686806, 222.42307006474584, 0.01600000075995922, -0.1600000075995922, 1.0560000501573086, 0.0, 0.0, 0.0, 0.0, 0.0, 1.710387525632501E9, 0.0, 2024-03-13 20:38:45.632
87.0, -86.92275477014482, -340.2130891191773, -34.28366289380938, 98.91287402808666, 0.01600000075995922, -0.1600000075995922, 1.0560000501573086, 0.0, 0.0, 0.0, 0.0, 0.0, 1.7103875256333108E9, 0.0, 2024-03-13 20:38:45.633
87.0, -145.2128354795277, -247.37007271917537, -132.14936493430287, 250.12824893649668, 0.01600000075995922, -0.1600000075995922, 1.0560000501573086, 0.0, 0.0, 0.0, 0.0, 0.0, 1.7103875256333108E9, 0.0, 2024-03-13 20:38:45.633
88.0, -230.76865681586787, -174.61405898118392, -222.02103081950918, 271.4942973833531, 0.01600000075995922, -0.1600000075995922, 1.0560000501573086, 0.0, 0.0, 0.0, 0.0, 0.0, 1.7103875256439588E9, 0.0, 2024-03-13 20:38:45.643
88.0, -430.2511805524118, -126.7265099985525, -374.80716370930895, 299.91566709661856, 0.01600000075995922, -0.1600000075995922, 1.0560000501573086, 0.0, 0.0, 0.0, 0.0, 0.0, 1.7103875256439588E9, 0.0, 2024-03-13 20:38:45.643
89.0, -221.49183497577906, 68.44203913910314, -188.59567496553063, 67.95585214486346, 0.01600000075995922, -0.1600000075995922, 1.0560000501573086, 0.0, 0.0, 0.0, 0.0, 0.0, 1.7103875256593888E9, 0.0, 2024-03-13 20:38:45.659
89.0, -325.41804489446804, 216.80013048136607, -341.11814490845427, 193.57909165648744, 0.01600000075995922, -0.1600000075995922, 1.0560000501573086, 0.0, 0.0, 0.0, 0.0, 0.0, 1.7103875256593888E9, 0.0, 2024-03-13 20:38:45.659
90.0, -249.26246209675446, 103.90751041891053, -251.23338937340304, 36.14052322180942, 0.01600000075995922, -0.1600000075995922, 1.0400000493973494, 0.0, 0.0, 0.0, 0.0, 0.0, 1.710387525674993E9, 0.0, 2024-03-13 20:38:45.674
90.0, -187.99729097262025, 38.631296592298895, -144.9996611820534, 13.633805288467556, 0.01600000075995922, -0.1600000075995922, 1.0400000493973494, 0.0, 0.0, 0.0, 0.0, 0.0, 1.710387525674993E9, 0.0, 2024-03-13 20:38:45.674
91.0, -19.481138869188726, -8.934620994143188, -1.929788377135992, -7.954767205752432, 0.01600000075995922, -0.1600000075995922, 1.0400000493973494, 0.0, 0.0, 0.0, 0.0, 0.0, 1.7103875256754377E9, 0.0, 2024-03-13 20:38:45.675
91.0, -214.159761112649, -208.08616358460858, -186.42092314129695, 212.9947822764516, 0.01600000075995922, -0.1600000075995922, 1.0400000493973494, 0.0, 0.0, 0.0, 0.0, 0.0, 1.7103875256754377E9, 0.0, 2024-03-13 20:38:45.675
92.0, -85.53525188658386, -340.3701649173163, -32.2005386184901, 99.32426302321255, 0.01600000075995922, -0.1600000075995922, 1.0400000493973494, 0.0, 0.0, 0.0, 0.0, 0.0, 1.710387525689196E9, 0.0, 2024-03-13 20:38:45.689
92.0, -133.99687551241368, -247.2129969210364, -135.40681779570878, 247.27844517026097, 0.01600000075995922, -0.1600000075995922, 1.0400000493973494, 0.0, 0.0, 0.0, 0.0, 0.0, 1.710387525689196E9, 0.0, 2024-03-13 20:38:45.689
93.0, -217.005824978929, -158.40533257322386, -216.99460527906194, 285.5525813167915, 0.01600000075995922, -0.1600000075995922, 1.0400000493973494, 0.0, 0.0, 0.0, 0.0, 0.0, 1.7103875257046452E9, 0.0, 2024-03-13 20:38:45.704
93.0, -415.4336969279684, -111.92398597393185, -365.83888361556455, 315.0510422172956, 0.01600000075995922, -0.1600000075995922, 1.0400000493973494, 0.0, 0.0, 0.0, 0.0, 0.0, 1.7103875257046452E9, 0.0, 2024-03-13 20:38:45.704
94.0, -210.6536049041897, 74.47075786767527, -187.3502882802859, 72.70552508858964, 0.01600000075995922, -0.1600000075995922, 1.0400000493973494, 0.0, 0.0, 0.0, 0.0, 0.0, 1.7103875257053964E9, 0.0, 2024-03-13 20:38:45.705
94.0, -331.8731122179888, 226.92403966141865, -337.3333661532961, 207.31200429378077, 0.01600000075995922, -0.1600000075995922, 1.0400000493973494, 0.0, 0.0, 0.0, 0.0, 0.0, 1.7103875257053964E9, 0.0, 2024-03-13 20:38:45.705
95.0, -284.54467827873304, 128.43377432832494, -238.85058062011376, 56.80721037695184, 0.01600000075995922, -0.1600000075995922, 1.0400000493973494, 0.0, 0.0, 0.0, 0.0, 0.0, 1.710387525718989E9, 0.0, 2024-03-13 20:38:45.718
95.0, -172.6412617545575, 61.594282320234925, -137.00749497674406, 29.1805694042705, 0.01600000075995922, -0.1600000075995922, 1.0400000493973494, 0.0, 0.0, 0.0, 0.0, 0.0, 1.710387525718989E9, 0.0, 2024-03-13 20:38:45.718
96.0, 15.32611001841724, 17.880461688153446, 1.847510578110814, 7.491019611246884, 0.01600000075995922, -0.1600000075995922, 1.0400000493973494, 0.0, 0.0, 0.0, 0.0, 0.0, 1.7103875257346199E9, 0.0, 2024-03-13 20:38:45.734
96.0, -201.83305085869506, -189.19592890841886, -180.1453710156493, 233.8484644293785, 0.01600000075995922, -0.1600000075995922, 1.0400000493973494, 0.0, 0.0, 0.0, 0.0, 0.0, 1.7103875257346199E9, 0.0, 2024-03-13 20:38:45.734
97.0, -71.06183905806392, -315.7653631088324, -18.837876076810062, 125.93365120794624, 0.01600000075995922, -0.1600000075995922, 1.0400000493973494, 0.0, 0.0, 0.0, 0.0, 0.0, 1.7103875257353637E9, 0.0, 2024-03-13 20:38:45.735
97.0, -132.81132722645998, -225.4205998792313, -124.3180144270882, 267.9002535259351, 0.01600000075995922, -0.1600000075995922, 1.0400000493973494, 0.0, 0.0, 0.0, 0.0, 0.0, 1.7103875257353637E9, 0.0, 2024-03-13 20:38:45.735
98.0, -217.5705498722382, -145.6111348248087, -212.53664453187957, 299.01996105723083, 0.01600000075995922, -0.1600000075995922, 1.0400000493973494, 0.0, 0.0, 0.0, 0.0, 0.0, 1.7103875257489676E9, 0.0, 2024-03-13 20:38:45.748
98.0, -413.93399704573676, -100.75664470624179, -365.21806022292003, 324.8121811016463, 0.01600000075995922, -0.1600000075995922, 1.0400000493973494, 0.0, 0.0, 0.0, 0.0, 0.0, 1.7103875257489676E9, 0.0, 2024-03-13 20:38:45.748
99.0, -215.48555564694107, 85.86997293261811, -184.31722941622138, 80.2414234993048, 0.01600000075995922, -0.1600000075995922, 1.0400000493973494, 0.0, 0.0, 0.0, 0.0, 0.0, 1.710387525764644E9, 0.0, 2024-03-13 20:38:45.764
99.0, -322.88987252442166, 233.6072408822365, -336.2450552661903, 206.2648323061876, 0.01600000075995922, -0.1600000075995922, 1.0400000493973494, 0.0, 0.0, 0.0, 0.0, 0.0, 1.710387525764644E9, 0.0, 2024-03-13 20:38:45.764
100.0, -287.8320503397845, 126.36934955278412, -247.67674451554194, 49.31619076570496, 0.01600000075995922, -0.1600000075995922, 1.0400000493973494, 0.0, 0.0, 0.0, 0.0, 0.0, 1.7103875257653315E9, 0.0, 2024-03-13 20:38:45.765
100.0, -190.32350874505937, 48.261538978200406, -144.5471332874149, 17.85241243848577, 0.01600000075995922, -0.1600000075995922, 1.0400000493973494, 0.0, 0.0, 0.0, 0.0, 0.0, 1.7103875257653315E9, 0.0, 2024-03-13 20:38:45.765
0.0, -449.34897967614233, 42.34688719827682, -284.5876871282235, -96.25941500952467, 0.01600000075995922, -0.1600000075995922, 1.0400000493973494, 0.0, 0.0, 0.0, 0.0, 0.0, 1.7103875257796588E9, 0.0, 2024-03-13 20:38:45.779
1.0, -655.9279635786079, -156.34090779768303, -466.77878341963515, 137.1627008249052, 0.01600000075995922, -0.1600000075995922, 1.0400000493973494, 0.0, 0.0, 0.0, 0.0, 0.0, 1.710387525780367E9, 0.0, 2024-03-13 20:38:45.780
1.0, -504.25071102567017, -284.0098725850694, -303.2909268066287, 20.77327430387959, 0.01600000075995922, -0.1600000075995922, 1.0400000493973494, 0.0, 0.0, 0.0, 0.0, 0.0, 1.710387525780367E9, 0.0, 2024-03-13 20:38:45.780
2.0, -586.565909050405, -202.8203844469972, -414.32855649106205, 157.7620697808452, 0.01600000075995922, -0.1600000075995922, 1.0400000493973494, 0.0, 0.0, 0.0, 0.0, 0.0, 1.71038752579417E9, 0.0, 2024-03-13 20:38:45.794
2.0, -705.9715648856945, -127.95880703395233, -505.8420384568162, 185.64676385046914, 0.01600000075995922, -0.1600000075995922, 1.0400000493973494, 0.0, 0.0, 0.0, 0.0, 0.0, 1.71038752579417E9, 0.0, 2024-03-13 20:38:45.794
3.0, -887.4277708358131, -76.00224689953029, -653.2352356105112, 210.0290416115895, 0.01600000075995922, -0.1600000075995922, 1.0400000493973494, 0.0, 0.0, 0.0, 0.0, 0.0, 1.710387525809824E9, 0.0, 2024-03-13 20:38:45.809
3.0, -667.4150662925094, 111.76130032585934, -464.27492039930075, -23.860561717301607, 0.01600000075995922, -0.1600000075995922, 1.0400000493973494, 0.0, 0.0, 0.0, 0.0, 0.0, 1.710387525809824E9, 0.0, 2024-03-13 20:38:45.809
4.0, -779.9916648087092, 259.59954557428136, -619.5985754090361, 106.6432472364977, 0.01600000075995922, -0.1600000075995922, 1.0400000493973494, 0.0, 0.0, 0.0, 0.0, 0.0, 1.7103875258103845E9, 0.0, 2024-03-13 20:38:45.810
4.0, -733.7964205560274, 166.88742567272857, -520.8315574792214, -42.889172691851854, 0.01600000075995922, -0.1600000075995922, 1.0400000493973494, 0.0, 0.0, 0.0, 0.0, 0.0, 1.7103875258103845E9, 0.0, 2024-03-13 20:38:45.810
5.0, -654.4712725458667, 75.94053855026141, -424.17571307439357, -77.5206462815404, 0.01600000075995922, -0.1600000075995922, 1.0400000493973494, 0.0, 0.0, 0.0, 0.0, 0.0, 1.7103875258241737E9, 0.0, 2024-03-13 20:38:45.824
5.0, -455.15330440737307, 39.70651782955974, -286.59601340442896, -100.29476706171408, 0.01600000075995922, -0.1600000075995922, 1.0400000493973494, 0.0, 0.0, 0.0, 0.0, 0.0, 1.7103875258241737E9, 0.0, 2024-03-13 20:38:45.824
6.0, -648.9455703613348, -164.27323560370132, -469.82306198356673, 126.43666775198653, 0.01600000075995922, -0.1600000075995922, 1.0400000493973494, 0.0, 0.0, 0.0, 0.0, 0.0, 1.7103875258402996E9, 0.0, 2024-03-13 20:38:45.840
6.0, -522.1162131140009, -289.2644320228137, -309.1176909375936, 13.529088089708239, 0.01600000075995922, -0.1600000075995922, 1.0400000493973494, 0.0, 0.0, 0.0, 0.0, 0.0, 1.7103875258402996E9, 0.0, 2024-03-13 20:38:45.840
7.0, -603.9601837443188, -209.54098466737196, -423.8952205777168, 145.73081162339076, 0.01600000075995922, -0.1600000075995922, 1.0400000493973494, 0.0, 0.0, 0.0, 0.0, 0.0, 1.7103875258405104E9, 0.0, 2024-03-13 20:38:45.840
7.0, -681.0114725814201, -132.1512348842807, -512.7010149755515, 175.5490339701064, 0.01600000075995922, -0.1600000075995922, 1.0400000493973494, 0.0, 0.0, 0.0, 0.0, 0.0, 1.7103875258405104E9, 0.0, 2024-03-13 20:38:45.840
8.0, -884.2039770740084, -88.47855315171182, -664.0398065824993, 198.95519784279168, 0.01600000075995922, -0.1600000075995922, 1.0400000493973494, 0.0, 0.0, 0.0, 0.0, 0.0, 1.7103875258539526E9, 0.0, 2024-03-13 20:38:45.853
8.0, -685.4413840789348, 100.08533266419545, -471.6275637121871, -36.15735277161002, 0.01600000075995922, -0.1600000075995922, 1.0400000493973494, 0.0, 0.0, 0.0, 0.0, 0.0, 1.7103875258539526E9, 0.0, 2024-03-13 20:38:45.853
9.0, -789.7116647935472, 253.75034204358235, -619.5948355090804, 99.46637922152877, 0.01600000075995922, -0.1600000075995922, 1.0400000493973494, 0.0, 0.0, 0.0, 0.0, 0.0, 1.7103875258697505E9, 0.0, 2024-03-13 20:38:45.869
9.0, -739.0285405940376, 156.62140029435977, -516.1903416342102, -41.52036930806935, 0.01600000075995922, -0.1600000075995922, 1.0400000493973494, 0.0, 0.0, 0.0, 0.0, 0.0, 1.7103875258697505E9, 0.0, 2024-03-13 20:38:45.869
10.0, -647.1298489328474, 80.89216609159485, -416.7482717623934, -76.20046159718186, 0.01600000075995922, -0.1600000075995922, 1.0560000501573086, 0.0, 0.0, 0.0, 0.0, 0.0, 1.7103875258704329E9, 0.0, 2024-03-13 20:38:45.870
10.0, -463.885970803909, 30.685879136435688, -284.93549782410264, -98.83994597895071, 0.01600000075995922, -0.1600000075995922, 1.0560000501573086, 0.0, 0.0, 0.0, 0.0, 0.0, 1.7103875258704329E9, 0.0, 2024-03-13 20:38:45.870
11.0, -669.7992525142618, -167.01458227122203, -459.25784460874274, 134.37273545796052, 0.01600000075995922, -0.1600000075995922, 1.0560000501573086, 0.0, 0.0, 0.0, 0.0, 0.0, 1.7103875258839445E9, 0.0, 2024-03-13 20:38:45.883
11.0, -544.0544662540779, -296.8900880324654, -300.68795643746853, 17.740215439815074, 0.01600000075995922, -0.1600000075995922, 1.0560000501573086, 0.0, 0.0, 0.0, 0.0, 0.0, 1.7103875258839445E9, 0.0, 2024-03-13 20:38:45.883
12.0, -604.7941814344376, -218.78227745788172, -410.40540143754333, 153.33402823330835, 0.01600000075995922, -0.1600000075995922, 1.0560000501573086, 0.0, 0.0, 0.0, 0.0, 0.0, 1.7103875258996742E9, 0.0, 2024-03-13 20:38:45.899
12.0, -692.3957280465402, -135.9360136394389, -504.01696727843955, 181.2187223029323, 0.01600000075995922, -0.1600000075995922, 1.0560000501573086, 0.0, 0.0, 0.0, 0.0, 0.0, 1.7103875258996742E9, 0.0, 2024-03-13 20:38:45.899
13.0, -889.8811452067457, -91.25355891883373, -656.0065014776774, 202.2463098037988, 0.01600000075995922, -0.1600000075995922, 1.0560000501573086, 0.0, 0.0, 0.0, 0.0, 0.0, 1.7103875259004247E9, 0.0, 2024-03-13 20:38:45.900
13.0, -679.7380366465077, 92.504555454012, -474.2641931809485, -38.487310444004834, 0.01600000075995922, -0.1600000075995922, 1.0560000501573086, 0.0, 0.0, 0.0, 0.0, 0.0, 1.7103875259004247E9, 0.0, 2024-03-13 20:38:45.900
14.0, -795.9685174194165, 236.29248905042186, -633.6755588422529, 82.19552122615278, 0.01600000075995922, -0.1600000075995922, 1.0560000501573086, 0.0, 0.0, 0.0, 0.0, 0.0, 1.7103875259139624E9, 0.0, 2024-03-13 20:38:45.913
14.0, -744.6570900273509, 147.73165809968486, -529.9008148717694, -54.46790295466781, 0.01600000075995922, -0.1600000075995922, 1.0560000501573086, 0.0, 0.0, 0.0, 0.0, 0.0, 1.7103875259139624E9, 0.0, 2024-03-13 20:38:45.913
15.0, -649.4523268053308, 74.47449776763096, -420.7499647149816, -76.86990368925035, 0.01600000075995922, -0.1600000075995922, 1.0560000501573086, 0.0, 0.0, 0.0, 0.0, 0.0, 1.7103875259296753E9, 0.0, 2024-03-13 20:38:45.929
15.0, -461.1034852368757, 29.582608649507165, -286.8802458010614, -106.6600767862983, 0.01600000075995922, -0.1600000075995922, 1.0560000501573086, 0.0, 0.0, 0.0, 0.0, 0.0, 1.7103875259296753E9, 0.0, 2024-03-13 20:38:45.929
16.0, -665.6180443638004, -169.26600204454735, -464.55728284595534, 129.09199672052637, 0.01600000075995922, -0.1600000075995922, 1.0560000501573086, 0.0, 0.0, 0.0, 0.0, 0.0, 1.71038752593044E9, 0.0, 2024-03-13 20:38:45.930
16.0, -514.1951050078496, -297.17058052914217, -301.24146163091063, 19.785940715577453, 0.01600000075995922, -0.1600000075995922, 1.0560000501573086, 0.0, 0.0, 0.0, 0.0, 0.0, 1.71038752593044E9, 0.0, 2024-03-13 20:38:45.930
17.0, -609.2708416813985, -219.70229284698144, -415.3009304795414, 148.8685876862146, 0.01600000075995922, -0.1600000075995922, 1.0560000501573086, 0.0, 0.0, 0.0, 0.0, 0.0, 1.710387525944122E9, 0.0, 2024-03-13 20:38:45.944
17.0, -688.4650931931101, -127.0799305443652, -496.4100107685663, 194.2934125480242, 0.01600000075995922, -0.1600000075995922, 1.0560000501573086, 0.0, 0.0, 0.0, 0.0, 0.0, 1.710387525944122E9, 0.0, 2024-03-13 20:38:45.944
18.0, -869.4014530493878, -78.10033077467233, -641.8023614459671, 221.7386683728546, 0.01600000075995922, -0.1600000075995922, 1.0560000501573086, 0.0, 0.0, 0.0, 0.0, 0.0, 1.7103875259598024E9, 0.0, 2024-03-13 20:38:45.959
18.0, -667.7030385890976, 98.31262008519843, -463.6952359061688, 460.58924899296835, 0.01600000075995922, -0.1600000075995922, 1.0560000501573086, 0.0, 0.0, 0.0, 0.0, 0.0, 1.7103875259598024E9, 0.0, 2024-03-13 20:38:45.959
19.0, -798.7697024862282, 239.49384341249242, -621.6031617852859, 588.1048778821714, 0.01600000075995922, -0.1600000075995922, 1.0560000501573086, 0.0, 0.0, 0.0, 0.0, 0.0, 1.7103875259604688E9, 0.0, 2024-03-13 20:38:45.960
19.0, -742.0466398582794, 153.85013442719355, -511.72116118716076, 452.6681408868171, 0.01600000075995922, -0.1600000075995922, 1.0560000501573086, 0.0, 0.0, 0.0, 0.0, 0.0, 1.7103875259604688E9, 0.0, 2024-03-13 20:38:45.960
20.0, -660.1260012788698, 69.39197372784838, -421.37078810762614, 410.15669809048995, 0.01600000075995922, -0.1600000075995922, 1.0400000493973494, 0.0, 0.0, 0.0, 0.0, 0.0, 1.7103875259739368E9, 0.0, 2024-03-13 20:38:45.973
20.0, -454.9887488093227, 21.160353949293494, -286.8690261011943, 386.0436931261793, 0.01600000075995922, -0.1600000075995922, 1.0400000493973494, 0.0, 0.0, 0.0, 0.0, 0.0, 1.7103875259739368E9, 0.0, 2024-03-13 20:38:45.973
21.0, -662.3119728029706, -163.8394072088413, -469.6211073859595, 618.7215688694268, 0.01600000075995922, -0.1600000075995922, 1.0400000493973494, 0.0, 0.0, 0.0, 0.0, 0.0, 1.7103875259901743E9, 0.0, 2024-03-13 20:38:45.990
21.0, -538.7849472165108, -297.5370907247998, -306.49602106865495, 504.0562362279743, 0.01600000075995922, -0.1600000075995922, 1.0400000493973494, 0.0, 0.0, 0.0, 0.0, 0.0, 1.7103875259901743E9, 0.0, 2024-03-13 20:38:45.990
22.0, -600.5194757850841, -223.16918010590598, -418.6818000394851, 633.9691409887746, 0.01600000075995922, -0.1600000075995922, 1.0400000493973494, 0.0, 0.0, 0.0, 0.0, 0.0, 1.7103875259906683E9, 0.0, 2024-03-13 20:38:45.990
22.0, -688.6520881908946, -137.79474391741678, -510.87594379717484, 670.8071555523202, 0.01600000075995922, -0.1600000075995922, 1.0400000493973494, 0.0, 0.0, 0.0, 0.0, 0.0, 1.7103875259906683E9, 0.0, 2024-03-13 20:38:45.990
23.0, -873.7135576982982, -75.63199680391699, -645.7703952989541, 705.556435990613, 0.01600000075995922, -0.1600000075995922, 1.0400000493973494, 0.0, 0.0, 0.0, 0.0, 0.0, 1.7103875260039835E9, 0.0, 2024-03-13 20:38:46.003
23.0, -677.381899674423, 96.73438230389729, -470.1951820291579, 947.8327649701387, 0.01600000075995922, -0.1600000075995922, 1.0400000493973494, 0.0, 0.0, 0.0, 0.0, 0.0, 1.7103875260039835E9, 0.0, 2024-03-13 20:38:46.003
24.0, -801.0323419594206, 238.9515579189174, -627.1943122190423, 1077.1098867384717, 0.01600000075995922, -0.1600000075995922, 1.0400000493973494, 0.0, 0.0, 0.0, 0.0, 0.0, 1.7103875260196767E9, 0.0, 2024-03-13 20:38:46.019
24.0, -729.8283867030405, 144.7546977349557, -526.396528613288, 933.4790289402008, 0.01600000075995922, -0.1600000075995922, 1.0400000493973494, 0.0, 0.0, 0.0, 0.0, 0.0, 1.7103875260196767E9, 0.0, 2024-03-13 20:38:46.019
25.0, -628.6921421512961, 66.44867246272042, -424.3215691726655, 897.3029766688123, 0.01600000075995922, -0.1600000075995922, 1.0400000493973494, 0.0, 0.0, 0.0, 0.0, 0.0, 1.7103875260204084E9, 0.0, 2024-03-13 20:38:46.020
25.0, -477.8956360379234, 17.35687569435686, -293.0697802277282, 873.6163202994503, 0.01600000075995922, -0.1600000075995922, 1.0400000493973494, 0.0, 0.0, 0.0, 0.0, 0.0, 1.7103875260204084E9, 0.0, 2024-03-13 20:38:46.020
26.0, -693.1324883378111, -173.33501319633797, -475.55632861563936, 1106.1296404446475, 0.01600000075995922, -0.1600000075995922, 1.0400000493973494, 0.0, 0.0, 0.0, 0.0, 0.0, 1.7103875260339627E9, 0.0, 2024-03-13 20:38:46.033
26.0, -538.867225015536, -303.22173865744844, -308.64272364322096, 987.6870088479482, 0.01600000075995922, -0.1600000075995922, 1.0400000493973494, 0.0, 0.0, 0.0, 0.0, 0.0, 1.7103875260339627E9, 0.0, 2024-03-13 20:38:46.033
27.0, -596.8992526279762, -230.91451291413978, -424.99475116468966, 1122.6973972483538, 0.01600000075995922, -0.1600000075995922, 1.0400000493973494, 0.0, 0.0, 0.0, 0.0, 0.0, 1.710387526049683E9, 0.0, 2024-03-13 20:38:46.049
27.0, -676.7479866319336, -131.12650229642168, -503.1754897884093, 1174.0424837400205, 0.01600000075995922, -0.1600000075995922, 1.0400000493973494, 0.0, 0.0, 0.0, 0.0, 0.0, 1.710387526049683E9, 0.0, 2024-03-13 20:38:46.049
28.0, -865.7176515930332, -73.31325883138925, -644.7456627110951, 1203.4586668414995, 0.01600000075995922, -0.1600000075995922, 1.0400000493973494, 0.0, 0.0, 0.0, 0.0, 0.0, 1.7103875260503914E9, 0.0, 2024-03-13 20:38:46.050
28.0, -682.4756434140727, 96.6595843047835, -474.1968749817461, 1432.761282874737, 0.01600000075995922, -0.1600000075995922, 1.0400000493973494, 0.0, 0.0, 0.0, 0.0, 0.0, 1.7103875260503914E9, 0.0, 2024-03-13 20:38:46.050
29.0, -799.8916724729352, 246.74550942657515, -627.788956311997, 1562.1319021419622, 0.01600000075995922, -0.1600000075995922, 1.0400000493973494, 0.0, 0.0, 0.0, 0.0, 0.0, 1.7103875260639217E9, 0.0, 2024-03-13 20:38:46.063
29.0, -735.7860473324545, 158.54744877154008, -529.5530041758902, 1423.10112128919, 0.01600000075995922, -0.1600000075995922, 1.0400000493973494, 0.0, 0.0, 0.0, 0.0, 0.0, 1.7103875260639217E9, 0.0, 2024-03-13 20:38:46.063
30.0, -646.4940659403801, 71.25070400582626, -431.96966458205134, 1385.2346342378296, 0.01600000075995922, -0.1600000075995922, 1.0400000493973494, 0.0, 0.0, 0.0, 0.0, 0.0, 1.7103875260797727E9, 0.0, 2024-03-13 20:38:46.079
30.0, -453.7658015238121, 18.50128508079797, -301.23772173095495, 1351.5661848867312, 0.01600000075995922, -0.1600000075995922, 1.0400000493973494, 0.0, 0.0, 0.0, 0.0, 0.0, 1.7103875260797727E9, 0.0, 2024-03-13 20:38:46.079
31.0, -680.9067553826608, -169.10518634645268, -478.177998484578, 1592.756072929129, 0.01600000075995922, -0.1600000075995922, 1.0400000493973494, 0.0, 0.0, 0.0, 0.0, 0.0, 1.7103875260806203E9, 0.0, 2024-03-13 20:38:46.080
31.0, -543.6168979592621, -294.13752166507766, -307.846124952659, 1482.9002516306937, 0.01600000075995922, -0.1600000075995922, 1.0400000493973494, 0.0, 0.0, 0.0, 0.0, 0.0, 1.7103875260806203E9, 0.0, 2024-03-13 20:38:46.080
32.0, -601.3871325748041, -225.03165028383955, -425.26402396149933, 1605.3857150794938, 0.01600000075995922, -0.1600000075995922, 1.0400000493973494, 0.0, 0.0, 0.0, 0.0, 0.0, 1.7103875260939565E9, 0.0, 2024-03-13 20:38:46.093
32.0, -672.1927884859033, -131.0068254978396, -507.5549126365222, 1654.4644221980125, 0.01600000075995922, -0.1600000075995922, 1.0400000493973494, 0.0, 0.0, 0.0, 0.0, 0.0, 1.7103875260939565E9, 0.0, 2024-03-13 20:38:46.093
33.0, -858.3612683801912, -68.44390908908099, -647.9470170731656, 1690.6535641192459, 0.01600000075995922, -0.1600000075995922, 1.0400000493973494, 0.0, 0.0, 0.0, 0.0, 0.0, 1.7103875261101024E9, 0.0, 2024-03-13 20:38:46.110
33.0, -670.085354860872, 105.5867254990153, -468.35889115091413, 1929.6986195370555, 0.01600000075995922, -0.1600000075995922, 1.0400000493973494, 0.0, 0.0, 0.0, 0.0, 0.0, 1.7103875261101024E9, 0.0, 2024-03-13 20:38:46.110
34.0, -791.4694177727215, 252.8789453539066, -623.7274249601178, 2065.3560106297955, 0.01600000075995922, -0.1600000075995922, 1.0400000493973494, 0.0, 0.0, 0.0, 0.0, 0.0, 1.7103875261105108E9, 0.0, 2024-03-13 20:38:46.110
34.0, -725.0637541594915, 171.27806822070852, -514.3577906559221, 1933.9172266870737, 0.01600000075995922, -0.1600000075995922, 1.0400000493973494, 0.0, 0.0, 0.0, 0.0, 0.0, 1.7103875261105108E9, 0.0, 2024-03-13 20:38:46.110
35.0, -631.8972364133224, 94.53158122999594, -410.8205303326249, 1901.4922940712422, 0.01600000075995922, -0.1600000075995922, 1.0400000493973494, 0.0, 0.0, 0.0, 0.0, 0.0, 1.7103875261240196E9, 0.0, 2024-03-13 20:38:46.124
35.0, -457.6178984781727, 31.190765630453825, -287.0186220994219, 1863.4145026723854, 0.01600000075995922, -0.1600000075995922, 1.0400000493973494, 0.0, 0.0, 0.0, 0.0, 0.0, 1.7103875261240196E9, 0.0, 2024-03-13 20:38:46.124
36.0, -659.918436831329, -154.47469771979377, -465.2865633373149, 2107.1699620843865, 0.01600000075995922, -0.1600000075995922, 1.0400000493973494, 0.0, 0.0, 0.0, 0.0, 0.0, 1.7103875261401117E9, 0.0, 2024-03-13 20:38:46.140
36.0, -529.8615459222347, -279.9707806329243, -301.2826005304232, 1991.2517629577778, 0.01600000075995922, -0.1600000075995922, 1.0400000493973494, 0.0, 0.0, 0.0, 0.0, 0.0, 1.7103875261401117E9, 0.0, 2024-03-13 20:38:46.140
37.0, -606.780068310909, -220.69336633523926, -418.7079793391749, 2101.844344547484, 0.01600000075995922, -0.1600000075995922, 1.0400000493973494, 0.0, 0.0, 0.0, 0.0, 0.0, 1.7103875261406937E9, 0.0, 2024-03-13 20:38:46.140
37.0, -686.3857088177465, -128.32157732965425, -508.35899112699553, 2151.9141251542605, 0.01600000075995922, -0.1600000075995922, 1.0400000493973494, 0.0, 0.0, 0.0, 0.0, 0.0, 1.7103875261406937E9, 0.0, 2024-03-13 20:38:46.140
38.0, -867.2136115753092, -63.70545584522188, -645.4712033024989, 2186.5512085938826, 0.01600000075995922, -0.1600000075995922, 1.0400000493973494, 0.0, 0.0, 0.0, 0.0, 0.0, 1.7103875261540296E9, 0.0, 2024-03-13 20:38:46.154
38.0, -679.1882713530213, 106.59275858709589, -468.57954524829984, 2420.910169367213, 0.01600000075995922, -0.1600000075995922, 1.0400000493973494, 0.0, 0.0, 0.0, 0.0, 0.0, 1.7103875261540296E9, 0.0, 2024-03-13 20:38:46.154
39.0, -794.9138656319119, 248.52944170543924, -629.2213379950263, 2544.2819891055115, 0.01600000075995922, -0.1600000075995922, 1.0400000493973494, 0.0, 0.0, 0.0, 0.0, 0.0, 1.7103875261698203E9, 0.0, 2024-03-13 20:38:46.169
39.0, -721.2677557044663, 164.74072309816256, -528.9508802830242, 2406.7770874346606, 0.01600000075995922, -0.1600000075995922, 1.0400000493973494, 0.0, 0.0, 0.0, 0.0, 0.0, 1.7103875261698203E9, 0.0, 2024-03-13 20:38:46.169
40.0, -631.7663399148732, 77.58235463080928, -429.00392391718924, 2359.5234514945187, 0.01600000075995922, -0.1600000075995922, 1.0400000493973494, 0.0, 0.0, 0.0, 0.0, 0.0, 1.71038752617056E9, 0.0, 2024-03-13 20:38:46.170
40.0, -445.26126902457327, 20.45725275762379, -298.97134235780686, 2331.042243381962, 0.01600000075995922, -0.1600000075995922, 1.0400000493973494, 0.0, 0.0, 0.0, 0.0, 0.0, 1.71038752617056E9, 0.0, 2024-03-13 20:38:46.170
41.0, -651.8664322267286, -159.71429755771533, -472.10814085649326, 2087.397111018654, 0.01600000075995922, -0.1600000075995922, 1.0400000493973494, 0.0, 0.0, 0.0, 0.0, 0.0, 1.71038752618402E9, 0.0, 2024-03-13 20:38:46.184
41.0, -537.5171211315319, -288.8493031277321, -307.61051125545055, 1979.0783886020072, 0.01600000075995922, -0.1600000075995922, 1.0400000493973494, 0.0, 0.0, 0.0, 0.0, 0.0, 1.71038752618402E9, 0.0, 2024-03-13 20:38:46.184
42.0, -605.0597143312916, -216.63183498336002, -420.3161363201216, 2106.006853198167, 0.01600000075995922, -0.1600000075995922, 1.0400000493973494, 0.0, 0.0, 0.0, 0.0, 0.0, 1.7103875261996684E9, 0.0, 2024-03-13 20:38:46.199
42.0, -694.0188446273096, -127.3753826408647, -509.8212920096703, 2147.1719320104457, 0.01600000075995922, -0.1600000075995922, 1.0400000493973494, 0.0, 0.0, 0.0, 0.0, 0.0, 1.7103875261996684E9, 0.0, 2024-03-13 20:38:46.199
43.0, -858.6118416772224, -64.01960744149983, -641.417151750531, 2191.7721089320257, 0.01600000075995922, -0.1600000075995922, 1.0400000493973494, 0.0, 0.0, 0.0, 0.0, 0.0, 1.7103875262004092E9, 0.0, 2024-03-13 20:38:46.200
43.0, -670.8894333513454, 105.87843769555911, -460.991288238205, 2426.4826203011908, 0.01600000075995922, -0.1600000075995922, 1.0400000493973494, 0.0, 0.0, 0.0, 0.0, 0.0, 1.7103875262004092E9, 0.0, 2024-03-13 20:38:46.200
44.0, -804.4393908190541, 248.08439361071214, -622.4259397755377, 2553.0707540013827, 0.01600000075995922, -0.1600000075995922, 1.0400000493973494, 0.0, 0.0, 0.0, 0.0, 0.0, 1.7103875262140093E9, 0.0, 2024-03-13 20:38:46.214
44.0, -733.0222612651996, 161.73758343374357, -514.5971442530863, 2421.0335860657506, 0.01600000075995922, -0.1600000075995922, 1.0400000493973494, 0.0, 0.0, 0.0, 0.0, 0.0, 1.7103875262140093E9, 0.0, 2024-03-13 20:38:46.214
45.0, -639.1975211268291, 80.08808760112152, -414.317336791195, 2378.0135168754496, 0.01600000075995922, -0.1600000075995922, 1.0400000493973494, 0.0, 0.0, 0.0, 0.0, 0.0, 1.7103875262296703E9, 0.0, 2024-03-13 20:38:46.229
45.0, -448.45888348668814, 20.838722553104162, -292.0674870396033, 2336.266883620061, 0.01600000075995922, -0.1600000075995922, 1.0400000493973494, 0.0, 0.0, 0.0, 0.0, 0.0, 1.7103875262296703E9, 0.0, 2024-03-13 20:38:46.229
46.0, -653.9271171023138, -168.22256995690987, -467.1939123147167, 2578.7133780475706, 0.01600000075995922, -0.1600000075995922, 1.0400000493973494, 0.0, 0.0, 0.0, 0.0, 0.0, 1.7103875262303817E9, 0.0, 2024-03-13 20:38:46.230
46.0, -529.4052781276405, -294.0739433658309, -301.9595224224031, 2469.0595113467425, 0.01600000075995922, -0.1600000075995922, 1.0400000493973494, 0.0, 0.0, 0.0, 0.0, 0.0, 1.7103875262303817E9, 0.0, 2024-03-13 20:38:46.230
47.0, -612.0308878486976, -232.6872254931368, -427.5827619340271, 2580.55340882577, 0.01600000075995922, -0.1600000075995922, 1.0400000493973494, 0.0, 0.0, 0.0, 0.0, 0.0, 1.7103875262443032E9, 0.0, 2024-03-13 20:38:46.244
47.0, -693.9590062280186, -140.05738339060917, -509.1780292172916, 2627.1525622736663, 0.01600000075995922, -0.1600000075995922, 1.0400000493973494, 0.0, 0.0, 0.0, 0.0, 0.0, 1.7103875262443032E9, 0.0, 2024-03-13 20:38:46.244
48.0, -874.8916261843406, -73.22350123245269, -644.6222460125573, 2669.935147816781, 0.01600000075995922, -0.1600000075995922, 1.0400000493973494, 0.0, 0.0, 0.0, 0.0, 0.0, 1.710387526260086E9, 0.0, 2024-03-13 20:38:46.260
48.0, -676.1552124889567, 95.66103101661429, -466.7058553704992, 2904.7989950841293, 0.01600000075995922, -0.1600000075995922, 1.0400000493973494, 0.0, 0.0, 0.0, 0.0, 0.0, 1.710387526260086E9, 0.0, 2024-03-13 20:38:46.260
49.0, -794.5884943357669, 242.2800688794814, -625.3131425413303, 3033.3991949604824, 0.01600000075995922, -0.1600000075995922, 1.0400000493973494, 0.0, 0.0, 0.0, 0.0, 0.0, 1.7103875262606912E9, 0.0, 2024-03-13 20:38:46.260
49.0, -738.6395909986459, 160.04340875381604, -516.4296952313744, 2907.241149755195, 0.01600000075995922, -0.1600000075995922, 1.0400000493973494, 0.0, 0.0, 0.0, 0.0, 0.0, 1.7103875262606912E9, 0.0, 2024-03-13 20:38:46.260
50.0, -636.3963360600173, 80.95948429079726, -410.2333660395816, 2869.5541779017076, 0.01600000075995922, -0.1600000075995922, 1.0400000493973494, 0.0, 0.0, 0.0, 0.0, 0.0, 1.7103875262741609E9, 0.0, 2024-03-13 20:38:46.274
50.0, -455.8115267995745, 22.96298572793603, -289.8497263658792, 2834.7637585639022, 0.01600000075995922, -0.1600000075995922, 1.0400000493973494, 0.0, 0.0, 0.0, 0.0, 0.0, 1.7103875262741609E9, 0.0, 2024-03-13 20:38:46.274
51.0, -664.3801374784671, -162.73613672191277, -463.88410085393116, 3077.8273364841007, 0.01600000075995922, -0.1600000075995922, 1.0400000493973494, 0.0, 0.0, 0.0, 0.0, 0.0, 1.7103875262900996E9, 0.0, 2024-03-13 20:38:46.290
51.0, -524.1544585898519, -282.7532661999576, -289.71508996747434, 2972.3958168332465, 0.01600000075995922, -0.1600000075995922, 1.0400000493973494, 0.0, 0.0, 0.0, 0.0, 0.0, 1.7103875262900996E9, 0.0, 2024-03-13 20:38:46.290
52.0, -606.1031464189291, -217.0843628779985, -412.7577985096723, 3092.1960321138613, 0.01600000075995922, -0.1600000075995922, 1.0400000493973494, 0.0, 0.0, 0.0, 0.0, 0.0, 1.7103875262907183E9, 0.0, 2024-03-13 20:38:46.290
52.0, -693.4092409345321, -126.33195055322722, -498.7399684409611, 3138.679248663131, 0.01600000075995922, -0.1600000075995922, 1.0400000493973494, 0.0, 0.0, 0.0, 0.0, 0.0, 1.7103875262907183E9, 0.0, 2024-03-13 20:38:46.290
53.0, -860.5752891539596, -69.42002297751606, -632.6396065545268, 3172.2280212156475, 0.01600000075995922, -0.1600000075995922, 1.0400000493973494, 0.0, 0.0, 0.0, 0.0, 0.0, 1.7103875263039894E9, 0.0, 2024-03-13 20:38:46.303
53.0, -654.2244391487911, 92.1717043579556, -458.0330273732543, 3396.9791790028103, 0.01600000075995922, -0.1600000075995922, 1.0400000493973494, 0.0, 0.0, 0.0, 0.0, 0.0, 1.7103875263039894E9, 0.0, 2024-03-13 20:38:46.303
54.0, -762.1299026203342, 236.59542094683275, -622.1342275789939, 3528.51520034438, 0.01600000075995922, -0.1600000075995922, 1.0400000493973494, 0.0, 0.0, 0.0, 0.0, 0.0, 1.7103875263196435E9, 0.0, 2024-03-13 20:38:46.319
54.0, -742.4430692535825, 153.2068716348149, -514.4625078546815, 3395.075569925364, 0.01600000075995922, -0.1600000075995922, 1.0400000493973494, 0.0, 0.0, 0.0, 0.0, 0.0, 1.7103875263196435E9, 0.0, 2024-03-13 20:38:46.319
55.0, -636.7553664557636, 75.87322035105899, -408.2362594632432, 3359.1874899505638, 0.01600000075995922, -0.1600000075995922, 1.0400000493973494, 0.0, 0.0, 0.0, 0.0, 0.0, 1.710387526320418E9, 0.0, 2024-03-13 20:38:46.320
55.0, -477.8096183389425, 14.92220082320273, -287.66936469171196, 3320.660910557024, 0.01600000075995922, -0.1600000075995922, 1.0400000493973494, 0.0, 0.0, 0.0, 0.0, 0.0, 1.710387526320418E9, 0.0, 2024-03-13 20:38:46.320
56.0, -678.0831309161149, -160.357560350094, -459.28776380838826, 3080.8080367487855, 0.01600000075995922, -0.1600000075995922, 1.0400000493973494, 0.0, 0.0, 0.0, 0.0, 0.0, 1.7103875263340263E9, 0.0, 2024-03-13 20:38:46.334
56.0, -514.6289334027097, -278.4075024514459, -284.6849245270714, 2972.5902916309424, 0.01600000075995922, -0.1600000075995922, 1.0400000493973494, 0.0, 0.0, 0.0, 0.0, 0.0, 1.7103875263340263E9, 0.0, 2024-03-13 20:38:46.334
57.0, -597.228363824077, -227.60096155339852, -412.3464095145464, 3079.6486677625217, 0.01600000075995922, -0.1600000075995922, 1.0400000493973494, 0.0, 0.0, 0.0, 0.0, 0.0, 1.710387526349679E9, 0.0, 2024-03-13 20:38:46.349
57.0, -684.7887715366669, -132.5588839794509, -502.8875174918212, 3126.475955107715, 0.01600000075995922, -0.1600000075995922, 1.0400000493973494, 0.0, 0.0, 0.0, 0.0, 0.0, 1.710387526349679E9, 0.0, 2024-03-13 20:38:46.349
58.0, -866.3908335850574, -61.54005377087742, -637.7408300940879, 3168.6788561576977, 0.01600000075995922, -0.1600000075995922, 1.0400000493973494, 0.0, 0.0, 0.0, 0.0, 0.0, 1.710387526350346E9, 0.0, 2024-03-13 20:38:46.350
58.0, -688.5417611422017, 90.93379747262225, -468.2205148525536, 3392.7418723530136, 0.01600000075995922, -0.1600000075995922, 1.0400000493973494, 0.0, 0.0, 0.0, 0.0, 0.0, 1.710387526350346E9, 0.0, 2024-03-13 20:38:46.350
59.0, -797.6552122994326, 242.9158518719487, -630.1189139843918, 3520.059286544565, 0.01600000075995922, -0.1600000075995922, 1.0400000493973494, 0.0, 0.0, 0.0, 0.0, 0.0, 1.7103875263639765E9, 0.0, 2024-03-13 20:38:46.363
59.0, -737.7831539087929, 165.40642529027537, -518.1313497112133, 3396.294777310919, 0.01600000075995922, -0.1600000075995922, 1.0400000493973494, 0.0, 0.0, 0.0, 0.0, 0.0, 1.7103875263639765E9, 0.0, 2024-03-13 20:38:46.363
60.0, -642.2118804911152, 83.02764896629378, -414.0144048947841, 3357.4633960709907, 0.01600000075995922, -0.1600000075995922, 1.0400000493973494, 0.0, 0.0, 0.0, 0.0, 0.0, 1.7103875263803153E9, 0.0, 2024-03-13 20:38:46.380
60.0, -467.3341585630551, 20.719045754522085, -290.2124966615811, 3318.940556577407, 0.01600000075995922, -0.1600000075995922, 1.0400000493973494, 0.0, 0.0, 0.0, 0.0, 0.0, 1.7103875263803153E9, 0.0, 2024-03-13 20:38:46.380
61.0, -668.97647452401, -161.40847223764285, -463.25579766137525, 3083.2576712197624, 0.01600000075995922, -0.1600000075995922, 1.0400000493973494, 0.0, 0.0, 0.0, 0.0, 0.0, 1.7103875263805609E9, 0.0, 2024-03-13 20:38:46.380
61.0, -531.2752281054854, -284.2604458821006, -289.1653246739879, 2972.0592258372344, 0.01600000075995922, -0.1600000075995922, 1.0400000493973494, 0.0, 0.0, 0.0, 0.0, 0.0, 1.7103875263805609E9, 0.0, 2024-03-13 20:38:46.380
62.0, -620.1240313528106, -236.5355825475417, -418.88001473713666, 3080.3106300546788, 0.01600000075995922, -0.1600000075995922, 1.0400000493973494, 0.0, 0.0, 0.0, 0.0, 0.0, 1.710387526394341E9, 0.0, 2024-03-13 20:38:46.394
62.0, -693.2409454365261, -132.99645227426663, -503.3587448862381, 3130.855377955828, 0.01600000075995922, -0.1600000075995922, 1.0400000493973494, 0.0, 0.0, 0.0, 0.0, 0.0, 1.710387526394341E9, 0.0, 2024-03-13 20:38:46.394
63.0, -866.1888789874502, -60.40312418434769, -631.6223537665792, 3180.0331924231723, 0.01600000075995922, -0.1600000075995922, 1.0400000493973494, 0.0, 0.0, 0.0, 0.0, 0.0, 1.71038752640991E9, 0.0, 2024-03-13 20:38:46.409
63.0, -660.5486099738628, 108.12611756892875, -450.1380985667929, 3411.8602409265004, 0.01600000075995922, -0.1600000075995922, 1.0400000493973494, 0.0, 0.0, 0.0, 0.0, 0.0, 1.71038752640991E9, 0.0, 2024-03-13 20:38:46.409
64.0, -782.2655239817686, 244.81572104943916, -620.0997220030986, 3532.4046962982975, 0.01600000075995922, -0.1600000075995922, 1.0400000493973494, 0.0, 0.0, 0.0, 0.0, 0.0, 1.7103875264105544E9, 0.0, 2024-03-13 20:38:46.410
64.0, -746.0333732110448, 172.26914170896634, -511.87823698529974, 3404.2607642165385, 0.01600000075995922, -0.1600000075995922, 1.0400000493973494, 0.0, 0.0, 0.0, 0.0, 0.0, 1.7103875264105544E9, 0.0, 2024-03-13 20:38:46.410
65.0, -638.7225538324565, 78.0573219251819, -409.7060401458293, 3356.348905884195, 0.01600000075995922, -0.1600000075995922, 1.0400000493973494, 0.0, 0.0, 0.0, 0.0, 0.0, 1.7103875264245174E9, 0.0, 2024-03-13 20:38:46.424
65.0, -461.3615383338183, 7.610696409828961, -298.0214077690616, 3313.0950929466635, 0.01600000075995922, -0.1600000075995922, 1.0400000493973494, 0.0, 0.0, 0.0, 0.0, 0.0, 1.7103875264245174E9, 0.0, 2024-03-13 20:38:46.424
66.0, -661.3096796148457, -167.84857996134087, -463.37173456000164, 3077.5431040874682, 0.01600000075995922, -0.1600000075995922, 1.0400000493973494, 0.0, 0.0, 0.0, 0.0, 0.0, 1.7103875264398403E9, 0.0, 2024-03-13 20:38:46.439
66.0, -544.60797144752, -297.32391642732546, -300.0783527446911, 2959.6464978842996, 0.01600000075995922, -0.1600000075995922, 1.0400000493973494, 0.0, 0.0, 0.0, 0.0, 0.0, 1.7103875264398403E9, 0.0, 2024-03-13 20:38:46.439
67.0, -634.9639543769881, -246.96990342391655, -426.7899031434208, 3067.0601645116694, 0.01600000075995922, -0.1600000075995922, 1.0400000493973494, 0.0, 0.0, 0.0, 0.0, 0.0, 1.7103875264404838E9, 0.0, 2024-03-13 20:38:46.440
67.0, -698.3758280756883, -144.03663694346324, -509.0733120185323, 3119.803973586764, 0.01600000075995922, -0.1600000075995922, 1.0400000493973494, 0.0, 0.0, 0.0, 0.0, 0.0, 1.7103875264404838E9, 0.0, 2024-03-13 20:38:46.440
68.0, -868.1411067643203, -69.27042697928846, -634.1467862366699, 3173.705281698145, 0.01600000075995922, -0.1600000075995922, 1.0400000493973494, 0.0, 0.0, 0.0, 0.0, 0.0, 1.7103875264541595E9, 0.0, 2024-03-13 20:38:46.454
68.0, -679.4762436496094, 91.55836076522246, -461.847725328058, 3394.462226332631, 0.01600000075995922, -0.1600000075995922, 1.0400000493973494, 0.0, 0.0, 0.0, 0.0, 0.0, 1.7103875264541595E9, 0.0, 2024-03-13 20:38:46.454
69.0, -811.5489406348206, 237.39949943730608, -628.8361282995902, 3521.734761724714, 0.01600000075995922, -0.1600000075995922, 1.0400000493973494, 0.0, 0.0, 0.0, 0.0, 0.0, 1.7103875264697232E9, 0.0, 2024-03-13 20:38:46.469
69.0, -736.7023228215985, 171.49124251818284, -513.5611919653602, 3404.3206026158296, 0.01600000075995922, -0.1600000075995922, 1.0400000493973494, 0.0, 0.0, 0.0, 0.0, 0.0, 1.7103875264697232E9, 0.0, 2024-03-13 20:38:46.469
70.0, -649.1718343086541, 74.72507106466219, -419.8935276251286, 3354.7744080028497, 0.01600000075995922, -0.1600000075995922, 1.0560000501573086, 0.0, 0.0, 0.0, 0.0, 0.0, 1.7103875264706E9, 0.0, 2024-03-13 20:38:46.470
70.0, -471.0815383186564, 11.29075796622783, -298.6571907615289, 3315.391391519457, 0.01600000075995922, -0.1600000075995922, 1.0560000501573086, 0.0, 0.0, 0.0, 0.0, 0.0, 1.7103875264706E9, 0.0, 2024-03-13 20:38:46.470
71.0, -693.9889254276641, -164.2096573044546, -464.85647484241053, 3082.8724615243264, 0.01600000075995922, -0.1600000075995922, 1.0560000501573086, 0.0, 0.0, 0.0, 0.0, 0.0, 1.7103875264839487E9, 0.0, 2024-03-13 20:38:46.483
71.0, -542.9250164674595, -283.68824118888006, -291.6673177443445, 2970.4510688562877, 0.01600000075995922, -0.1600000075995922, 1.0560000501573086, 0.0, 0.0, 0.0, 0.0, 0.0, 1.7103875264839487E9, 0.0, 2024-03-13 20:38:46.483
72.0, -621.8668247321621, -231.70737170474604, -419.7140124272555, 3076.1668209037744, 0.01600000075995922, -0.1600000075995922, 1.0560000501573086, 0.0, 0.0, 0.0, 0.0, 0.0, 1.7103875264998791E9, 0.0, 2024-03-13 20:38:46.499
72.0, -692.4181674462743, -142.18538646539673, -511.42944899061695, 3123.880464538466, 0.01600000075995922, -0.1600000075995922, 1.0560000501573086, 0.0, 0.0, 0.0, 0.0, 0.0, 1.7103875264998791E9, 0.0, 2024-03-13 20:38:46.499
73.0, -862.6397139295004, -66.11395141668618, -636.6824384066276, 3172.5907915113494, 0.01600000075995922, -0.1600000075995922, 1.0560000501573086, 0.0, 0.0, 0.0, 0.0, 0.0, 1.7103875265004017E9, 0.0, 2024-03-13 20:38:46.500
73.0, -671.4541582446545, 99.96939576556906, -460.88283113949, 3395.546797319781, 0.01600000075995922, -0.1600000075995922, 1.0560000501573086, 0.0, 0.0, 0.0, 0.0, 0.0, 1.7103875265004017E9, 0.0, 2024-03-13 20:38:46.500
74.0, -807.5659471820109, 233.91765257855877, -632.2656165589578, 3522.4453427162953, 0.01600000075995922, -0.1600000075995922, 1.0560000501573086, 0.0, 0.0, 0.0, 0.0, 0.0, 1.710387526513975E9, 0.0, 2024-03-13 20:38:46.513
74.0, -740.4571823771112, 164.70332409860566, -515.2591065452434, 3402.121541441884, 0.01600000075995922, -0.1600000075995922, 1.0560000501573086, 0.0, 0.0, 0.0, 0.0, 0.0, 1.710387526513975E9, 0.0, 2024-03-13 20:38:46.513
75.0, -639.8557435190305, 82.26096947537735, -405.850203291513, 3364.1615568916313, 0.01600000075995922, -0.1600000075995922, 1.0560000501573086, 0.0, 0.0, 0.0, 0.0, 0.0, 1.710387526529632E9, 0.0, 2024-03-13 20:38:46.529
75.0, -473.7406071871519, 14.159261232241988, -289.93574406486005, 3318.2785942852497, 0.01600000075995922, -0.1600000075995922, 1.0560000501573086, 0.0, 0.0, 0.0, 0.0, 0.0, 1.710387526529632E9, 0.0, 2024-03-13 20:38:46.529
76.0, -667.0803452464752, -157.79198898049071, -460.750064691063, 3085.6811263910495, 0.01600000075995922, -0.1600000075995922, 1.0560000501573086, 0.0, 0.0, 0.0, 0.0, 0.0, 1.7103875265304143E9, 0.0, 2024-03-13 20:38:46.530
76.0, -524.491049585864, -276.223400877323, -286.3529199073091, 2978.903242756147, 0.01600000075995922, -0.1600000075995922, 1.0560000501573086, 0.0, 0.0, 0.0, 0.0, 0.0, 1.7103875265304143E9, 0.0, 2024-03-13 20:38:46.530
77.0, -616.8927577910945, -231.95794500177726, -415.2373521802947, 3081.8103299369104, 0.01600000075995922, -0.1600000075995922, 1.0560000501573086, 0.0, 0.0, 0.0, 0.0, 0.0, 1.7103875265442753E9, 0.0, 2024-03-13 20:38:46.544
77.0, -689.901214776095, -133.94638686301187, -508.5198068250902, 3132.2840197389014, 0.01600000075995922, -0.1600000075995922, 1.0560000501573086, 0.0, 0.0, 0.0, 0.0, 0.0, 1.7103875265442753E9, 0.0, 2024-03-13 20:38:46.544
78.0, -867.3258085739799, -57.85999221447855, -632.4339120569639, 3180.2501066206023, 0.01600000075995922, -0.1600000075995922, 1.0560000501573086, 0.0, 0.0, 0.0, 0.0, 0.0, 1.7103875265598528E9, 0.0, 2024-03-13 20:38:46.559
78.0, -686.7391293635592, 94.03417453588918, -469.94086883217096, 3390.770945076365, 0.01600000075995922, -0.1600000075995922, 1.0560000501573086, 0.0, 0.0, 0.0, 0.0, 0.0, 1.7103875265598528E9, 0.0, 2024-03-13 20:38:46.559
79.0, -805.273388509173, 238.1287799286656, -626.7904030238278, 3520.7324685365893, 0.01600000075995922, -0.1600000075995922, 1.0560000501573086, 0.0, 0.0, 0.0, 0.0, 0.0, 1.7103875265607069E9, 0.0, 2024-03-13 20:38:46.560
79.0, -726.6120727411471, 170.6909039276652, -511.28733279230073, 3403.8007565219887, 0.01600000075995922, -0.1600000075995922, 1.0560000501573086, 0.0, 0.0, 0.0, 0.0, 0.0, 1.7103875265607069E9, 0.0, 2024-03-13 20:38:46.560
80.0, -639.3171979254112, 79.1680722120218, -414.91572078410536, 3356.0758931874298, 0.01600000075995922, -0.1600000075995922, 1.0400000493973494, 0.0, 0.0, 0.0, 0.0, 0.0, 1.710387526574182E9, 0.0, 2024-03-13 20:38:46.574
80.0, -467.61091115977615, 5.692127732560039, -296.01682139281183, 3307.829313809052, 0.01600000075995922, -0.1600000075995922, 1.0400000493973494, 0.0, 0.0, 0.0, 0.0, 0.0, 1.710387526574182E9, 0.0, 2024-03-13 20:38:46.574
81.0, -658.8750047436915, -160.93724484322593, -470.3466479773633, 3076.82130339602, 0.01600000075995922, -0.1600000075995922, 1.0400000493973494, 0.0, 0.0, 0.0, 0.0, 0.0, 1.710387526589666E9, 0.0, 2024-03-13 20:38:46.589
81.0, -512.3438545297831, -285.77136546419933, -297.7783142719418, 2965.1142316195183, 0.01600000075995922, -0.1600000075995922, 1.0400000493973494, 0.0, 0.0, 0.0, 0.0, 0.0, 1.710387526589666E9, 0.0, 2024-03-13 20:38:46.589
82.0, -574.2578982962295, -243.14398576924577, -435.3093952424824, 3061.4540544780903, 0.01600000075995922, -0.1600000075995922, 1.0400000493973494, 0.0, 0.0, 0.0, 0.0, 0.0, 1.7103875265903609E9, 0.0, 2024-03-13 20:38:46.590
82.0, -683.9996526460163, -135.5283645442687, -520.8016382795759, 3115.82472003391, 0.01600000075995922, -0.1600000075995922, 1.0400000493973494, 0.0, 0.0, 0.0, 0.0, 0.0, 1.7103875265903609E9, 0.0, 2024-03-13 20:38:46.590
83.0, -863.8813607147895, -58.88472480233759, -638.4850701852702, 3175.455554877408, 0.01600000075995922, -0.1600000075995922, 1.0400000493973494, 0.0, 0.0, 0.0, 0.0, 0.0, 1.7103875266039815E9, 0.0, 2024-03-13 20:38:46.603
83.0, -664.3745276285335, 93.79856083868071, -472.304485604167, 3390.542811179068, 0.01600000075995922, -0.1600000075995922, 1.0400000493973494, 0.0, 0.0, 0.0, 0.0, 0.0, 1.7103875266039815E9, 0.0, 2024-03-13 20:38:46.603
84.0, -789.5882480950095, 229.44473223155364, -636.9778905031271, 3514.4943154104985, 0.01600000075995922, -0.1600000075995922, 1.0400000493973494, 0.0, 0.0, 0.0, 0.0, 0.0, 1.7103875266196563E9, 0.0, 2024-03-13 20:38:46.619
84.0, -707.5685021667741, 167.0557211707346, -513.8416844620369, 3402.252437940333, 0.01600000075995922, -0.1600000075995922, 1.0400000493973494, 0.0, 0.0, 0.0, 0.0, 0.0, 1.7103875266196563E9, 0.0, 2024-03-13 20:38:46.619
85.0, -617.8426923798397, 74.64279326563701, -411.79664422106, 3355.2568550971337, 0.01600000075995922, -0.1600000075995922, 1.0400000493973494, 0.0, 0.0, 0.0, 0.0, 0.0, 1.7103875266203632E9, 0.0, 2024-03-13 20:38:46.620
85.0, -471.6687026116997, 10.03415158111602, -291.89545164164156, 3316.692876704037, 0.01600000075995922, -0.1600000075995922, 1.0400000493973494, 0.0, 0.0, 0.0, 0.0, 0.0, 1.7103875266203632E9, 0.0, 2024-03-13 20:38:46.620
86.0, -659.6454241345637, -156.1987915993668, -457.7918038261123, 3086.9377327761613, 0.01600000075995922, -0.1600000075995922, 1.0400000493973494, 0.0, 0.0, 0.0, 0.0, 0.0, 1.7103875266340165E9, 0.0, 2024-03-13 20:38:46.634
86.0, -517.953704463318, -284.98972637346014, -283.80978793744, 2979.1500761532225, 0.01600000075995922, -0.1600000075995922, 1.0400000493973494, 0.0, 0.0, 0.0, 0.0, 0.0, 1.7103875266340165E9, 0.0, 2024-03-13 20:38:46.634
87.0, -603.728309947066, -243.97050365945324, -426.2102186502889, 3070.672907868866, 0.01600000075995922, -0.1600000075995922, 1.0400000493973494, 0.0, 0.0, 0.0, 0.0, 0.0, 1.7103875266499112E9, 0.0, 2024-03-13 20:38:46.649
87.0, -712.7669631051831, -139.5263175969012, -511.13773679407313, 3118.8203798984177, 0.01600000075995922, -0.1600000075995922, 1.0400000493973494, 0.0, 0.0, 0.0, 0.0, 0.0, 1.7103875266499112E9, 0.0, 2024-03-13 20:38:46.649
88.0, -879.2186904330738, -61.87664476688951, -640.8823460568674, 3171.3715841257945, 0.01600000075995922, -0.1600000075995922, 1.0400000493973494, 0.0, 0.0, 0.0, 0.0, 0.0, 1.710387526650658E9, 0.0, 2024-03-13 20:38:46.650
88.0, -667.818975487724, 86.32624072721228, -471.5976445125416, 3384.439294451382, 0.01600000075995922, -0.1600000075995922, 1.0400000493973494, 0.0, 0.0, 0.0, 0.0, 0.0, 1.710387526650658E9, 0.0, 2024-03-13 20:38:46.650
89.0, -795.5197294247337, 227.26811045734212, -637.3107415991835, 3513.8286132183857, 0.01600000075995922, -0.1600000075995922, 1.0400000493973494, 0.0, 0.0, 0.0, 0.0, 0.0, 1.710387526663967E9, 0.0, 2024-03-13 20:38:46.663
89.0, -726.3427999443375, 159.51608286006376, -517.7311804159544, 3395.4420801210217, 0.01600000075995922, -0.1600000075995922, 1.0400000493973494, 0.0, 0.0, 0.0, 0.0, 0.0, 1.710387526663967E9, 0.0, 2024-03-13 20:38:46.663
90.0, -640.7645392082632, 70.48776441486552, -409.9416538430378, 3354.2545619090088, 0.01600000075995922, -0.1600000075995922, 1.0560000501573086, 0.0, 0.0, 0.0, 0.0, 0.0, 1.7103875266960175E9, 0.0, 2024-03-13 20:38:46.696
90.0, -482.80612467974424, -11.440353964455426, -302.57286601513624, 3299.264942910522, 0.01600000075995922, -0.1600000075995922, 1.0560000501573086, 0.0, 0.0, 0.0, 0.0, 0.0, 1.7103875266960175E9, 0.0, 2024-03-13 20:38:46.696
91.0, -671.4560281946324, -172.31402050843462, -472.1417999560945, 3071.031938264612, 0.01600000075995922, -0.1600000075995922, 1.0560000501573086, 0.0, 0.0, 0.0, 0.0, 0.0, 1.7103875266967385E9, 0.0, 2024-03-13 20:38:46.696
91.0, -530.7441623117775, -282.3456171047874, -289.5056555699557, 2968.1846894831397, 0.01600000075995922, -0.1600000075995922, 1.0560000501573086, 0.0, 0.0, 0.0, 0.0, 0.0, 1.7103875266967385E9, 0.0, 2024-03-13 20:38:46.696
92.0, -610.9350971616805, -238.68228512210771, -422.3880408955738, 3071.2899913615547, 0.01600000075995922, -0.1600000075995922, 1.0560000501573086, 0.0, 0.0, 0.0, 0.0, 0.0, 1.7103875266974666E9, 0.0, 2024-03-13 20:38:46.697
92.0, -692.6911801430397, -137.936860115733, -507.1771827409975, 3124.789260227699, 0.01600000075995922, -0.1600000075995922, 1.0560000501573086, 0.0, 0.0, 0.0, 0.0, 0.0, 1.7103875266974666E9, 0.0, 2024-03-13 20:38:46.697
93.0, -865.2352044987492, -58.6191919054836, -634.3337812344544, 3180.9606876121834, 0.01600000075995922, -0.1600000075995922, 1.0560000501573086, 0.0, 0.0, 0.0, 0.0, 0.0, 1.710387526698555E9, 0.0, 2024-03-13 20:38:46.698
93.0, -672.9912571264431, 94.15385133447126, -465.4791681850329, 3391.892915063072, 0.01600000075995922, -0.1600000075995922, 1.0560000501573086, 0.0, 0.0, 0.0, 0.0, 0.0, 1.710387526698555E9, 0.0, 2024-03-13 20:38:46.698
94.0, -809.2563819619827, 236.5019234479405, -633.0584753495641, 3515.945396593306, 0.01600000075995922, -0.1600000075995922, 1.0560000501573086, 0.0, 0.0, 0.0, 0.0, 0.0, 1.7103875267090008E9, 0.0, 2024-03-13 20:38:46.709
94.0, -729.6339119053446, 168.26744875637814, -515.6854551401921, 3403.770837322343, 0.01600000075995922, -0.1600000075995922, 1.0560000501573086, 0.0, 0.0, 0.0, 0.0, 0.0, 1.7103875267090008E9, 0.0, 2024-03-13 20:38:46.709
95.0, -639.6837081210688, 80.12174670072272, -408.7598454570398, 3360.268321037758, 0.01600000075995922, -0.1600000075995922, 1.0560000501573086, 0.0, 0.0, 0.0, 0.0, 0.0, 1.7103875267242987E9, 0.0, 2024-03-13 20:38:46.724
95.0, -477.7871789392084, -2.0756444754078984, -302.7336817132309, 3304.4447043491527, 0.01600000075995922, -0.1600000075995922, 1.0560000501573086, 0.0, 0.0, 0.0, 0.0, 0.0, 1.7103875267242987E9, 0.0, 2024-03-13 20:38:46.724
96.0, -664.1819227808155, -168.0617542588152, -472.280176254455, 3075.254285314586, 0.01600000075995922, -0.1600000075995922, 1.0560000501573086, 0.0, 0.0, 0.0, 0.0, 0.0, 1.7103875267399251E9, 0.0, 2024-03-13 20:38:46.739
96.0, -520.1639853371307, -279.7875255350955, -293.1296186270192, 2972.5304532316513, 0.01600000075995922, -0.1600000075995922, 1.0560000501573086, 0.0, 0.0, 0.0, 0.0, 0.0, 1.7103875267399251E9, 0.0, 2024-03-13 20:38:46.739
97.0, -616.7095026932657, -245.73573643853888, -432.37357377726585, 3059.1465362054296, 0.01600000075995922, -0.1600000075995922, 1.0560000501573086, 0.0, 0.0, 0.0, 0.0, 0.0, 1.7103875267406108E9, 0.0, 2024-03-13 20:38:46.740
97.0, -700.0363436560147, -143.85338184563443, -512.9216690729372, 3117.5675134132616, 0.01600000075995922, -0.1600000075995922, 1.0560000501573086, 0.0, 0.0, 0.0, 0.0, 0.0, 1.7103875267406108E9, 0.0, 2024-03-13 20:38:46.740
98.0, -867.0378362773918, -59.374651696532965, -630.672419177834, 3179.7676595263183, 0.01600000075995922, -0.1600000075995922, 1.0560000501573086, 0.0, 0.0, 0.0, 0.0, 0.0, 1.710387526754001E9, 0.0, 2024-03-13 20:38:46.754
98.0, -683.1189062064514, 83.89904565596953, -463.24644791148603, 3385.875416034367, 0.01600000075995922, -0.1600000075995922, 1.0560000501573086, 0.0, 0.0, 0.0, 0.0, 0.0, 1.710387526754001E9, 0.0, 2024-03-13 20:38:46.754
99.0, -808.1007528756745, 224.62026128871366, -621.8948739818297, 3523.47381520411, 0.01600000075995922, -0.1600000075995922, 1.0560000501573086, 0.0, 0.0, 0.0, 0.0, 0.0, 1.7103875267696693E9, 0.0, 2024-03-13 20:38:46.769
99.0, -736.1039388286881, 163.52151571260765, -506.27212695172057, 3406.41120669106, 0.01600000075995922, -0.1600000075995922, 1.0560000501573086, 0.0, 0.0, 0.0, 0.0, 0.0, 1.7103875267696693E9, 0.0, 2024-03-13 20:38:46.769
100.0, -636.9386215535924, 81.00810299022123, -404.95262730214745, 3363.9184633945115, 0.01600000075995922, -0.1600000075995922, 1.0400000493973494, 0.0, 0.0, 0.0, 0.0, 0.0, 1.7103875267704756E9, 0.0, 2024-03-13 20:38:46.770
100.0, -472.2970058042556, 1.1743285860866308, -292.34049973636866, 3314.9874823242426, 0.01600000075995922, -0.1600000075995922, 1.0400000493973494, 0.0, 0.0, 0.0, 0.0, 0.0, 1.7103875267704756E9, 0.0, 2024-03-13 20:38:46.770
0.0, -176.79629060532898, 326.7101803291589, 22.026140789035708, 140.90073083061725, 0.01600000075995922, -0.1600000075995922, 1.0400000493973494, 0.0, 0.0, 0.0, 0.0, 0.0, 1.7103875267846346E9, 0.0, 2024-03-13 20:38:46.784
1.0, -37.782339302357286, 205.63465916365385, 196.88329326733947, 30.15481334272772, 0.01600000075995922, -0.1600000075995922, 1.0400000493973494, 0.0, 0.0, 0.0, 0.0, 0.0, 1.7103875267853863E9, 0.0, 2024-03-13 20:38:46.785
1.0, -90.88891867315397, 241.223547141999, 65.27247392665595, 122.93425144348294, 0.01600000075995922, -0.1600000075995922, 1.0400000493973494, 0.0, 0.0, 0.0, 0.0, 0.0, 1.7103875267853863E9, 0.0, 2024-03-13 20:38:46.785
2.0, -233.50065373349935, 346.55782939400524, -21.266941098030657, 177.230119000189, 0.01600000075995922, -0.1600000075995922, 1.0400000493973494, 0.0, 0.0, 0.0, 0.0, 0.0, 1.7103875267989967E9, 0.0, 2024-03-13 20:38:46.798
2.0, -395.13165001850575, 423.20520903589204, -146.37781431572512, 231.95046520186588, 0.01600000075995922, -0.1600000075995922, 1.0400000493973494, 0.0, 0.0, 0.0, 0.0, 0.0, 1.7103875267989967E9, 0.0, 2024-03-13 20:38:46.798
3.0, -202.05370495608076, 567.4924192763865, 24.253251212649047, 440.8407072769478, 0.01600000075995922, -0.1600000075995922, 1.0400000493973494, 0.0, 0.0, 0.0, 0.0, 0.0, 1.7103875268146777E9, 0.0, 2024-03-13 20:38:46.814
3.0, -321.47432039119303, 712.7987522548065, -143.84964194567874, 574.1943199969828, 0.01600000075995922, -0.1600000075995922, 1.0400000493973494, 0.0, 0.0, 0.0, 0.0, 0.0, 1.7103875268146777E9, 0.0, 2024-03-13 20:38:46.814
4.0, -239.9632008569315, 658.6898796958849, -23.19298957521096, 462.969695314765, 0.01600000075995922, -0.1600000075995922, 1.0400000493973494, 0.0, 0.0, 0.0, 0.0, 0.0, 1.7103875268154097E9, 0.0, 2024-03-13 20:38:46.815
4.0, -137.08042302588, 574.9123807884753, 80.71452084369957, 421.505424506031, 0.01600000075995922, -0.1600000075995922, 1.0400000493973494, 0.0, 0.0, 0.0, 0.0, 0.0, 1.7103875268154097E9, 0.0, 2024-03-13 20:38:46.815
5.0, 17.272727945353836, 495.05616698460653, 188.37128096818924, 363.10127684799954, 0.01600000075995922, -0.1600000075995922, 1.0400000493973494, 0.0, 0.0, 0.0, 0.0, 0.0, 1.71038752682899E9, 0.0, 2024-03-13 20:38:46.828
5.0, -178.8233163813129, 332.1143357651308, 24.202762563247234, 139.1803768509999, 0.01600000075995922, -0.1600000075995922, 1.0400000493973494, 0.0, 0.0, 0.0, 0.0, 0.0, 1.71038752682899E9, 0.0, 2024-03-13 20:38:46.828
6.0, -27.460215424653143, 220.22774879075587, 205.45888386573642, 38.73414384108037, 0.01600000075995922, -0.1600000075995922, 1.0400000493973494, 0.0, 0.0, 0.0, 0.0, 0.0, 1.7103875268448336E9, 0.0, 2024-03-13 20:38:46.844
6.0, -114.16605599736795, 249.43262754473835, 66.83949200809002, 125.85511330887675, 0.01600000075995922, -0.1600000075995922, 1.0400000493973494, 0.0, 0.0, 0.0, 0.0, 0.0, 1.7103875268448336E9, 0.0, 2024-03-13 20:38:46.844
7.0, -188.11322787124664, 353.1998917153105, -21.5474335947074, 180.95131945610046, 0.01600000075995922, -0.1600000075995922, 1.0400000493973494, 0.0, 0.0, 0.0, 0.0, 0.0, 1.7103875268454752E9, 0.0, 2024-03-13 20:38:46.845
7.0, -353.3457478135824, 435.95078808488324, -137.0131048266776, 239.29936861479655, 0.01600000075995922, -0.1600000075995922, 1.0400000493973494, 0.0, 0.0, 0.0, 0.0, 0.0, 1.7103875268454752E9, 0.0, 2024-03-13 20:38:46.845
8.0, -175.43309707148, 576.9842853639275, 27.81737587042153, 441.8056014655158, 0.01600000075995922, -0.1600000075995922, 1.0400000493973494, 0.0, 0.0, 0.0, 0.0, 0.0, 1.7103875268590024E9, 0.0, 2024-03-13 20:38:46.859
8.0, -330.6782141821459, 714.3134117368609, -149.6128277773969, 567.1408686805516, 0.01600000075995922, -0.1600000075995922, 1.0400000493973494, 0.0, 0.0, 0.0, 0.0, 0.0, 1.7103875268590024E9, 0.0, 2024-03-13 20:38:46.859
9.0, -260.0053247194737, 661.0684560677037, -23.020954177249223, 460.27322744671255, 0.01600000075995922, -0.1600000075995922, 1.0400000493973494, 0.0, 0.0, 0.0, 0.0, 0.0, 1.7103875268747008E9, 0.0, 2024-03-13 20:38:46.874
9.0, -165.1708115930669, 566.1610148921609, 80.98753354046494, 414.66514748707414, 0.01600000075995922, -0.1600000075995922, 1.0400000493973494, 0.0, 0.0, 0.0, 0.0, 0.0, 1.7103875268747008E9, 0.0, 2024-03-13 20:38:46.874
10.0, -5.0208156905137, 487.05278107943013, 189.18283925857395, 361.5192991667427, 0.01600000075995922, -0.1600000075995922, 1.0560000501573086, 0.0, 0.0, 0.0, 0.0, 0.0, 1.710387526875358E9, 0.0, 2024-03-13 20:38:46.875
10.0, -186.63222748879343, 319.2303804177791, 20.889211202505976, 136.3230932848528, 0.01600000075995922, -0.1600000075995922, 1.0560000501573086, 0.0, 0.0, 0.0, 0.0, 0.0, 1.710387526875358E9, 0.0, 2024-03-13 20:38:46.875
11.0, -42.7414466436021, 205.88897236064076, 205.90019206050783, 33.85357439890504, 0.01600000075995922, -0.1600000075995922, 1.0560000501573086, 0.0, 0.0, 0.0, 0.0, 0.0, 1.7103875268889942E9, 0.0, 2024-03-13 20:38:46.888
11.0, -127.42774124024436, 243.51610581483692, 65.52678712364286, 124.15345882903785, 0.01600000075995922, -0.1600000075995922, 1.0560000501573086, 0.0, 0.0, 0.0, 0.0, 0.0, 1.7103875268889942E9, 0.0, 2024-03-13 20:38:46.888
12.0, -206.70053065102547, 355.9038393832743, -12.70631009945646, 188.603154765442, 0.01600000075995922, -0.1600000075995922, 1.0560000501573086, 0.0, 0.0, 0.0, 0.0, 0.0, 1.7103875269046812E9, 0.0, 2024-03-13 20:38:46.904
12.0, -387.8126658052206, 431.9565749322064, -141.25415137642995, 244.8755594487302, 0.01600000075995922, -0.1600000075995922, 1.0560000501573086, 0.0, 0.0, 0.0, 0.0, 0.0, 1.7103875269046812E9, 0.0, 2024-03-13 20:38:46.904
13.0, -181.46929559996352, 584.6024615736678, 27.41720657516271, 451.34982615243644, 0.01600000075995922, -0.1600000075995922, 1.0560000501573086, 0.0, 0.0, 0.0, 0.0, 0.0, 1.7103875269055946E9, 0.0, 2024-03-13 20:38:46.905
13.0, -313.7476870827377, 722.1784213436767, -142.47335876198485, 579.2469248371199, 0.01600000075995922, -0.1600000075995922, 1.0560000501573086, 0.0, 0.0, 0.0, 0.0, 0.0, 1.7103875269055946E9, 0.0, 2024-03-13 20:38:46.905
14.0, -240.0753978556022, 659.1311878906563, -29.894890295807272, 458.90442406293005, 0.01600000075995922, -0.1600000075995922, 1.0560000501573086, 0.0, 0.0, 0.0, 0.0, 0.0, 1.7103875269190474E9, 0.0, 2024-03-13 20:38:46.919
14.0, -135.17307404847816, 577.9903184520081, 79.67856855597347, 419.0183910354972, 0.01600000075995922, -0.1600000075995922, 1.0560000501573086, 0.0, 0.0, 0.0, 0.0, 0.0, 1.7103875269190474E9, 0.0, 2024-03-13 20:38:46.919
15.0, 23.271527474280447, 490.6281254370697, 189.38105395622551, 361.5342587665655, 0.01600000075995922, -0.1600000075995922, 1.0560000501573086, 0.0, 0.0, 0.0, 0.0, 0.0, 1.7103875269347036E9, 0.0, 2024-03-13 20:38:46.934
15.0, -167.8616696111858, 331.9722195668146, 16.977275848854333, 140.36966503690928, 0.01600000075995922, -0.1600000075995922, 1.0560000501573086, 0.0, 0.0, 0.0, 0.0, 0.0, 1.7103875269347036E9, 0.0, 2024-03-13 20:38:46.934
16.0, -27.015167329926044, 212.90502467751503, 207.84494003746659, 35.985317373648286, 0.01600000075995922, -0.1600000075995922, 1.0560000501573086, 0.0, 0.0, 0.0, 0.0, 0.0, 1.7103875269353547E9, 0.0, 2024-03-13 20:38:46.935
16.0, -120.8529971181415, 244.84377029910684, 64.51701413560659, 121.61032685916871, 0.01600000075995922, -0.1600000075995922, 1.0560000501573086, 0.0, 0.0, 0.0, 0.0, 0.0, 1.7103875269353547E9, 0.0, 2024-03-13 20:38:46.935
17.0, -200.26042292732745, 355.7542433850467, -19.53536741854623, 185.17366650607437, 0.01600000075995922, -0.1600000075995922, 1.0560000501573086, 0.0, 0.0, 0.0, 0.0, 0.0, 1.7103875269489987E9, 0.0, 2024-03-13 20:38:46.948
17.0, -365.23114987276495, 443.5353051950224, -136.22024603607133, 243.73488996224478, 0.01600000075995922, -0.1600000075995922, 1.0560000501573086, 0.0, 0.0, 0.0, 0.0, 0.0, 1.7103875269489987E9, 0.0, 2024-03-13 20:38:46.948
18.0, -187.06044603371993, 576.15776747372, 18.789257377386093, 444.0532813388854, 0.01600000075995922, -0.1600000075995922, 1.0560000501573086, 0.0, 0.0, 0.0, 0.0, 0.0, 1.710387526964739E9, 0.0, 2024-03-13 20:38:46.964
18.0, -318.4076024275273, 713.7038080440834, -152.10360114788637, 562.5445316350088, 0.01600000075995922, -0.1600000075995922, 1.0560000501573086, 0.0, 0.0, 0.0, 0.0, 0.0, 1.710387526964739E9, 0.0, 2024-03-13 20:38:46.964
19.0, -242.64470912516117, 657.6127885086462, -22.157037287484854, 460.2545279469341, 0.01600000075995922, -0.1600000075995922, 1.0560000501573086, 0.0, 0.0, 0.0, 0.0, 0.0, 1.710387526965444E9, 0.0, 2024-03-13 20:38:46.965
19.0, -160.78390894504264, 566.3180906902999, 81.52981903403997, 415.4954052772373, 0.01600000075995922, -0.1600000075995922, 1.0560000501573086, 0.0, 0.0, 0.0, 0.0, 0.0, 1.710387526965444E9, 0.0, 2024-03-13 20:38:46.965
20.0, -2.4440246210433543, 489.019968456123, 192.462731519714, 361.69507446466014, 0.01600000075995922, -0.1600000075995922, 1.0400000493973494, 0.0, 0.0, 0.0, 0.0, 0.0, 1.7103875269789927E9, 0.0, 2024-03-13 20:38:46.978
20.0, -177.39841449819505, 333.1652476526797, 24.060646364931017, 143.6196380984038, 0.01600000075995922, -0.1600000075995922, 1.0400000493973494, 0.0, 0.0, 0.0, 0.0, 0.0, 1.7103875269789927E9, 0.0, 2024-03-13 20:38:46.978
21.0, -28.929996107239276, 217.74445522017777, 197.30590196233243, 35.91799917444587, 0.01600000075995922, -0.1600000075995922, 1.0400000493973494, 0.0, 0.0, 0.0, 0.0, 0.0, 1.7103875269948559E9, 0.0, 2024-03-13 20:38:46.994
21.0, -120.25087322527543, 250.0048322379589, 59.88327809050679, 120.70153116993606, 0.01600000075995922, -0.1600000075995922, 1.0400000493973494, 0.0, 0.0, 0.0, 0.0, 0.0, 1.7103875269948559E9, 0.0, 2024-03-13 20:38:46.994
22.0, -202.47444370109588, 354.96138459444046, -27.437776024919003, 177.57418979611248, 0.01600000075995922, -0.1600000075995922, 1.0400000493973494, 0.0, 0.0, 0.0, 0.0, 0.0, 1.7103875269953685E9, 0.0, 2024-03-13 20:38:46.995
22.0, -362.0297955106944, 438.8978292499669, -140.43137338617817, 243.88448596047238, 0.01600000075995922, -0.1600000075995922, 1.0400000493973494, 0.0, 0.0, 0.0, 0.0, 0.0, 1.7103875269953685E9, 0.0, 2024-03-13 20:38:46.995
23.0, -183.98250837018713, 574.2878174958751, 19.443739869631827, 436.6071405271068, 0.01600000075995922, -0.1600000075995922, 1.0400000493973494, 0.0, 0.0, 0.0, 0.0, 0.0, 1.7103875270093417E9, 0.0, 2024-03-13 20:38:47.009
23.0, -304.2595608951524, 725.8435233002529, -145.8617081218399, 574.8600221890956, 0.01600000075995922, -0.1600000075995922, 1.0400000493973494, 0.0, 0.0, 0.0, 0.0, 0.0, 1.7103875270093417E9, 0.0, 2024-03-13 20:38:47.009
24.0, -229.09505158569664, 674.1356665128842, -18.506894930731505, 473.09734439477324, 0.01600000075995922, -0.1600000075995922, 1.0400000493973494, 0.0, 0.0, 0.0, 0.0, 0.0, 1.7103875270248623E9, 0.0, 2024-03-13 20:38:47.024
24.0, -137.35717562260106, 579.0412303395569, 84.484339999035, 418.4200070425868, 0.01600000075995922, -0.1600000075995922, 1.0400000493973494, 0.0, 0.0, 0.0, 0.0, 0.0, 1.7103875270248623E9, 0.0, 2024-03-13 20:38:47.024
25.0, 23.724055368918926, 492.7785679115914, 186.52003049012274, 357.79435881087556, 0.01600000075995922, -0.1600000075995922, 1.0400000493973494, 0.0, 0.0, 0.0, 0.0, 0.0, 1.7103875270255947E9, 0.0, 2024-03-13 20:38:47.025
25.0, -169.30901089403778, 338.0420771948993, 20.545140406582505, 141.90302401874214, 0.01600000075995922, -0.1600000075995922, 1.0400000493973494, 0.0, 0.0, 0.0, 0.0, 0.0, 1.7103875270255947E9, 0.0, 2024-03-13 20:38:47.025
26.0, -22.078499388415366, 226.83989191241562, 203.44681768957525, 38.11332044843584, 0.01600000075995922, -0.1600000075995922, 1.0400000493973494, 0.0, 0.0, 0.0, 0.0, 0.0, 1.7103875270389876E9, 0.0, 2024-03-13 20:38:47.038
26.0, -123.7439397838898, 243.39642901625484, 60.86687177885324, 121.22885706368834, 0.01600000075995922, -0.1600000075995922, 1.0400000493973494, 0.0, 0.0, 0.0, 0.0, 0.0, 1.7103875270389876E9, 0.0, 2024-03-13 20:38:47.038
27.0, -210.52644830569625, 347.9154130779207, -26.947849130723625, 181.55344334896654, 0.01600000075995922, -0.1600000075995922, 1.0400000493973494, 0.0, 0.0, 0.0, 0.0, 0.0, 1.7103875270546875E9, 0.0, 2024-03-13 20:38:47.054
27.0, -376.23019564244896, 436.39957607956603, -139.5637165964581, 247.50096921762452, 0.01600000075995922, -0.1600000075995922, 1.0400000493973494, 0.0, 0.0, 0.0, 0.0, 0.0, 1.7103875270546875E9, 0.0, 2024-03-13 20:38:47.054
28.0, -191.17807588493451, 574.0783830983564, 21.30994994752109, 440.3993990821764, 0.01600000075995922, -0.1600000075995922, 1.0400000493973494, 0.0, 0.0, 0.0, 0.0, 0.0, 1.7103875270553625E9, 0.0, 2024-03-13 20:38:47.055
28.0, -321.2686258936301, 713.2924190489575, -155.21519791102037, 564.2349664149806, 0.01600000075995922, -0.1600000075995922, 1.0400000493973494, 0.0, 0.0, 0.0, 0.0, 0.0, 1.7103875270553625E9, 0.0, 2024-03-13 20:38:47.055
29.0, -213.6978834681213, 664.1837927307934, -28.918776407372206, 456.86243868712336, 0.01600000075995922, -0.1600000075995922, 1.0400000493973494, 0.0, 0.0, 0.0, 0.0, 0.0, 1.7103875270689883E9, 0.0, 2024-03-13 20:38:47.068
29.0, -153.63696012971923, 574.5683099925518, 75.26548660825938, 406.07085738889873, 0.01600000075995922, -0.1600000075995922, 1.0400000493973494, 0.0, 0.0, 0.0, 0.0, 0.0, 1.7103875270689883E9, 0.0, 2024-03-13 20:38:47.068
30.0, 16.6930434522219, 486.48431628616527, 182.35378193948418, 352.3004457759671, 0.01600000075995922, -0.1600000075995922, 1.0400000493973494, 0.0, 0.0, 0.0, 0.0, 0.0, 1.7103875270850534E9, 0.0, 2024-03-13 20:38:47.085
30.0, -169.30901089403778, 325.7415462406352, 17.97956903697923, 134.64387820474803, 0.01600000075995922, -0.1600000075995922, 1.0400000493973494, 0.0, 0.0, 0.0, 0.0, 0.0, 1.7103875270850534E9, 0.0, 2024-03-13 20:38:47.085
31.0, -19.258614821825176, 215.2536818496883, 206.47613665368408, 34.444478591904044, 0.01600000075995922, -0.1600000075995922, 1.0400000493973494, 0.0, 0.0, 0.0, 0.0, 0.0, 1.7103875270854795E9, 0.0, 2024-03-13 20:38:47.085
31.0, -112.86083091283217, 244.79141169972718, 67.97642159461975, 120.36868007387966, 0.01600000075995922, -0.1600000075995922, 1.0400000493973494, 0.0, 0.0, 0.0, 0.0, 0.0, 1.7103875270854795E9, 0.0, 2024-03-13 20:38:47.085
32.0, -188.8724275622517, 354.33682130184025, -21.326779497321695, 182.66419363580644, 0.01600000075995922, -0.1600000075995922, 1.0400000493973494, 0.0, 0.0, 0.0, 0.0, 0.0, 1.7103875270989828E9, 0.0, 2024-03-13 20:38:47.098
32.0, -345.9893646007404, 446.7890181564726, -133.29564427072182, 245.83297383738682, 0.01600000075995922, -0.1600000075995922, 1.0400000493973494, 0.0, 0.0, 0.0, 0.0, 0.0, 1.7103875270989828E9, 0.0, 2024-03-13 20:38:47.098
33.0, -183.5112809757702, 578.5812226450071, 26.13816079031676, 441.30071497149765, 0.01600000075995922, -0.1600000075995922, 1.0400000493973494, 0.0, 0.0, 0.0, 0.0, 0.0, 1.7103875271146033E9, 0.0, 2024-03-13 20:38:47.114
33.0, -319.99332000873983, 714.395689535886, -144.33582893991843, 568.4012149656191, 0.01600000075995922, -0.1600000075995922, 1.0400000493973494, 0.0, 0.0, 0.0, 0.0, 0.0, 1.7103875271146033E9, 0.0, 2024-03-13 20:38:47.114
34.0, -233.19398193713278, 669.8497411636636, -19.348372420761734, 471.50788691360503, 0.01600000075995922, -0.1600000075995922, 1.0400000493973494, 0.0, 0.0, 0.0, 0.0, 0.0, 1.7103875271153696E9, 0.0, 2024-03-13 20:38:47.115
34.0, -154.47469771979377, 574.4598528938368, 84.27116570156068, 416.77071116212755, 0.01600000075995922, -0.1600000075995922, 1.0400000493973494, 0.0, 0.0, 0.0, 0.0, 0.0, 1.7103875271153696E9, 0.0, 2024-03-13 20:38:47.115
35.0, 2.8703732159920037, 488.260768765118, 189.7961828513071, 362.35329685686156, 0.01600000075995922, -0.1600000075995922, 1.0400000493973494, 0.0, 0.0, 0.0, 0.0, 0.0, 1.710387527129159E9, 0.0, 2024-03-13 20:38:47.129
35.0, -181.09343565441668, 331.5608305716887, 33.13738355739042, 146.23382816743106, 0.01600000075995922, -0.1600000075995922, 1.0400000493973494, 0.0, 0.0, 0.0, 0.0, 0.0, 1.710387527129159E9, 0.0, 2024-03-13 20:38:47.129
36.0, -26.087672140914947, 213.79886076692492, 213.05836057569832, 41.56150820758194, 0.01600000075995922, -0.1600000075995922, 1.0400000493973494, 0.0, 0.0, 0.0, 0.0, 0.0, 1.7103875271446583E9, 0.0, 2024-03-13 20:38:47.144
36.0, -128.28417833009735, 242.75690612383187, 70.43353586550802, 124.983716619201, 0.01600000075995922, -0.1600000075995922, 1.0400000493973494, 0.0, 0.0, 0.0, 0.0, 0.0, 1.7103875271446583E9, 0.0, 2024-03-13 20:38:47.144
37.0, -213.33511317241937, 344.800076414831, -24.142924163956195, 179.96024596784264, 0.01600000075995922, -0.1600000075995922, 1.0400000493973494, 0.0, 0.0, 0.0, 0.0, 0.0, 1.7103875271455395E9, 0.0, 2024-03-13 20:38:47.145
37.0, -378.5077947154641, 430.4045164505951, -143.44199285050854, 242.67649827478454, 0.01600000075995922, -0.1600000075995922, 1.0400000493973494, 0.0, 0.0, 0.0, 0.0, 0.0, 1.7103875271455395E9, 0.0, 2024-03-13 20:38:47.145
38.0, -194.01665995130315, 569.5082253525034, 16.661254302598536, 434.9428850468248, 0.01600000075995922, -0.1600000075995922, 1.0400000493973494, 0.0, 0.0, 0.0, 0.0, 0.0, 1.7103875271594355E9, 0.0, 2024-03-13 20:38:47.159
38.0, -332.3462095623836, 702.154996980913, -159.54600205970928, 557.1590756988153, 0.01600000075995922, -0.1600000075995922, 1.0400000493973494, 0.0, 0.0, 0.0, 0.0, 0.0, 1.7103875271594355E9, 0.0, 2024-03-13 20:38:47.159
39.0, -242.20714083034545, 654.6283483440056, -24.101785264443606, 463.34742521028966, 0.01600000075995922, -0.1600000075995922, 1.0400000493973494, 0.0, 0.0, 0.0, 0.0, 0.0, 1.71038752717473E9, 0.0, 2024-03-13 20:38:47.174
39.0, -148.6815926884301, 560.0238390648738, 79.43921495880932, 409.69482044596225, 0.01600000075995922, -0.1600000075995922, 1.0400000493973494, 0.0, 0.0, 0.0, 0.0, 0.0, 1.71038752717473E9, 0.0, 2024-03-13 20:38:47.174
40.0, 13.203716793563217, 474.37452022964135, 181.32156955171376, 346.9262095396407, 0.01600000075995922, -0.1600000075995922, 1.0560000501573086, 0.0, 0.0, 0.0, 0.0, 0.0, 1.7103875271754513E9, 0.0, 2024-03-13 20:38:47.175
40.0, -162.2667792774737, 323.0114192729816, 20.907910702284425, 133.82484011445194, 0.01600000075995922, -0.1600000075995922, 1.0560000501573086, 0.0, 0.0, 0.0, 0.0, 0.0, 1.7103875271754513E9, 0.0, 2024-03-13 20:38:47.175
41.0, -19.90561751415953, 211.00141560006887, 204.4640704775229, 27.978191568516195, 0.01600000075995922, -0.1600000075995922, 1.0560000501573086, 0.0, 0.0, 0.0, 0.0, 0.0, 1.7103875271890109E9, 0.0, 2024-03-13 20:38:47.189
41.0, -137.17018062481657, 240.64386264886707, 63.27536735031754, 117.18602521158755, 0.01600000075995922, -0.1600000075995922, 1.0560000501573086, 0.0, 0.0, 0.0, 0.0, 0.0, 1.7103875271890109E9, 0.0, 2024-03-13 20:38:47.189
42.0, -202.48192350100726, 349.0261633647606, -26.70849553355947, 178.2361520882696, 0.01600000075995922, -0.1600000075995922, 1.0560000501573086, 0.0, 0.0, 0.0, 0.0, 0.0, 1.71038752720471E9, 0.0, 2024-03-13 20:38:47.204
42.0, -358.44323145318776, 441.24648642214015, -136.88594822818413, 246.21818353282288, 0.01600000075995922, -0.1600000075995922, 1.0560000501573086, 0.0, 0.0, 0.0, 0.0, 0.0, 1.71038752720471E9, 0.0, 2024-03-13 20:38:47.204
43.0, -178.11834523966536, 571.1687409328297, 21.968172339722514, 434.67361225001514, 0.01600000075995922, -0.1600000075995922, 1.0560000501573086, 0.0, 0.0, 0.0, 0.0, 0.0, 1.7103875272054324E9, 0.0, 2024-03-13 20:38:47.205
43.0, -337.237998704426, 699.2939735148102, -158.10614057676867, 554.701961427927, 0.01600000075995922, -0.1600000075995922, 1.0560000501573086, 0.0, 0.0, 0.0, 0.0, 0.0, 1.7103875272054324E9, 0.0, 2024-03-13 20:38:47.205
44.0, -259.51165792532265, 663.9070401340723, -17.51956134242937, 467.69318895880133, 0.01600000075995922, -0.1600000075995922, 1.0560000501573086, 0.0, 0.0, 0.0, 0.0, 0.0, 1.710387527219068E9, 0.0, 2024-03-13 20:38:47.219
44.0, -169.15006514592096, 563.5954435225576, 78.54537886939943, 410.0127119421959, 0.01600000075995922, -0.1600000075995922, 1.0560000501573086, 0.0, 0.0, 0.0, 0.0, 0.0, 1.710387527219068E9, 0.0, 2024-03-13 20:38:47.219
45.0, -13.285994592588395, 482.00765603920445, 189.1641397587955, 352.2705265763216, 0.01600000075995922, -0.1600000075995922, 1.0560000501573086, 0.0, 0.0, 0.0, 0.0, 0.0, 1.7103875272347524E9, 0.0, 2024-03-13 20:38:47.234
45.0, -167.1922275191173, 335.7495185220614, 21.640931093599647, 146.52554036397487, 0.01600000075995922, -0.1600000075995922, 1.0560000501573086, 0.0, 0.0, 0.0, 0.0, 0.0, 1.7103875272347524E9, 0.0, 2024-03-13 20:38:47.234
46.0, -5.783755281474441, 219.9210769943893, 195.71270458120853, 34.20512499473989, 0.01600000075995922, -0.1600000075995922, 1.0560000501573086, 0.0, 0.0, 0.0, 0.0, 0.0, 1.710387527235403E9, 0.0, 2024-03-13 20:38:47.235
46.0, -127.1173295439221, 234.45806812215596, 47.58274713624269, 112.34285476896912, 0.01600000075995922, -0.1600000075995922, 1.0560000501573086, 0.0, 0.0, 0.0, 0.0, 0.0, 1.710387527235403E9, 0.0, 2024-03-13 20:38:47.235
47.0, -198.84674074407667, 351.48327763564885, -34.588464740198106, 175.7453787177801, 0.01600000075995922, -0.1600000075995922, 1.0560000501573086, 0.0, 0.0, 0.0, 0.0, 0.0, 1.7103875272489755E9, 0.0, 2024-03-13 20:38:47.248
47.0, -362.6468790033832, 438.0376522601582, -147.00237760832533, 235.08450136473402, 0.01600000075995922, -0.1600000075995922, 1.0560000501573086, 0.0, 0.0, 0.0, 0.0, 0.0, 1.7103875272489755E9, 0.0, 2024-03-13 20:38:47.248
48.0, -177.13101165136322, 574.0559436986223, 18.06371678598225, 432.48577077593654, 0.01600000075995922, -0.1600000075995922, 1.0560000501573086, 0.0, 0.0, 0.0, 0.0, 0.0, 1.7103875272646918E9, 0.0, 2024-03-13 20:38:47.264
48.0, -328.9802996022627, 704.0586060583591, -162.25742952758446, 552.8881099494174, 0.01600000075995922, -0.1600000075995922, 1.0560000501573086, 0.0, 0.0, 0.0, 0.0, 0.0, 1.7103875272646918E9, 0.0, 2024-03-13 20:38:47.264
49.0, -239.65278916060925, 666.5212302030995, -24.39723736094311, 463.9532890031114, 0.01600000075995922, -0.1600000075995922, 1.0560000501573086, 0.0, 0.0, 0.0, 0.0, 0.0, 1.7103875272654655E9, 0.0, 2024-03-13 20:38:47.265
49.0, -132.6411617784761, 576.6177751682699, 79.36441695969552, 412.4099878137931, 0.01600000075995922, -0.1600000075995922, 1.0560000501573086, 0.0, 0.0, 0.0, 0.0, 0.0, 1.7103875272654655E9, 0.0, 2024-03-13 20:38:47.265
50.0, 20.964009201619774, 481.34195384709165, 186.14978039450943, 351.6721425834112, 0.01600000075995922, -0.1600000075995922, 1.0560000501573086, 0.0, 0.0, 0.0, 0.0, 0.0, 1.7103875272791026E9, 0.0, 2024-03-13 20:38:47.279
50.0, -160.29211210086942, 339.96438577212393, 24.79366675624624, 147.45303555298597, 0.01600000075995922, -0.1600000075995922, 1.0560000501573086, 0.0, 0.0, 0.0, 0.0, 0.0, 1.7103875272791026E9, 0.0, 2024-03-13 20:38:47.279
51.0, -3.9549442031420767, 230.83410506509244, 206.5023159533739, 45.656698659062386, 0.01600000075995922, -0.1600000075995922, 1.0560000501573086, 0.0, 0.0, 0.0, 0.0, 0.0, 1.710387527295106E9, 0.0, 2024-03-13 20:38:47.295
51.0, -110.58697173977271, 240.68126164842397, 60.42556358408183, 117.59741420671344, 0.01600000075995922, -0.1600000075995922, 1.0560000501573086, 0.0, 0.0, 0.0, 0.0, 0.0, 1.710387527295106E9, 0.0, 2024-03-13 20:38:47.295
52.0, -196.1278334762901, 347.33198868483305, -29.63309729890898, 179.1636472772807, 0.01600000075995922, -0.1600000075995922, 1.0560000501573086, 0.0, 0.0, 0.0, 0.0, 0.0, 1.7103875272955332E9, 0.0, 2024-03-13 20:38:47.295
52.0, -350.45106524787843, 444.54133828310296, -137.07294322596863, 256.16631741495803, 0.01600000075995922, -0.1600000075995922, 1.0560000501573086, 0.0, 0.0, 0.0, 0.0, 0.0, 1.7103875272955332E9, 0.0, 2024-03-13 20:38:47.295
53.0, -179.6928431210108, 571.2697182316333, 22.435659834183753, 443.5109958453104, 0.01600000075995922, -0.1600000075995922, 1.0560000501573086, 0.0, 0.0, 0.0, 0.0, 0.0, 1.7103875273256245E9, 0.0, 2024-03-13 20:38:47.325
53.0, -320.13917610701174, 698.6469708224759, -157.836867779959, 561.6918344451115, 0.01600000075995922, -0.1600000075995922, 1.0560000501573086, 0.0, 0.0, 0.0, 0.0, 0.0, 1.7103875273256245E9, 0.0, 2024-03-13 20:38:47.325
54.0, -224.7343282373622, 667.2729500941932, -22.542246982920915, 475.1094105709344, 0.01600000075995922, -0.1600000075995922, 1.0560000501573086, 0.0, 0.0, 0.0, 0.0, 0.0, 1.7103875273262527E9, 0.0, 2024-03-13 20:38:47.326
54.0, -134.57095015561208, 574.4523730939254, 78.02927267551422, 416.69965306296945, 0.01600000075995922, -0.1600000075995922, 1.0560000501573086, 0.0, 0.0, 0.0, 0.0, 0.0, 1.7103875273262527E9, 0.0, 2024-03-13 20:38:47.326
55.0, 13.005502095911652, 477.96108428714797, 174.20827983599156, 351.3692106870003, 0.01600000075995922, -0.1600000075995922, 1.0560000501573086, 0.0, 0.0, 0.0, 0.0, 0.0, 1.7103875273270383E9, 0.0, 2024-03-13 20:38:47.327
55.0, -171.25001897104084, 331.73660586960614, 21.88402459071949, 146.76489396113902, 0.01600000075995922, -0.1600000075995922, 1.0560000501573086, 0.0, 0.0, 0.0, 0.0, 0.0, 1.7103875273270383E9, 0.0, 2024-03-13 20:38:47.327
56.0, -14.067633683327585, 221.37215817719698, 215.45937634725124, 43.311781386844814, 0.01600000075995922, -0.1600000075995922, 1.0560000501573086, 0.0, 0.0, 0.0, 0.0, 0.0, 1.7103875273391955E9, 0.0, 2024-03-13 20:38:47.339
56.0, -130.4533203043975, 233.72504773084074, 66.02793371770531, 115.81348192784935, 0.01600000075995922, -0.1600000075995922, 1.0560000501573086, 0.0, 0.0, 0.0, 0.0, 0.0, 1.7103875273391955E9, 0.0, 2024-03-13 20:38:47.339
57.0, -222.63998426217586, 346.25863739755005, -18.084286235738546, 181.80027674604207, 0.01600000075995922, -0.1600000075995922, 1.0560000501573086, 0.0, 0.0, 0.0, 0.0, 0.0, 1.7103875273546777E9, 0.0, 2024-03-13 20:38:47.354
57.0, -370.1079794149846, 442.3871559086256, -130.43462080461904, 248.89595190109685, 0.01600000075995922, -0.1600000075995922, 1.0560000501573086, 0.0, 0.0, 0.0, 0.0, 0.0, 1.7103875273546777E9, 0.0, 2024-03-13 20:38:47.354
58.0, -183.4364829766564, 575.7014996791258, 28.845848358236253, 440.67615167889744, 0.01600000075995922, -0.1600000075995922, 1.0560000501573086, 0.0, 0.0, 0.0, 0.0, 0.0, 1.7103875273553715E9, 0.0, 2024-03-13 20:38:47.355
58.0, -326.06691753678024, 705.3413917431608, -150.3121890691109, 563.0681176288053, 0.01600000075995922, -0.1600000075995922, 1.0560000501573086, 0.0, 0.0, 0.0, 0.0, 0.0, 1.7103875273553715E9, 0.0, 2024-03-13 20:38:47.355
59.0, -224.1770831439644, 672.0525422375649, -15.49627546640113, 478.20978763420135, 0.01600000075995922, -0.1600000075995922, 1.0560000501573086, 0.0, 0.0, 0.0, 0.0, 0.0, 1.7103875273689847E9, 0.0, 2024-03-13 20:38:47.368
59.0, -141.06341647868976, 570.0243315463886, 81.16330883838236, 418.0460170470178, 0.01600000075995922, -0.1600000075995922, 1.0560000501573086, 0.0, 0.0, 0.0, 0.0, 0.0, 1.7103875273689847E9, 0.0, 2024-03-13 20:38:47.368
60.0, 3.5659946077503264, 475.8405610122718, 179.76577117014676, 352.09475127840415, 0.01600000075995922, -0.1600000075995922, 1.0560000501573086, 0.0, 0.0, 0.0, 0.0, 0.0, 1.710387527384722E9, 0.0, 2024-03-13 20:38:47.384
60.0, -176.37368191033602, 333.51305834855884, 22.108418588060886, 144.1432240922004, 0.01600000075995922, -0.1600000075995922, 1.0560000501573086, 0.0, 0.0, 0.0, 0.0, 0.0, 1.710387527384722E9, 0.0, 2024-03-13 20:38:47.384
61.0, -31.20385528029874, 218.31292001344264, 208.41714473068714, 39.73643702920526, 0.01600000075995922, -0.1600000075995922, 1.0560000501573086, 0.0, 0.0, 0.0, 0.0, 0.0, 1.7103875273855045E9, 0.0, 2024-03-13 20:38:47.385
61.0, -132.55514407949522, 231.61574415583163, 56.580946429632604, 112.52610986679792, 0.01600000075995922, -0.1600000075995922, 1.0560000501573086, 0.0, 0.0, 0.0, 0.0, 0.0, 1.7103875273855045E9, 0.0, 2024-03-13 20:38:47.385
62.0, -188.80510936304927, 348.33802177291363, -31.52174677653238, 179.51519787311554, 0.01600000075995922, -0.1600000075995922, 1.0560000501573086, 0.0, 0.0, 0.0, 0.0, 0.0, 1.710387527399064E9, 0.0, 2024-03-13 20:38:47.399
62.0, -335.7457786221057, 459.0895491107367, -135.63308174302801, 259.7341819726862, 0.01600000075995922, -0.1600000075995922, 1.0560000501573086, 0.0, 0.0, 0.0, 0.0, 0.0, 1.710387527399064E9, 0.0, 2024-03-13 20:38:47.399
63.0, -189.8541513006203, 577.290957160294, 18.770557877607644, 442.1347126616165, 0.01600000075995922, -0.1600000075995922, 1.0560000501573086, 0.0, 0.0, 0.0, 0.0, 0.0, 1.7103875274151523E9, 0.0, 2024-03-13 20:38:47.415
63.0, -329.84421649202704, 712.8698103539646, -159.5721813593991, 562.2976982379332, 0.01600000075995922, -0.1600000075995922, 1.0560000501573086, 0.0, 0.0, 0.0, 0.0, 0.0, 1.7103875274151523E9, 0.0, 2024-03-13 20:38:47.415
64.0, -239.72384725976735, 672.1834387360141, -24.973181954119354, 470.10168453026563, 0.01600000075995922, -0.1600000075995922, 1.0560000501573086, 0.0, 0.0, 0.0, 0.0, 0.0, 1.7103875274156857E9, 0.0, 2024-03-13 20:38:47.415
64.0, -146.9761983086355, 572.406647818163, 78.98294716421515, 414.051803894341, 0.01600000075995922, -0.1600000075995922, 1.0560000501573086, 0.0, 0.0, 0.0, 0.0, 0.0, 1.7103875274156857E9, 0.0, 2024-03-13 20:38:47.415
65.0, 10.709203523118049, 479.3186679710634, 184.03299701958895, 350.8979832925834, 0.01600000075995922, -0.1600000075995922, 1.0560000501573086, 0.0, 0.0, 0.0, 0.0, 0.0, 1.7103875274290547E9, 0.0, 2024-03-13 20:38:47.429
65.0, -178.32964958716184, 327.3497032215819, 17.414844143670052, 142.22839531488717, 0.01600000075995922, -0.1600000075995922, 1.0560000501573086, 0.0, 0.0, 0.0, 0.0, 0.0, 1.7103875274290547E9, 0.0, 2024-03-13 20:38:47.429
66.0, -24.842285455670208, 217.71827592048794, 208.19649063330144, 39.987010326236486, 0.01600000075995922, -0.1600000075995922, 1.0560000501573086, 0.0, 0.0, 0.0, 0.0, 0.0, 1.7103875274446588E9, 0.0, 2024-03-13 20:38:47.444
66.0, -129.39866851689294, 235.9615079043433, 55.22336274571717, 110.47664469107985, 0.01600000075995922, -0.1600000075995922, 1.0560000501573086, 0.0, 0.0, 0.0, 0.0, 0.0, 1.7103875274446588E9, 0.0, 2024-03-13 20:38:47.444
67.0, -197.21240446344018, 357.620453462936, -22.927456678356975, 184.3508885158226, 0.01600000075995922, -0.1600000075995922, 1.0560000501573086, 0.0, 0.0, 0.0, 0.0, 0.0, 1.71038752744571E9, 0.0, 2024-03-13 20:38:47.445
67.0, -354.0189298056066, 453.43482037773356, -135.51340494444594, 256.12143861548975, 0.01600000075995922, -0.1600000075995922, 1.0560000501573086, 0.0, 0.0, 0.0, 0.0, 0.0, 1.71038752744571E9, 0.0, 2024-03-13 20:38:47.445
68.0, -180.45204281201586, 577.6387678561732, 24.1597537137568, 442.9088719524443, 0.01600000075995922, -0.1600000075995922, 1.0560000501573086, 0.0, 0.0, 0.0, 0.0, 0.0, 1.7103875274593985E9, 0.0, 2024-03-13 20:38:47.459
