%OpenBCI Raw EXG Data
%Number of channels = 4
%Sample Rate = 200 Hz
%Board = OpenBCI_GUI$BoardGanglionBLE
Sample Index, EXG Channel 0, EXG Channel 1, EXG Channel 2, EXG Channel 3, Accel Channel 0, Accel Channel 1, Accel Channel 2, Other, Other, Other, Other, Other, Timestamp, Other, Timestamp (Formatted)
0.0, 182.3593917894177, 57.102662473451346, -92.82805680017918, 35.781492826063186, 0.0, 0.0, 0.0, 0.0, 0.0, 0.0, 0.0, 0.0, 1.7103913363419092E9, 0.0, 2024-03-13 21:42:16.341
1.0, 188.93787581147626, 62.5292573091574, -116.74845691677183, 38.93422848870978, 0.0, 0.8320000395178795, 0.0, 0.0, 0.0, 0.0, 0.0, 0.0, 1.7103913363552985E9, 0.0, 2024-03-13 21:42:16.355
1.0, 192.61045756796375, 70.0875951196067, -100.20687941275537, 48.23535967851058, 0.0, 0.8320000395178795, 0.0, 0.0, 0.0, 0.0, 0.0, 0.0, 1.7103913363552985E9, 0.0, 2024-03-13 21:42:16.355
2.0, 187.34093853039667, 63.176260001491755, -90.09045003261417, 44.615136521402746, 0.5440000258386135, 0.8320000395178795, 0.0, 0.0, 0.0, 0.0, 0.0, 0.0, 1.7103913363720458E9, 0.0, 2024-03-13 21:42:16.372
2.0, 191.46604818152264, 64.51888408558443, -108.03822991997004, 39.63732968037948, 0.5440000258386135, 0.8320000395178795, 0.0, 0.0, 0.0, 0.0, 0.0, 0.0, 1.7103913363720458E9, 0.0, 2024-03-13 21:42:16.372
3.0, 198.60177729697898, 73.05707568442449, -107.09203523118049, 51.515251939650625, 0.5440000258386135, 0.8320000395178795, 0.0, 0.0, 0.0, 0.0, 0.0, 0.0, 1.7103913363728063E9, 0.0, 2024-03-13 21:42:16.372
3.0, 196.58223132090643, 74.85222766315565, -83.94579440541565, 54.11448240885511, 0.5440000258386135, 0.8320000395178795, 0.0, 0.0, 0.0, 0.0, 0.0, 0.0, 1.7103913363728063E9, 0.0, 2024-03-13 21:42:16.372
4.0, 193.17518246127293, 70.95151200937107, -91.72852621320635, 48.23535967851058, 0.5440000258386135, 0.8320000395178795, 0.0, 0.0, 0.0, 0.0, 0.0, 0.0, 1.710391336385142E9, 0.0, 2024-03-13 21:42:16.385
4.0, 194.12885694997385, 66.00362436799332, -103.15018067788333, 50.44564055232331, 0.5440000258386135, 0.8320000395178795, 0.0, 0.0, 0.0, 0.0, 0.0, 0.0, 1.710391336385142E9, 0.0, 2024-03-13 21:42:16.385
5.0, 196.7056480194442, 77.02136963745579, -81.72803373169154, 60.24791833618656, 0.5440000258386135, 0.8320000395178795, 0.0, 0.0, 0.0, 0.0, 0.0, 0.0, 1.710391336401019E9, 0.0, 2024-03-13 21:42:16.401
5.0, 191.53710628068075, 70.4989841147326, -79.59629075694829, 52.330550129991025, 0.5440000258386135, 0.8320000395178795, 0.0, 0.0, 0.0, 0.0, 0.0, 0.0, 1.710391336401019E9, 0.0, 2024-03-13 21:42:16.401
6.0, 193.0742051624693, 72.26421689381823, -100.82022300548851, 51.7097267373465, 0.5440000258386135, 0.8320000395178795, 0.0, 0.0, 0.0, 0.0, 0.0, 0.0, 1.7103913364016588E9, 0.0, 2024-03-13 21:42:16.401
6.0, 200.80831827083603, 81.84584058029577, -84.62645619735122, 62.334782511461526, 0.5440000258386135, 0.8320000395178795, 0.0, 0.0, 0.0, 0.0, 0.0, 0.0, 1.7103913364016588E9, 0.0, 2024-03-13 21:42:16.401
7.0, 199.75366648333147, 83.14732576487586, -66.71233540959656, 61.598022220190614, 0.5440000258386135, 0.8320000395178795, 0.0, 0.0, 0.0, 0.0, 0.0, 0.0, 1.7103913364155233E9, 0.0, 2024-03-13 21:42:16.415
7.0, 208.87154257530347, 87.59780671214685, -81.33160433638841, 74.14912647148594, 0.5440000258386135, 0.8320000395178795, 0.0, 0.0, 0.0, 0.0, 0.0, 0.0, 1.7103913364155233E9, 0.0, 2024-03-13 21:42:16.415
8.0, 207.11004969617352, 87.69878401095048, -87.69691406097263, 69.65002682479098, 0.5440000258386135, 0.8320000395178795, 0.0, 0.0, 0.0, 0.0, 0.0, 0.0, 1.7103913364312196E9, 0.0, 2024-03-13 21:42:16.431
8.0, 191.48848758125678, 74.28376286989078, -78.76603296678513, 55.090596297290176, 0.5440000258386135, 0.8320000395178795, 0.0, 0.0, 0.0, 0.0, 0.0, 0.0, 1.7103913364312196E9, 0.0, 2024-03-13 21:42:16.431
9.0, 194.61504394421354, 72.12958049541339, -85.58761048596352, 49.60042316233739, 0.5440000258386135, 0.8320000395178795, 0.0, 0.0, 0.0, 0.0, 0.0, 0.0, 1.7103913364315464E9, 0.0, 2024-03-13 21:42:16.431
9.0, 195.99506702786312, 75.43565205624327, -106.98357813246548, 54.83254320034757, 0.5440000258386135, 0.8320000395178795, 0.0, 0.0, 0.0, 0.0, 0.0, 0.0, 1.7103913364315464E9, 0.0, 2024-03-13 21:42:16.431
10.0, 195.72953413100913, 76.11257394822314, -85.57639078609645, 56.65013457881287, 0.5440000258386135, 0.8320000395178795, 0.33600001595914364, 0.0, 0.0, 0.0, 0.0, 0.0, 1.7103913364454367E9, 0.0, 2024-03-13 21:42:16.445
10.0, 185.6991224498488, 67.89227384561673, -85.57639078609645, 43.68764133239165, 0.5440000258386135, 0.8320000395178795, 0.33600001595914364, 0.0, 0.0, 0.0, 0.0, 0.0, 1.7103913364454367E9, 0.0, 2024-03-13 21:42:16.445
11.0, 184.2181220673956, 59.01375135080889, -114.96452463790774, 38.601377392653376, 0.5440000258386135, 0.8320000395178795, 0.33600001595914364, 0.0, 0.0, 0.0, 0.0, 0.0, 1.7103913364608796E9, 0.0, 2024-03-13 21:42:16.460
11.0, 193.6314502558671, 70.68971901247278, -94.19686018396169, 53.474959516432136, 0.5440000258386135, 0.8320000395178795, 0.33600001595914364, 0.0, 0.0, 0.0, 0.0, 0.0, 1.7103913364608796E9, 0.0, 2024-03-13 21:42:16.460
12.0, 183.6571370740421, 64.7133588832803, -82.53211222216487, 45.535151910502464, 0.5440000258386135, 0.8320000395178795, 0.33600001595914364, 0.0, 0.0, 0.0, 0.0, 0.0, 1.7103913364615371E9, 0.0, 2024-03-13 21:42:16.461
12.0, 188.58258531568572, 65.74931117100641, -96.26502485945821, 47.82771058334038, 0.5440000258386135, 0.8320000395178795, 0.33600001595914364, 0.0, 0.0, 0.0, 0.0, 0.0, 1.7103913364615371E9, 0.0, 2024-03-13 21:42:16.461
13.0, 192.4459019699134, 72.47365129133686, -106.80032303463668, 51.500292339827865, 0.5440000258386135, 0.8320000395178795, 0.33600001595914364, 0.0, 0.0, 0.0, 0.0, 0.0, 1.710391336475173E9, 0.0, 2024-03-13 21:42:16.475
13.0, 188.01412052242085, 71.22078480618075, -83.75505950767547, 52.300630930345505, 0.5440000258386135, 0.8320000395178795, 0.33600001595914364, 0.0, 0.0, 0.0, 0.0, 0.0, 1.710391336475173E9, 0.0, 2024-03-13 21:42:16.475
14.0, 179.52080772304907, 56.302323882933706, -94.28287788294256, 37.64396300399676, 0.5440000258386135, 0.8320000395178795, 0.33600001595914364, 0.0, 0.0, 0.0, 0.0, 0.0, 1.7103913364908826E9, 0.0, 2024-03-13 21:42:16.490
14.0, 183.97502857027575, 58.94269325165078, -112.85522106289864, 48.99455936951563, 0.5440000258386135, 0.8320000395178795, 0.33600001595914364, 0.0, 0.0, 0.0, 0.0, 0.0, 1.7103913364908826E9, 0.0, 2024-03-13 21:42:16.490
15.0, 193.1490031615831, 74.14912647148594, -84.35718340054154, 56.291104183066636, 0.5440000258386135, 0.8320000395178795, 0.33600001595914364, 0.0, 0.0, 0.0, 0.0, 0.0, 1.7103913364919002E9, 0.0, 2024-03-13 21:42:16.491
15.0, 188.50778731657192, 70.4241861156188, -80.97257394064218, 48.38495567673817, 0.5440000258386135, 0.8320000395178795, 0.33600001595914364, 0.0, 0.0, 0.0, 0.0, 0.0, 1.7103913364919002E9, 0.0, 2024-03-13 21:42:16.491
16.0, 193.01062686322257, 72.14827999519184, -98.10505563765764, 53.64699491439387, 0.5440000258386135, 0.8320000395178795, 0.33600001595914364, 0.0, 0.0, 0.0, 0.0, 0.0, 1.7103913365051956E9, 0.0, 2024-03-13 21:42:16.505
16.0, 199.17772189015523, 81.5017697843723, -86.0027393810451, 59.556036844383925, 0.5440000258386135, 0.8320000395178795, 0.33600001595914364, 0.0, 0.0, 0.0, 0.0, 0.0, 1.7103913365051956E9, 0.0, 2024-03-13 21:42:16.505
17.0, 194.93293544044718, 76.82315493980423, -73.28707953169942, 55.38230849383399, 0.5440000258386135, 0.8320000395178795, 0.33600001595914364, 0.0, 0.0, 0.0, 0.0, 0.0, 1.7103913365208237E9, 0.0, 2024-03-13 21:42:16.520
17.0, 192.73387426650152, 69.83702182257548, -94.68304717820138, 54.8961214995943, 0.5440000258386135, 0.8320000395178795, 0.33600001595914364, 0.0, 0.0, 0.0, 0.0, 0.0, 1.7103913365208237E9, 0.0, 2024-03-13 21:42:16.520
18.0, 196.4849939220585, 77.46641773218289, -96.75869165360928, 55.8610156881623, 0.5440000258386135, 0.8320000395178795, 0.33600001595914364, 0.0, 0.0, 0.0, 0.0, 0.0, 1.7103913365215335E9, 0.0, 2024-03-13 21:42:16.521
18.0, 195.0750516387634, 81.69250468211249, -82.31145812477916, 57.33827617065981, 0.5440000258386135, 0.8320000395178795, 0.33600001595914364, 0.0, 0.0, 0.0, 0.0, 0.0, 1.7103913365215335E9, 0.0, 2024-03-13 21:42:16.521
19.0, 185.09699855698273, 66.10834156675264, -91.62754891440272, 47.042331592645496, 0.5440000258386135, 0.8320000395178795, 0.33600001595914364, 0.0, 0.0, 0.0, 0.0, 0.0, 1.7103913365351598E9, 0.0, 2024-03-13 21:42:16.535
19.0, 188.05899932188913, 69.14140043081716, -105.85412834584713, 45.520192310679704, 0.5440000258386135, 0.8320000395178795, 0.33600001595914364, 0.0, 0.0, 0.0, 0.0, 0.0, 1.7103913365351598E9, 0.0, 2024-03-13 21:42:16.535
20.0, 192.41224287031218, 76.6847786414437, -79.0390456635505, 58.01519806263968, 0.5440000258386135, 0.8320000395178795, 0.35200001671910286, 0.0, 0.0, 0.0, 0.0, 0.0, 1.7103913365509057E9, 0.0, 2024-03-13 21:42:16.550
20.0, 189.75317400181666, 74.72507106466219, -77.15413608588278, 52.285671330522746, 0.5440000258386135, 0.8320000395178795, 0.35200001671910286, 0.0, 0.0, 0.0, 0.0, 0.0, 1.7103913365509057E9, 0.0, 2024-03-13 21:42:16.550
21.0, 194.61878384416923, 72.5708886901848, -98.8231164291501, 56.65761437872425, 0.5440000258386135, 0.8320000395178795, 0.35200001671910286, 0.0, 0.0, 0.0, 0.0, 0.0, 1.710391336551788E9, 0.0, 2024-03-13 21:42:16.551
21.0, 197.1469562142156, 82.94163126731291, -85.1163830915466, 63.0491034029983, 0.5440000258386135, 0.8320000395178795, 0.35200001671910286, 0.0, 0.0, 0.0, 0.0, 0.0, 1.710391336551788E9, 0.0, 2024-03-13 21:42:16.551
22.0, 192.28882617177442, 77.65341272996739, -72.80089253745973, 51.42175444075838, 0.5440000258386135, 0.8320000395178795, 0.35200001671910286, 0.0, 0.0, 0.0, 0.0, 0.0, 1.710391336565493E9, 0.0, 2024-03-13 21:42:16.565
22.0, 191.5932047800161, 73.01219688495621, -94.18938038405031, 51.20484024332836, 0.5440000258386135, 0.8320000395178795, 0.35200001671910286, 0.0, 0.0, 0.0, 0.0, 0.0, 1.710391336565493E9, 0.0, 2024-03-13 21:42:16.565
23.0, 190.6993686906062, 75.19629845907912, -91.62380901444703, 58.25081175984815, 0.5440000258386135, 0.8320000395178795, 0.35200001671910286, 0.0, 0.0, 0.0, 0.0, 0.0, 1.710391336580816E9, 0.0, 2024-03-13 21:42:16.580
23.0, 188.9266561116092, 74.55303566670045, -77.4084492828697, 59.155867549125105, 0.5440000258386135, 0.8320000395178795, 0.35200001671910286, 0.0, 0.0, 0.0, 0.0, 0.0, 1.710391336580816E9, 0.0, 2024-03-13 21:42:16.580
24.0, 187.31849913066253, 68.28122344100848, -87.61837616190314, 48.38869557669386, 0.5440000258386135, 0.8320000395178795, 0.35200001671910286, 0.0, 0.0, 0.0, 0.0, 0.0, 1.7103913365814977E9, 0.0, 2024-03-13 21:42:16.581
24.0, 193.54169265693054, 76.08265474857762, -97.86944194044918, 54.91856089932844, 0.5440000258386135, 0.8320000395178795, 0.35200001671910286, 0.0, 0.0, 0.0, 0.0, 0.0, 1.7103913365814977E9, 0.0, 2024-03-13 21:42:16.581
25.0, 196.8477642177604, 80.30874169850722, -74.39408991858363, 60.22547893645242, 0.5440000258386135, 0.8320000395178795, 0.35200001671910286, 0.0, 0.0, 0.0, 0.0, 0.0, 1.710391336611502E9, 0.0, 2024-03-13 21:42:16.611
25.0, 195.1124506383203, 75.77224305225536, -77.00454008765519, 52.66340122604743, 0.5440000258386135, 0.8320000395178795, 0.35200001671910286, 0.0, 0.0, 0.0, 0.0, 0.0, 1.710391336611502E9, 0.0, 2024-03-13 21:42:16.611
26.0, 196.45881462236866, 80.49199679633602, -98.8979144282639, 55.27011149516329, 0.5440000258386135, 0.8320000395178795, 0.35200001671910286, 0.0, 0.0, 0.0, 0.0, 0.0, 1.7103913366124911E9, 0.0, 2024-03-13 21:42:16.612
26.0, 201.10003046737984, 88.32708720350638, -86.69462087284774, 62.24128501256928, 0.5440000258386135, 0.8320000395178795, 0.35200001671910286, 0.0, 0.0, 0.0, 0.0, 0.0, 1.7103913366124911E9, 0.0, 2024-03-13 21:42:16.612
27.0, 202.24817975377664, 84.59466704772785, -66.18874941579998, 62.028110715094954, 0.5440000258386135, 0.8320000395178795, 0.35200001671910286, 0.0, 0.0, 0.0, 0.0, 0.0, 1.7103913366131897E9, 0.0, 2024-03-13 21:42:16.613
27.0, 192.34118477115408, 73.52830307884142, -88.49725265149027, 54.59318960318342, 0.5440000258386135, 0.8320000395178795, 0.35200001671910286, 0.0, 0.0, 0.0, 0.0, 0.0, 1.7103913366131897E9, 0.0, 2024-03-13 21:42:16.613
28.0, 200.75595967145637, 88.14383210567757, -85.4118351880461, 67.06201605545357, 0.5440000258386135, 0.8320000395178795, 0.35200001671910286, 0.0, 0.0, 0.0, 0.0, 0.0, 1.7103913366251488E9, 0.0, 2024-03-13 21:42:16.625
28.0, 207.67851448943838, 96.33047310868278, -57.343886020593345, 70.83931501070037, 0.5440000258386135, 0.8320000395178795, 0.35200001671910286, 0.0, 0.0, 0.0, 0.0, 0.0, 1.7103913366251488E9, 0.0, 2024-03-13 21:42:16.625
29.0, 202.02752565639094, 80.01328960200772, -72.59893793985248, 61.28013072395697, 0.5440000258386135, 0.8320000395178795, 0.35200001671910286, 0.0, 0.0, 0.0, 0.0, 0.0, 1.7103913366411245E9, 0.0, 2024-03-13 21:42:16.641
29.0, 202.42395505169407, 83.62977285915986, -93.50123879220337, 62.18892641318962, 0.5440000258386135, 0.8320000395178795, 0.35200001671910286, 0.0, 0.0, 0.0, 0.0, 0.0, 1.7103913366411245E9, 0.0, 2024-03-13 21:42:16.641
30.0, 200.92051526950672, 88.22610990470275, -70.88980366010219, 71.41151970392093, 0.5440000258386135, 0.8320000395178795, 0.33600001595914364, 0.0, 0.0, 0.0, 0.0, 0.0, 1.7103913366417468E9, 0.0, 2024-03-13 21:42:16.641
30.0, 202.89892234606668, 87.97927650762722, -58.62667170539498, 69.36953432811424, 0.5440000258386135, 0.8320000395178795, 0.33600001595914364, 0.0, 0.0, 0.0, 0.0, 0.0, 1.7103913366417468E9, 0.0, 2024-03-13 21:42:16.641
31.0, 198.09689080296084, 76.70347814122215, -90.49809912778437, 57.514051468577236, 0.5440000258386135, 0.8320000395178795, 0.33600001595914364, 0.0, 0.0, 0.0, 0.0, 0.0, 1.7103913366552775E9, 0.0, 2024-03-13 21:42:16.655
31.0, 205.20270071877167, 91.58827996486798, -75.87509030103683, 67.31632925244048, 0.5440000258386135, 0.8320000395178795, 0.33600001595914364, 0.0, 0.0, 0.0, 0.0, 0.0, 1.7103913366552775E9, 0.0, 2024-03-13 21:42:16.655
32.0, 206.1563752074726, 88.7272564987652, -61.371758272871375, 66.48607146227732, 0.5440000258386135, 0.8320000395178795, 0.33600001595914364, 0.0, 0.0, 0.0, 0.0, 0.0, 1.7103913366871448E9, 0.0, 2024-03-13 21:42:16.687
32.0, 199.6676487843506, 83.05382826598361, -83.25017301365733, 59.137168049346656, 0.5440000258386135, 0.8320000395178795, 0.33600001595914364, 0.0, 0.0, 0.0, 0.0, 0.0, 1.7103913366871448E9, 0.0, 2024-03-13 21:42:16.687
33.0, 209.3390300697647, 90.06988058285788, -80.76313954312354, 68.48317803861573, 0.5440000258386135, 0.8320000395178795, 0.33600001595914364, 0.0, 0.0, 0.0, 0.0, 0.0, 1.710391336687987E9, 0.0, 2024-03-13 21:42:16.687
33.0, 207.6336356899701, 91.93983056070283, -60.85565207898617, 70.41670631570742, 0.5440000258386135, 0.8320000395178795, 0.33600001595914364, 0.0, 0.0, 0.0, 0.0, 0.0, 1.710391336687987E9, 0.0, 2024-03-13 21:42:16.687
34.0, 194.10267765028402, 77.93390522664413, -77.31495178397745, 55.74133888958022, 0.5440000258386135, 0.8320000395178795, 0.33600001595914364, 0.0, 0.0, 0.0, 0.0, 0.0, 1.7103913366889627E9, 0.0, 2024-03-13 21:42:16.688
34.0, 198.50079999817535, 78.03114262549207, -93.28432459477335, 54.95969979884103, 0.5440000258386135, 0.8320000395178795, 0.33600001595914364, 0.0, 0.0, 0.0, 0.0, 0.0, 1.7103913366889627E9, 0.0, 2024-03-13 21:42:16.688
35.0, 190.54229289246723, 81.8346208804287, -74.98125421162695, 59.215705948416144, 0.5440000258386135, 0.8320000395178795, 0.33600001595914364, 0.0, 0.0, 0.0, 0.0, 0.0, 1.7103913366893888E9, 0.0, 2024-03-13 21:42:16.689
35.0, 188.98275461094454, 71.66583290090784, -72.85699103679508, 53.942447010893375, 0.5440000258386135, 0.8320000395178795, 0.33600001595914364, 0.0, 0.0, 0.0, 0.0, 0.0, 1.7103913366893888E9, 0.0, 2024-03-13 21:42:16.689
36.0, 188.7733202134259, 71.66209300095215, -98.40050773415715, 53.542277715634555, 0.5440000258386135, 0.8320000395178795, 0.33600001595914364, 0.0, 0.0, 0.0, 0.0, 0.0, 1.710391336700151E9, 0.0, 2024-03-13 21:42:16.700
36.0, 200.58766417345032, 77.28690253430977, -84.13278940320015, 60.55459013255313, 0.5440000258386135, 0.8320000395178795, 0.33600001595914364, 0.0, 0.0, 0.0, 0.0, 0.0, 1.710391336700151E9, 0.0, 2024-03-13 21:42:16.700
37.0, 196.47003432223573, 73.62928037764505, -72.45308184158057, 54.42115420522168, 0.5440000258386135, 0.8320000395178795, 0.33600001595914364, 0.0, 0.0, 0.0, 0.0, 0.0, 1.710391336715196E9, 0.0, 2024-03-13 21:42:16.715
37.0, 188.82193891284987, 62.12908801389858, -101.71031919494271, 40.41522887116298, 0.5440000258386135, 0.8320000395178795, 0.33600001595914364, 0.0, 0.0, 0.0, 0.0, 0.0, 1.710391336715196E9, 0.0, 2024-03-13 21:42:16.715
38.0, 193.2612001602538, 67.73519804747775, -106.10470164287835, 40.02253937581554, 0.5440000258386135, 0.8320000395178795, 0.33600001595914364, 0.0, 0.0, 0.0, 0.0, 0.0, 1.7103913367308323E9, 0.0, 2024-03-13 21:42:16.730
38.0, 196.06238522706553, 71.44143890356645, -80.68460164405406, 49.71636006096378, 0.5440000258386135, 0.8320000395178795, 0.33600001595914364, 0.0, 0.0, 0.0, 0.0, 0.0, 1.7103913367308323E9, 0.0, 2024-03-13 21:42:16.730
39.0, 191.34637138294056, 68.10918804304674, -88.64684864971787, 45.31823771307245, 0.5440000258386135, 0.8320000395178795, 0.33600001595914364, 0.0, 0.0, 0.0, 0.0, 0.0, 1.710391336731508E9, 0.0, 2024-03-13 21:42:16.731
39.0, 190.64327019127086, 71.83786829886958, -105.66713334806263, 45.060184616129845, 0.5440000258386135, 0.8320000395178795, 0.33600001595914364, 0.0, 0.0, 0.0, 0.0, 0.0, 1.710391336731508E9, 0.0, 2024-03-13 21:42:16.731
40.0, 191.91109627624974, 72.29787599341944, -90.91322802286595, 50.80093104811385, 0.5440000258386135, 0.8320000395178795, 0.33600001595914364, 0.0, 0.0, 0.0, 0.0, 0.0, 1.7103913367456107E9, 0.0, 2024-03-13 21:42:16.745
40.0, 188.23851451976225, 68.09422844322398, -87.71561356075108, 45.28083871351555, 0.5440000258386135, 0.8320000395178795, 0.33600001595914364, 0.0, 0.0, 0.0, 0.0, 0.0, 1.7103913367456107E9, 0.0, 2024-03-13 21:42:16.745
41.0, 184.41259686509147, 60.808903329540044, -114.60175434220582, 38.83699108986184, 0.5440000258386135, 0.8320000395178795, 0.33600001595914364, 0.0, 0.0, 0.0, 0.0, 0.0, 1.7103913367609282E9, 0.0, 2024-03-13 21:42:16.760
41.0, 192.09809127403423, 76.92787213856354, -95.18793367221951, 55.43092719325796, 0.5440000258386135, 0.8320000395178795, 0.33600001595914364, 0.0, 0.0, 0.0, 0.0, 0.0, 1.7103913367609282E9, 0.0, 2024-03-13 21:42:16.760
42.0, 192.04199277469888, 78.29667552234605, -76.93348198849708, 56.45565978111699, 0.5440000258386135, 0.8320000395178795, 0.33600001595914364, 0.0, 0.0, 0.0, 0.0, 0.0, 1.7103913367615693E9, 0.0, 2024-03-13 21:42:16.761
42.0, 186.23018824355677, 68.92448623338714, -98.39676783420146, 51.01036544563249, 0.5440000258386135, 0.8320000395178795, 0.33600001595914364, 0.0, 0.0, 0.0, 0.0, 0.0, 1.7103913367615693E9, 0.0, 2024-03-13 21:42:16.761
43.0, 194.62252374412492, 77.44771823240444, -101.17177360132337, 58.57618305599317, 0.5440000258386135, 0.8320000395178795, 0.33600001595914364, 0.0, 0.0, 0.0, 0.0, 0.0, 1.710391336775158E9, 0.0, 2024-03-13 21:42:16.775
43.0, 197.61444370867684, 83.71205065818503, -76.76892639044672, 60.8612619289197, 0.5440000258386135, 0.8320000395178795, 0.33600001595914364, 0.0, 0.0, 0.0, 0.0, 0.0, 1.710391336775158E9, 0.0, 2024-03-13 21:42:16.775
44.0, 189.2894264073111, 74.37352046882734, -81.71307413186878, 54.64928810251877, 0.5440000258386135, 0.8320000395178795, 0.33600001595914364, 0.0, 0.0, 0.0, 0.0, 0.0, 1.7103913367908657E9, 0.0, 2024-03-13 21:42:16.790
44.0, 191.2192147844471, 72.91869938606396, -97.14764124900103, 58.07129656197503, 0.5440000258386135, 0.8320000395178795, 0.33600001595914364, 0.0, 0.0, 0.0, 0.0, 0.0, 1.7103913367908657E9, 0.0, 2024-03-13 21:42:16.790
45.0, 199.9705806807615, 84.35157355060801, -70.85240466054529, 67.48462475044653, 0.5440000258386135, 0.8320000395178795, 0.33600001595914364, 0.0, 0.0, 0.0, 0.0, 0.0, 1.7103913367918897E9, 0.0, 2024-03-13 21:42:16.791
45.0, 200.47546717477962, 85.11451314156875, -65.51930732373148, 64.99385137995705, 0.5440000258386135, 0.8320000395178795, 0.33600001595914364, 0.0, 0.0, 0.0, 0.0, 0.0, 1.7103913367918897E9, 0.0, 2024-03-13 21:42:16.791
46.0, 198.35494389990345, 76.21355124702677, -95.10191597323865, 57.989018762949854, 0.5440000258386135, 0.8320000395178795, 0.33600001595914364, 0.0, 0.0, 0.0, 0.0, 0.0, 1.7103913368051412E9, 0.0, 2024-03-13 21:42:16.805
46.0, 203.7777988356538, 84.6133665475063, -80.46020764671266, 63.1239014021121, 0.5440000258386135, 0.8320000395178795, 0.33600001595914364, 0.0, 0.0, 0.0, 0.0, 0.0, 1.7103913368051412E9, 0.0, 2024-03-13 21:42:16.805
47.0, 206.8931354987435, 84.75922264577821, -63.20804915111512, 61.27639082400128, 0.5440000258386135, 0.8320000395178795, 0.33600001595914364, 0.0, 0.0, 0.0, 0.0, 0.0, 1.7103913368209896E9, 0.0, 2024-03-13 21:42:16.820
47.0, 194.05031905090436, 67.83243544632569, -92.84301640000194, 47.64445548551157, 0.5440000258386135, 0.8320000395178795, 0.33600001595914364, 0.0, 0.0, 0.0, 0.0, 0.0, 1.7103913368209896E9, 0.0, 2024-03-13 21:42:16.820
48.0, 191.48848758125678, 74.69141196506098, -100.4574527097866, 49.03195836907253, 0.5440000258386135, 0.8320000395178795, 0.33600001595914364, 0.0, 0.0, 0.0, 0.0, 0.0, 1.7103913368215632E9, 0.0, 2024-03-13 21:42:16.821
48.0, 185.20919555565342, 63.10520190233365, -82.42739502340555, 41.907448953483254, 0.5440000258386135, 0.8320000395178795, 0.33600001595914364, 0.0, 0.0, 0.0, 0.0, 0.0, 1.7103913368215632E9, 0.0, 2024-03-13 21:42:16.821
49.0, 182.64362418605015, 59.26058474788442, -92.83927650004625, 39.36431698361412, 0.5440000258386135, 0.8320000395178795, 0.33600001595914364, 0.0, 0.0, 0.0, 0.0, 0.0, 1.7103913368353443E9, 0.0, 2024-03-13 21:42:16.835
49.0, 181.57401279872283, 59.69815304270014, -111.59487477783114, 34.27805304387584, 0.5440000258386135, 0.8320000395178795, 0.33600001595914364, 0.0, 0.0, 0.0, 0.0, 0.0, 1.7103913368353443E9, 0.0, 2024-03-13 21:42:16.835
50.0, 187.08662533340976, 66.0859021670185, -91.2647786187008, 42.704047644045204, 0.5440000258386135, 0.8320000395178795, 0.35200001671910286, 0.0, 0.0, 0.0, 0.0, 0.0, 1.7103913368509343E9, 0.0, 2024-03-13 21:42:16.850
50.0, 186.59669843921438, 59.3054635473527, -86.46648697555065, 37.90201610093936, 0.5440000258386135, 0.8320000395178795, 0.35200001671910286, 0.0, 0.0, 0.0, 0.0, 0.0, 1.7103913368509343E9, 0.0, 2024-03-13 21:42:16.850
51.0, 189.20714860828593, 64.14863398997113, -105.76063084695488, 41.21930736163631, 0.5440000258386135, 0.8320000395178795, 0.35200001671910286, 0.0, 0.0, 0.0, 0.0, 0.0, 1.710391336851736E9, 0.0, 2024-03-13 21:42:16.851
51.0, 188.36193121830001, 68.97310493281111, -94.46613298077136, 49.20399376703426, 0.5440000258386135, 0.8320000395178795, 0.35200001671910286, 0.0, 0.0, 0.0, 0.0, 0.0, 1.710391336851736E9, 0.0, 2024-03-13 21:42:16.851
52.0, 187.08288543345407, 71.00761050870642, -81.50363973435014, 44.55155822215602, 0.5440000258386135, 0.8320000395178795, 0.35200001671910286, 0.0, 0.0, 0.0, 0.0, 0.0, 1.7103913368818123E9, 0.0, 2024-03-13 21:42:16.881
52.0, 181.3982375008054, 61.04451702674851, -110.01663699653, 36.79126581409946, 0.5440000258386135, 0.8320000395178795, 0.35200001671910286, 0.0, 0.0, 0.0, 0.0, 0.0, 1.7103913368818123E9, 0.0, 2024-03-13 21:42:16.881
53.0, 191.75028057815507, 73.0907347840257, -103.55782977305353, 42.210380849894136, 0.5440000258386135, 0.8320000395178795, 0.35200001671910286, 0.0, 0.0, 0.0, 0.0, 0.0, 1.7103913368824787E9, 0.0, 2024-03-13 21:42:16.882
53.0, 195.924008928705, 78.65944581804797, -80.30313184857368, 51.167441243771464, 0.5440000258386135, 0.8320000395178795, 0.35200001671910286, 0.0, 0.0, 0.0, 0.0, 0.0, 1.7103913368824787E9, 0.0, 2024-03-13 21:42:16.882
54.0, 191.8886568765156, 69.6088879252784, -88.59075015038252, 43.35853013629094, 0.5440000258386135, 0.8320000395178795, 0.35200001671910286, 0.0, 0.0, 0.0, 0.0, 0.0, 1.7103913368831186E9, 0.0, 2024-03-13 21:42:16.883
54.0, 189.02763341041282, 67.29762975266203, -110.3494880925864, 43.15657553868368, 0.5440000258386135, 0.8320000395178795, 0.35200001671910286, 0.0, 0.0, 0.0, 0.0, 0.0, 1.7103913368831186E9, 0.0, 2024-03-13 21:42:16.883
55.0, 194.0390993510373, 77.66837232979015, -81.89632922969759, 57.46169286919758, 0.5440000258386135, 0.8320000395178795, 0.35200001671910286, 0.0, 0.0, 0.0, 0.0, 0.0, 1.710391336895465E9, 0.0, 2024-03-13 21:42:16.895
55.0, 190.3291185949929, 71.2020853064023, -77.63658318016678, 51.36565594142303, 0.5440000258386135, 0.8320000395178795, 0.35200001671910286, 0.0, 0.0, 0.0, 0.0, 0.0, 1.710391336895465E9, 0.0, 2024-03-13 21:42:16.895
56.0, 187.09036523336545, 65.05742967920378, -105.33802215196192, 45.871742906514555, 0.5440000258386135, 0.8320000395178795, 0.35200001671910286, 0.0, 0.0, 0.0, 0.0, 0.0, 1.7103913369107912E9, 0.0, 2024-03-13 21:42:16.910
56.0, 196.8477642177604, 76.65859934175387, -91.22363971918821, 50.677514349576086, 0.5440000258386135, 0.8320000395178795, 0.35200001671910286, 0.0, 0.0, 0.0, 0.0, 0.0, 1.7103913369107912E9, 0.0, 2024-03-13 21:42:16.910
57.0, 197.32647141208872, 78.71180441742763, -70.54573286417872, 54.682947202119976, 0.5440000258386135, 0.8320000395178795, 0.35200001671910286, 0.0, 0.0, 0.0, 0.0, 0.0, 1.710391336911487E9, 0.0, 2024-03-13 21:42:16.911
57.0, 188.2235549199395, 60.95475942781195, -103.81588286999613, 39.24838008498773, 0.5440000258386135, 0.8320000395178795, 0.35200001671910286, 0.0, 0.0, 0.0, 0.0, 0.0, 1.710391336911487E9, 0.0, 2024-03-13 21:42:16.911
58.0, 191.83255837718025, 61.63542121974751, -104.27589056454599, 44.319684424903244, 0.5440000258386135, 0.8320000395178795, 0.35200001671910286, 0.0, 0.0, 0.0, 0.0, 0.0, 1.7103913369251525E9, 0.0, 2024-03-13 21:42:16.925
58.0, 196.72434751922265, 72.62324728956446, -81.372743235901, 48.92724117031321, 0.5440000258386135, 0.8320000395178795, 0.35200001671910286, 0.0, 0.0, 0.0, 0.0, 0.0, 1.7103913369251525E9, 0.0, 2024-03-13 21:42:16.925
59.0, 192.07939177425578, 69.70612532412633, -91.58641001489013, 44.37578292423859, 0.5440000258386135, 0.8320000395178795, 0.35200001671910286, 0.0, 0.0, 0.0, 0.0, 0.0, 1.7103913369407613E9, 0.0, 2024-03-13 21:42:16.940
59.0, 187.6251709270291, 67.4958444503136, -110.0914349956438, 42.74518654355779, 0.5440000258386135, 0.8320000395178795, 0.35200001671910286, 0.0, 0.0, 0.0, 0.0, 0.0, 1.7103913369407613E9, 0.0, 2024-03-13 21:42:16.940
60.0, 189.83171190088615, 74.77368976408616, -80.75939964316785, 52.98129272228107, 0.5440000258386135, 0.8320000395178795, 0.33600001595914364, 0.0, 0.0, 0.0, 0.0, 0.0, 1.7103913369414804E9, 0.0, 2024-03-13 21:42:16.941
60.0, 194.34577114740387, 73.9770910735242, -82.36755662411451, 49.22269326681271, 0.5440000258386135, 0.8320000395178795, 0.33600001595914364, 0.0, 0.0, 0.0, 0.0, 0.0, 1.7103913369414804E9, 0.0, 2024-03-13 21:42:16.941
61.0, 191.2603536839597, 65.71939197136089, -107.63806062471122, 44.19252782640979, 0.5440000258386135, 0.8320000395178795, 0.33600001595914364, 0.0, 0.0, 0.0, 0.0, 0.0, 1.7103913369551904E9, 0.0, 2024-03-13 21:42:16.955
61.0, 193.19014206109568, 74.0892880721949, -94.58954967930913, 49.01325886929408, 0.5440000258386135, 0.8320000395178795, 0.33600001595914364, 0.0, 0.0, 0.0, 0.0, 0.0, 1.7103913369551904E9, 0.0, 2024-03-13 21:42:16.955
62.0, 194.05779885081574, 77.83666782779619, -76.6642091916874, 55.03075789799914, 0.5440000258386135, 0.8320000395178795, 0.33600001595914364, 0.0, 0.0, 0.0, 0.0, 0.0, 1.7103913369708412E9, 0.0, 2024-03-13 21:42:16.970
62.0, 190.2580604958348, 70.61866091331467, -97.27479784749448, 47.40884178830311, 0.5440000258386135, 0.8320000395178795, 0.33600001595914364, 0.0, 0.0, 0.0, 0.0, 0.0, 1.7103913369708412E9, 0.0, 2024-03-13 21:42:16.970
63.0, 199.97432058071718, 81.63266628282145, -95.09069627337158, 55.01953819813207, 0.5440000258386135, 0.8320000395178795, 0.33600001595914364, 0.0, 0.0, 0.0, 0.0, 0.0, 1.7103913369715338E9, 0.0, 2024-03-13 21:42:16.971
63.0, 200.32587117655203, 85.85127343283966, -78.0367524754256, 63.06780290277675, 0.5440000258386135, 0.8320000395178795, 0.33600001595914364, 0.0, 0.0, 0.0, 0.0, 0.0, 1.7103913369715338E9, 0.0, 2024-03-13 21:42:16.971
64.0, 197.3002921123989, 81.29981518676504, -85.74094638414681, 55.961992986965925, 0.5440000258386135, 0.8320000395178795, 0.33600001595914364, 0.0, 0.0, 0.0, 0.0, 0.0, 1.7103913369852376E9, 0.0, 2024-03-13 21:42:16.985
64.0, 197.10207741474733, 76.78201604029164, -106.09348194301128, 51.533951439429075, 0.5440000258386135, 0.8320000395178795, 0.33600001595914364, 0.0, 0.0, 0.0, 0.0, 0.0, 1.7103913369852376E9, 0.0, 2024-03-13 21:42:16.985
65.0, 200.02293928014114, 81.95429767901078, -82.22918032575399, 56.97924577491358, 0.5440000258386135, 0.8320000395178795, 0.33600001595914364, 0.0, 0.0, 0.0, 0.0, 0.0, 1.7103913370010705E9, 0.0, 2024-03-13 21:42:17.001
65.0, 200.2959519769065, 81.64388598268852, -73.34317803103477, 56.68379367841408, 0.5440000258386135, 0.8320000395178795, 0.33600001595914364, 0.0, 0.0, 0.0, 0.0, 0.0, 1.7103913370010705E9, 0.0, 2024-03-13 21:42:17.001
66.0, 197.8126584063284, 76.52396294334903, -99.86654851678759, 48.48967287549749, 0.5440000258386135, 0.8320000395178795, 0.33600001595914364, 0.0, 0.0, 0.0, 0.0, 0.0, 1.7103913370019436E9, 0.0, 2024-03-13 21:42:17.001
66.0, 202.56607125001028, 84.53108874848112, -86.27201217785478, 61.0856559262611, 0.5440000258386135, 0.8320000395178795, 0.33600001595914364, 0.0, 0.0, 0.0, 0.0, 0.0, 1.7103913370019436E9, 0.0, 2024-03-13 21:42:17.001
67.0, 205.94694080995396, 86.34120032703504, -70.63549046311527, 60.24417843623087, 0.5440000258386135, 0.8320000395178795, 0.33600001595914364, 0.0, 0.0, 0.0, 0.0, 0.0, 1.7103913370151377E9, 0.0, 2024-03-13 21:42:17.015
67.0, 199.65642908448353, 77.84414762770757, -94.72418607771397, 53.28422461869195, 0.5440000258386135, 0.8320000395178795, 0.33600001595914364, 0.0, 0.0, 0.0, 0.0, 0.0, 1.7103913370151377E9, 0.0, 2024-03-13 21:42:17.015
68.0, 200.65124247269705, 88.3570064031519, -92.637321902439, 59.922547040041536, 0.5440000258386135, 0.8320000395178795, 0.33600001595914364, 0.0, 0.0, 0.0, 0.0, 0.0, 1.710391337031168E9, 0.0, 2024-03-13 21:42:17.031
68.0, 204.49585962714627, 92.21658315742388, -65.03686022944748, 67.78007684694603, 0.5440000258386135, 0.8320000395178795, 0.33600001595914364, 0.0, 0.0, 0.0, 0.0, 0.0, 1.710391337031168E9, 0.0, 2024-03-13 21:42:17.031
69.0, 204.8548900228925, 88.37570590293035, -72.98788753524423, 64.59742198465392, 0.5440000258386135, 0.8320000395178795, 0.33600001595914364, 0.0, 0.0, 0.0, 0.0, 0.0, 1.7103913370317652E9, 0.0, 2024-03-13 21:42:17.031
69.0, 205.2625391180627, 88.45050390204415, -95.37492867000401, 67.84365514619276, 0.5440000258386135, 0.8320000395178795, 0.33600001595914364, 0.0, 0.0, 0.0, 0.0, 0.0, 1.7103913370317652E9, 0.0, 2024-03-13 21:42:17.031
70.0, 209.73545946506783, 100.28354736184701, -61.764447768218815, 77.98626382602379, 0.5440000258386135, 0.8320000395178795, 0.33600001595914364, 0.0, 0.0, 0.0, 0.0, 0.0, 1.710391337045257E9, 0.0, 2024-03-13 21:42:17.045
70.0, 207.80193118797615, 98.67913028085604, -58.45837620738894, 78.58838771888986, 0.5440000258386135, 0.8320000395178795, 0.33600001595914364, 0.0, 0.0, 0.0, 0.0, 0.0, 1.710391337045257E9, 0.0, 2024-03-13 21:42:17.045
71.0, 202.83908394677565, 86.38233922654763, -86.97885326948017, 70.44662551535293, 0.5440000258386135, 0.8320000395178795, 0.33600001595914364, 0.0, 0.0, 0.0, 0.0, 0.0, 1.7103913370608656E9, 0.0, 2024-03-13 21:42:17.060
71.0, 203.90495543414727, 95.85924571426585, -74.97003451175988, 75.11028076009825, 0.5440000258386135, 0.8320000395178795, 0.33600001595914364, 0.0, 0.0, 0.0, 0.0, 0.0, 1.7103913370608656E9, 0.0, 2024-03-13 21:42:17.060
72.0, 204.24528633011505, 94.80833382671699, -58.81366670317948, 73.80131577560678, 0.5440000258386135, 0.8320000395178795, 0.33600001595914364, 0.0, 0.0, 0.0, 0.0, 0.0, 1.7103913370617015E9, 0.0, 2024-03-13 21:42:17.061
72.0, 198.35868379985914, 81.85332038020715, -87.46130036376417, 58.333089558873326, 0.5440000258386135, 0.8320000395178795, 0.33600001595914364, 0.0, 0.0, 0.0, 0.0, 0.0, 1.7103913370617015E9, 0.0, 2024-03-13 21:42:17.061
73.0, 200.79335867101327, 87.29487481573597, -91.45551351644099, 62.678853307385, 0.5440000258386135, 0.8320000395178795, 0.33600001595914364, 0.0, 0.0, 0.0, 0.0, 0.0, 1.7103913370751336E9, 0.0, 2024-03-13 21:42:17.075
73.0, 207.83185038762167, 90.9150979728438, -63.806433144025505, 69.41067322762683, 0.5440000258386135, 0.8320000395178795, 0.33600001595914364, 0.0, 0.0, 0.0, 0.0, 0.0, 1.7103913370751336E9, 0.0, 2024-03-13 21:42:17.075
74.0, 199.04682539170608, 78.4612311203964, -83.036998716183, 58.303170359227806, 0.5440000258386135, 0.8320000395178795, 0.33600001595914364, 0.0, 0.0, 0.0, 0.0, 0.0, 1.7103913370908513E9, 0.0, 2024-03-13 21:42:17.090
74.0, 195.20220823725685, 81.64014608273283, -99.97874551545829, 55.505725192371756, 0.5440000258386135, 0.8320000395178795, 0.33600001595914364, 0.0, 0.0, 0.0, 0.0, 0.0, 1.7103913370908513E9, 0.0, 2024-03-13 21:42:17.090
75.0, 196.97866071620956, 82.8369140685536, -70.65792986284941, 68.64773363666609, 0.5440000258386135, 0.8320000395178795, 0.33600001595914364, 0.0, 0.0, 0.0, 0.0, 0.0, 1.7103913370915983E9, 0.0, 2024-03-13 21:42:17.091
75.0, 191.12197738559917, 75.77224305225536, -68.13349739275873, 60.18060013698414, 0.5440000258386135, 0.8320000395178795, 0.33600001595914364, 0.0, 0.0, 0.0, 0.0, 0.0, 1.7103913370915983E9, 0.0, 2024-03-13 21:42:17.091
76.0, 188.07769882166758, 71.41525960387662, -97.2336589479819, 56.347202682401985, 0.5440000258386135, 0.8320000395178795, 0.33600001595914364, 0.0, 0.0, 0.0, 0.0, 0.0, 1.7103913371053338E9, 0.0, 2024-03-13 21:42:17.105
76.0, 195.8529508295469, 81.49428998446092, -78.8894496653229, 65.61841467255726, 0.5440000258386135, 0.8320000395178795, 0.33600001595914364, 0.0, 0.0, 0.0, 0.0, 0.0, 1.7103913371053338E9, 0.0, 2024-03-13 21:42:17.105
77.0, 195.95018822839484, 85.41370513802394, -66.09899181686342, 61.36614842293784, 0.5440000258386135, 0.8320000395178795, 0.33600001595914364, 0.0, 0.0, 0.0, 0.0, 0.0, 1.7103913371212704E9, 0.0, 2024-03-13 21:42:17.121
77.0, 191.45482848165557, 76.86429383931682, -92.23715260718018, 53.68813381390646, 0.5440000258386135, 0.8320000395178795, 0.33600001595914364, 0.0, 0.0, 0.0, 0.0, 0.0, 1.7103913371212704E9, 0.0, 2024-03-13 21:42:17.121
78.0, 196.3353979238309, 84.41515184985474, -90.62525572627783, 59.85148894088343, 0.5440000258386135, 0.8320000395178795, 0.33600001595914364, 0.0, 0.0, 0.0, 0.0, 0.0, 1.710391337135988E9, 0.0, 2024-03-13 21:42:17.135
78.0, 200.8531970703043, 88.76839539827779, -64.73018843308091, 63.606348496396095, 0.5440000258386135, 0.8320000395178795, 0.33600001595914364, 0.0, 0.0, 0.0, 0.0, 0.0, 1.710391337135988E9, 0.0, 2024-03-13 21:42:17.135
79.0, 200.16879537841305, 74.76994986413047, -76.79510569013655, 60.8612619289197, 0.5440000258386135, 0.8320000395178795, 0.33600001595914364, 0.0, 0.0, 0.0, 0.0, 0.0, 1.710391337136611E9, 0.0, 2024-03-13 21:42:17.136
79.0, 198.31380500039086, 82.204870976042, -86.58990367408842, 65.10604837862775, 0.5440000258386135, 0.8320000395178795, 0.33600001595914364, 0.0, 0.0, 0.0, 0.0, 0.0, 1.710391337136611E9, 0.0, 2024-03-13 21:42:17.136
80.0, 201.2982451650314, 93.99677553633228, -64.05326654110104, 78.89879941521212, 0.5440000258386135, 0.8320000395178795, 0.33600001595914364, 0.0, 0.0, 0.0, 0.0, 0.0, 1.7103913371508923E9, 0.0, 2024-03-13 21:42:17.150
80.0, 199.7087876838632, 94.31092713261023, -57.13445162307471, 77.09990753652528, 0.5440000258386135, 0.8320000395178795, 0.33600001595914364, 0.0, 0.0, 0.0, 0.0, 0.0, 1.7103913371508923E9, 0.0, 2024-03-13 21:42:17.150
81.0, 199.65268918452784, 92.1006462587975, -89.4135281406343, 68.10918804304674, 0.5440000258386135, 0.8320000395178795, 0.33600001595914364, 0.0, 0.0, 0.0, 0.0, 0.0, 1.7103913371515937E9, 0.0, 2024-03-13 21:42:17.151
81.0, 201.72459375998005, 96.04250081209466, -76.02842619922012, 73.79757587565109, 0.5440000258386135, 0.8320000395178795, 0.33600001595914364, 0.0, 0.0, 0.0, 0.0, 0.0, 1.7103913371515937E9, 0.0, 2024-03-13 21:42:17.151
82.0, 201.30946486489847, 95.41045771958306, -63.32398604974151, 73.50960357906297, 0.5440000258386135, 0.8320000395178795, 0.33600001595914364, 0.0, 0.0, 0.0, 0.0, 0.0, 1.710391337165268E9, 0.0, 2024-03-13 21:42:17.165
82.0, 193.1116041620262, 79.34010760998353, -86.89657547045499, 60.382554734591395, 0.5440000258386135, 0.8320000395178795, 0.33600001595914364, 0.0, 0.0, 0.0, 0.0, 0.0, 1.710391337165268E9, 0.0, 2024-03-13 21:42:17.165
83.0, 193.62023055600002, 82.0590148777701, -89.85483633540571, 62.66389370756224, 0.5440000258386135, 0.8320000395178795, 0.33600001595914364, 0.0, 0.0, 0.0, 0.0, 0.0, 1.7103913371810875E9, 0.0, 2024-03-13 21:42:17.181
83.0, 194.65618284372613, 80.68273169407621, -69.30782597884536, 62.12534811394289, 0.5440000258386135, 0.8320000395178795, 0.33600001595914364, 0.0, 0.0, 0.0, 0.0, 0.0, 1.7103913371810875E9, 0.0, 2024-03-13 21:42:17.181
84.0, 186.45084234094247, 67.71275864774361, -83.60546350944787, 53.72553281346336, 0.5440000258386135, 0.8320000395178795, 0.33600001595914364, 0.0, 0.0, 0.0, 0.0, 0.0, 1.7103913371819031E9, 0.0, 2024-03-13 21:42:17.181
84.0, 188.08143872162327, 63.25853780051693, -101.16803370136768, 53.59463631501421, 0.5440000258386135, 0.8320000395178795, 0.33600001595914364, 0.0, 0.0, 0.0, 0.0, 0.0, 1.7103913371819031E9, 0.0, 2024-03-13 21:42:17.181
85.0, 185.63554415060207, 71.3105424051173, -80.69956124387681, 59.4176605460234, 0.5440000258386135, 0.8320000395178795, 0.33600001595914364, 0.0, 0.0, 0.0, 0.0, 0.0, 1.7103913371951933E9, 0.0, 2024-03-13 21:42:17.195
85.0, 186.12921094475314, 67.88479404570535, -77.58796448074281, 54.739045701455325, 0.5440000258386135, 0.8320000395178795, 0.33600001595914364, 0.0, 0.0, 0.0, 0.0, 0.0, 1.7103913371951933E9, 0.0, 2024-03-13 21:42:17.195
86.0, 187.89818362379447, 70.58500181371346, -93.97994598653167, 55.094336197245866, 0.5440000258386135, 0.8320000395178795, 0.33600001595914364, 0.0, 0.0, 0.0, 0.0, 0.0, 1.710391337211115E9, 0.0, 2024-03-13 21:42:17.211
86.0, 200.3782297759317, 85.41744503797963, -74.89523651264608, 69.52661012625322, 0.5440000258386135, 0.8320000395178795, 0.33600001595914364, 0.0, 0.0, 0.0, 0.0, 0.0, 1.710391337211115E9, 0.0, 2024-03-13 21:42:17.211
87.0, 200.2248938777484, 85.95973053155467, -60.22734888643026, 70.39800681592897, 0.5440000258386135, 0.8320000395178795, 0.33600001595914364, 0.0, 0.0, 0.0, 0.0, 0.0, 1.7103913372116947E9, 0.0, 2024-03-13 21:42:17.211
87.0, 199.3347976882942, 80.71265089372173, -89.60426303837448, 63.194959501270205, 0.5440000258386135, 0.8320000395178795, 0.33600001595914364, 0.0, 0.0, 0.0, 0.0, 0.0, 1.7103913372116947E9, 0.0, 2024-03-13 21:42:17.211
88.0, 205.9731201096438, 92.13056545844302, -86.32811067719012, 74.73629076452926, 0.5440000258386135, 0.8320000395178795, 0.33600001595914364, 0.0, 0.0, 0.0, 0.0, 0.0, 1.7103913372254653E9, 0.0, 2024-03-13 21:42:17.225
88.0, 211.29873764654621, 95.93030381342396, -64.02334734145552, 75.37207375699654, 0.5440000258386135, 0.8320000395178795, 0.33600001595914364, 0.0, 0.0, 0.0, 0.0, 0.0, 1.7103913372254653E9, 0.0, 2024-03-13 21:42:17.225
89.0, 206.6014233021997, 87.95683710789308, -70.57939196377993, 67.00591755611822, 0.5440000258386135, 0.8320000395178795, 0.33600001595914364, 0.0, 0.0, 0.0, 0.0, 0.0, 1.7103913372408888E9, 0.0, 2024-03-13 21:42:17.240
89.0, 205.90580191044137, 85.73907643416896, -88.6356289498508, 60.778984129894525, 0.5440000258386135, 0.8320000395178795, 0.33600001595914364, 0.0, 0.0, 0.0, 0.0, 0.0, 1.7103913372408888E9, 0.0, 2024-03-13 21:42:17.240
90.0, 203.45616743946448, 84.43759124958888, -71.8135589491576, 67.53698334982619, 0.5440000258386135, 0.8320000395178795, 0.35200001671910286, 0.0, 0.0, 0.0, 0.0, 0.0, 1.7103913372416036E9, 0.0, 2024-03-13 21:42:17.241
90.0, 201.1897880663164, 86.61047312384471, -67.10128500498831, 63.26601760042831, 0.5440000258386135, 0.8320000395178795, 0.35200001671910286, 0.0, 0.0, 0.0, 0.0, 0.0, 1.7103913372416036E9, 0.0, 2024-03-13 21:42:17.241
91.0, 201.28328556520864, 88.14383210567757, -96.51933805644512, 62.87332810508087, 0.5440000258386135, 0.8320000395178795, 0.35200001671910286, 0.0, 0.0, 0.0, 0.0, 0.0, 1.710391337255186E9, 0.0, 2024-03-13 21:42:17.255
91.0, 210.01595196174458, 103.5110810236074, -70.1455635689199, 75.7572834524326, 0.5440000258386135, 0.8320000395178795, 0.35200001671910286, 0.0, 0.0, 0.0, 0.0, 0.0, 1.710391337255186E9, 0.0, 2024-03-13 21:42:17.255
92.0, 206.84077689936385, 94.73727572755888, -52.31372058019042, 74.58669476630166, 0.5440000258386135, 0.8320000395178795, 0.35200001671910286, 0.0, 0.0, 0.0, 0.0, 0.0, 1.7103913372708385E9, 0.0, 2024-03-13 21:42:17.270
92.0, 191.35385118285194, 76.13501334795728, -90.80103102419525, 61.123054925817996, 0.5440000258386135, 0.8320000395178795, 0.35200001671910286, 0.0, 0.0, 0.0, 0.0, 0.0, 1.7103913372708385E9, 0.0, 2024-03-13 21:42:17.270
93.0, 201.19726786622778, 85.15191214112565, -77.21023458521813, 64.02521729143336, 0.5440000258386135, 0.8320000395178795, 0.35200001671910286, 0.0, 0.0, 0.0, 0.0, 0.0, 1.710391337271596E9, 0.0, 2024-03-13 21:42:17.271
93.0, 206.07035750849172, 93.951896736864, -71.31989215500653, 71.03378980839625, 0.5440000258386135, 0.8320000395178795, 0.35200001671910286, 0.0, 0.0, 0.0, 0.0, 0.0, 1.710391337271596E9, 0.0, 2024-03-13 21:42:17.271
94.0, 196.23442062502727, 82.43674477329478, -83.27261241339147, 59.87018844066188, 0.5440000258386135, 0.8320000395178795, 0.35200001671910286, 0.0, 0.0, 0.0, 0.0, 0.0, 1.7103913372852712E9, 0.0, 2024-03-13 21:42:17.285
94.0, 201.0813309676014, 78.38269322132692, -98.20603293646127, 62.47315880982205, 0.5440000258386135, 0.8320000395178795, 0.35200001671910286, 0.0, 0.0, 0.0, 0.0, 0.0, 1.7103913372852712E9, 0.0, 2024-03-13 21:42:17.285
95.0, 202.68948794854805, 87.63520571170375, -73.5526124285534, 70.55508261406794, 0.5440000258386135, 0.8320000395178795, 0.35200001671910286, 0.0, 0.0, 0.0, 0.0, 0.0, 1.710391337300596E9, 0.0, 2024-03-13 21:42:17.300
95.0, 199.05056529166177, 84.25059625180438, -69.53969977609813, 65.43141967477277, 0.5440000258386135, 0.8320000395178795, 0.35200001671910286, 0.0, 0.0, 0.0, 0.0, 0.0, 1.710391337300596E9, 0.0, 2024-03-13 21:42:17.300
96.0, 199.02438599197194, 78.40887252101675, -94.97849927470088, 60.69296643091366, 0.5440000258386135, 0.8320000395178795, 0.35200001671910286, 0.0, 0.0, 0.0, 0.0, 0.0, 1.7103913373163831E9, 0.0, 2024-03-13 21:42:17.316
96.0, 207.85054988740012, 95.78070781519637, -74.30807221960276, 72.40259319217876, 0.5440000258386135, 0.8320000395178795, 0.35200001671910286, 0.0, 0.0, 0.0, 0.0, 0.0, 1.7103913373163831E9, 0.0, 2024-03-13 21:42:17.316
97.0, 206.30971110565588, 93.89205833757296, -60.541500482708216, 73.43106567999348, 0.5440000258386135, 0.8320000395178795, 0.35200001671910286, 0.0, 0.0, 0.0, 0.0, 0.0, 1.7103913373167305E9, 0.0, 2024-03-13 21:42:17.316
97.0, 203.4524275395088, 84.03368205437437, -83.56432460993528, 67.63796064862981, 0.5440000258386135, 0.8320000395178795, 0.35200001671910286, 0.0, 0.0, 0.0, 0.0, 0.0, 1.7103913373167305E9, 0.0, 2024-03-13 21:42:17.316
98.0, 207.05021129688248, 96.20705641014501, -76.15932269766927, 80.22646389948204, 0.5440000258386135, 0.8320000395178795, 0.35200001671910286, 0.0, 0.0, 0.0, 0.0, 0.0, 1.710391337331126E9, 0.0, 2024-03-13 21:42:17.331
98.0, 203.69926093658432, 92.71024995157495, -58.918383901938796, 83.07252776576206, 0.5440000258386135, 0.8320000395178795, 0.35200001671910286, 0.0, 0.0, 0.0, 0.0, 0.0, 1.710391337331126E9, 0.0, 2024-03-13 21:42:17.331
99.0, 202.24817975377664, 87.08918031817302, -63.428703248500824, 75.79842235194519, 0.5440000258386135, 0.8320000395178795, 0.35200001671910286, 0.0, 0.0, 0.0, 0.0, 0.0, 1.710391337331783E9, 0.0, 2024-03-13 21:42:17.331
99.0, 213.07519012549892, 95.15614452259615, -74.79051931388676, 84.10848005348817, 0.5440000258386135, 0.8320000395178795, 0.35200001671910286, 0.0, 0.0, 0.0, 0.0, 0.0, 1.710391337331783E9, 0.0, 2024-03-13 21:42:17.331
100.0, 209.85139636369422, 96.5062484066002, -58.64537120517343, 83.96636385517195, 0.5440000258386135, 0.8320000395178795, 0.33600001595914364, 0.0, 0.0, 0.0, 0.0, 0.0, 1.7103913373458612E9, 0.0, 2024-03-13 21:42:17.345
100.0, 206.94549409812316, 84.93499794369563, -63.032273853197694, 67.64918034849688, 0.5440000258386135, 0.8320000395178795, 0.33600001595914364, 0.0, 0.0, 0.0, 0.0, 0.0, 1.7103913373458612E9, 0.0, 2024-03-13 21:42:17.345
0.0, 202.56046140007675, 82.23292022570968, -89.76881863642484, 61.171673625241965, 0.5440000258386135, 0.8320000395178795, 0.33600001595914364, 0.0, 0.0, 0.0, 0.0, 0.0, 1.710391337346733E9, 0.0, 2024-03-13 21:42:17.346
1.0, 210.08140021096915, 94.67930727824569, -76.56323189288378, 69.90807992173359, 0.5440000258386135, 0.8320000395178795, 0.33600001595914364, 0.0, 0.0, 0.0, 0.0, 0.0, 1.7103913373601644E9, 0.0, 2024-03-13 21:42:17.360
1.0, 204.75204277411103, 89.39856854081154, -66.79087330866605, 60.5284108328633, 0.5440000258386135, 0.8320000395178795, 0.33600001595914364, 0.0, 0.0, 0.0, 0.0, 0.0, 1.7103913373601644E9, 0.0, 2024-03-13 21:42:17.360
2.0, 198.36429364979267, 74.4801076175645, -90.03061163332313, 54.21171980770305, 0.5440000258386135, 0.8320000395178795, 0.33600001595914364, 0.0, 0.0, 0.0, 0.0, 0.0, 1.7103913373758173E9, 0.0, 2024-03-13 21:42:17.375
2.0, 197.99778345413506, 77.23267398495227, -82.38625612389296, 58.6771603547968, 0.5440000258386135, 0.8320000395178795, 0.33600001595914364, 0.0, 0.0, 0.0, 0.0, 0.0, 1.7103913373758173E9, 0.0, 2024-03-13 21:42:17.375
3.0, 199.44512473698705, 80.13857625052333, -65.34727192576975, 65.76053087087348, 0.5440000258386135, 0.8320000395178795, 0.33600001595914364, 0.0, 0.0, 0.0, 0.0, 0.0, 1.7103913373765688E9, 0.0, 2024-03-13 21:42:17.376
3.0, 194.66179269365966, 75.41134270653129, -81.64575593266636, 51.62744893832132, 0.5440000258386135, 0.8320000395178795, 0.33600001595914364, 0.0, 0.0, 0.0, 0.0, 0.0, 1.7103913373765688E9, 0.0, 2024-03-13 21:42:17.376
4.0, 198.67844524607062, 76.08826459851116, -95.56940346769989, 54.62684870278463, 0.5440000258386135, 0.8320000395178795, 0.33600001595914364, 0.0, 0.0, 0.0, 0.0, 0.0, 1.710391337390311E9, 0.0, 2024-03-13 21:42:17.390
4.0, 202.0555749060586, 88.8226239476353, -73.11878403369337, 64.72083868319169, 0.5440000258386135, 0.8320000395178795, 0.33600001595914364, 0.0, 0.0, 0.0, 0.0, 0.0, 1.710391337390311E9, 0.0, 2024-03-13 21:42:17.390
5.0, 192.9825776135549, 77.76373977866024, -74.84287791326642, 60.44987293379381, 0.5440000258386135, 0.8320000395178795, 0.33600001595914364, 0.0, 0.0, 0.0, 0.0, 0.0, 1.7103913374058232E9, 0.0, 2024-03-13 21:42:17.405
5.0, 191.93540562596172, 72.00803374685347, -92.77943810075521, 55.67028079042211, 0.5440000258386135, 0.8320000395178795, 0.33600001595914364, 0.0, 0.0, 0.0, 0.0, 0.0, 1.7103913374058232E9, 0.0, 2024-03-13 21:42:17.405
6.0, 197.6088338587433, 83.55310491006821, -78.02553277555853, 64.29822998819873, 0.5440000258386135, 0.8320000395178795, 0.33600001595914364, 0.0, 0.0, 0.0, 0.0, 0.0, 1.7103913374065356E9, 0.0, 2024-03-13 21:42:17.406
6.0, 191.81572882737964, 80.51256624609232, -65.16401682794094, 64.51514418562874, 0.5440000258386135, 0.8320000395178795, 0.33600001595914364, 0.0, 0.0, 0.0, 0.0, 0.0, 1.7103913374065356E9, 0.0, 2024-03-13 21:42:17.406
7.0, 195.00212358962744, 75.60207760427147, -93.4526200927794, 54.380015305709094, 0.5440000258386135, 0.8320000395178795, 0.33600001595914364, 0.0, 0.0, 0.0, 0.0, 0.0, 1.71039133742019E9, 0.0, 2024-03-13 21:42:17.420
7.0, 192.00646372511983, 75.46744120586663, -91.24233921896666, 55.39352819370106, 0.5440000258386135, 0.8320000395178795, 0.33600001595914364, 0.0, 0.0, 0.0, 0.0, 0.0, 1.71039133742019E9, 0.0, 2024-03-13 21:42:17.420
8.0, 191.6810924289748, 85.80078478343785, -74.97377441171557, 63.03788370313123, 0.5440000258386135, 0.8320000395178795, 0.33600001595914364, 0.0, 0.0, 0.0, 0.0, 0.0, 1.7103913374359586E9, 0.0, 2024-03-13 21:42:17.435
8.0, 190.69001894071698, 73.14122343342751, -89.7837782362476, 48.16804147930816, 0.5440000258386135, 0.8320000395178795, 0.33600001595914364, 0.0, 0.0, 0.0, 0.0, 0.0, 1.7103913374359586E9, 0.0, 2024-03-13 21:42:17.435
9.0, 197.15256606414914, 77.11673708632588, -104.72093865927309, 47.62575598573312, 0.5440000258386135, 0.8320000395178795, 0.33600001595914364, 0.0, 0.0, 0.0, 0.0, 0.0, 1.7103913374368849E9, 0.0, 2024-03-13 21:42:17.436
9.0, 199.44138483703136, 84.85085019469261, -83.77749890740961, 55.85727578820661, 0.5440000258386135, 0.8320000395178795, 0.33600001595914364, 0.0, 0.0, 0.0, 0.0, 0.0, 1.7103913374368849E9, 0.0, 2024-03-13 21:42:17.436
10.0, 194.76650989241898, 79.78702565468848, -78.95676786452532, 53.979846010450274, 0.5440000258386135, 0.8320000395178795, 0.33600001595914364, 0.0, 0.0, 0.0, 0.0, 0.0, 1.710391337450282E9, 0.0, 2024-03-13 21:42:17.450
10.0, 192.4664714196697, 70.37743736617267, -111.3517812807113, 44.46180062321946, 0.5440000258386135, 0.8320000395178795, 0.33600001595914364, 0.0, 0.0, 0.0, 0.0, 0.0, 1.710391337450282E9, 0.0, 2024-03-13 21:42:17.450
11.0, 193.43510550819337, 76.91852238867432, -96.61657545529306, 47.094690192025155, 0.5440000258386135, 0.8320000395178795, 0.33600001595914364, 0.0, 0.0, 0.0, 0.0, 0.0, 1.7103913374657922E9, 0.0, 2024-03-13 21:42:17.465
11.0, 189.9794379491359, 70.3662176663056, -75.8115120017901, 50.45686025219038, 0.5440000258386135, 0.8320000395178795, 0.33600001595914364, 0.0, 0.0, 0.0, 0.0, 0.0, 1.7103913374657922E9, 0.0, 2024-03-13 21:42:17.465
12.0, 187.312889280729, 61.742008368484676, -101.66918029543012, 38.208687897305936, 0.5440000258386135, 0.8320000395178795, 0.33600001595914364, 0.0, 0.0, 0.0, 0.0, 0.0, 1.7103913374665048E9, 0.0, 2024-03-13 21:42:17.466
12.0, 191.3145822333172, 69.50604067649692, -100.69680630695075, 49.125455867964774, 0.5440000258386135, 0.8320000395178795, 0.33600001595914364, 0.0, 0.0, 0.0, 0.0, 0.0, 1.7103913374665048E9, 0.0, 2024-03-13 21:42:17.466
13.0, 192.29069612175226, 78.72863396722823, -72.93552893586457, 52.82795682409778, 0.5440000258386135, 0.8320000395178795, 0.33600001595914364, 0.0, 0.0, 0.0, 0.0, 0.0, 1.7103913374804022E9, 0.0, 2024-03-13 21:42:17.480
13.0, 187.03239678405225, 65.16401682794094, -90.09418993256986, 44.660015320871025, 0.5440000258386135, 0.8320000395178795, 0.33600001595914364, 0.0, 0.0, 0.0, 0.0, 0.0, 1.7103913374804022E9, 0.0, 2024-03-13 21:42:17.480
14.0, 197.14134636428207, 76.08826459851116, -102.54805678501725, 49.60042316233739, 0.5440000258386135, 0.8320000395178795, 0.33600001595914364, 0.0, 0.0, 0.0, 0.0, 0.0, 1.710391337496699E9, 0.0, 2024-03-13 21:42:17.496
14.0, 198.62982654664665, 79.71222765557468, -79.27091946080327, 54.09952280903235, 0.5440000258386135, 0.8320000395178795, 0.33600001595914364, 0.0, 0.0, 0.0, 0.0, 0.0, 1.710391337496699E9, 0.0, 2024-03-13 21:42:17.496
15.0, 191.04156953655183, 72.40820304211229, -80.16849545016885, 50.21002685511485, 0.5440000258386135, 0.8320000395178795, 0.33600001595914364, 0.0, 0.0, 0.0, 0.0, 0.0, 1.7103913375111043E9, 0.0, 2024-03-13 21:42:17.511
15.0, 193.47250450775027, 66.91055010724813, -104.27589056454599, 45.456614011432976, 0.5440000258386135, 0.8320000395178795, 0.33600001595914364, 0.0, 0.0, 0.0, 0.0, 0.0, 1.7103913375111043E9, 0.0, 2024-03-13 21:42:17.511
16.0, 203.23364339210093, 79.41677555907518, -90.80477092415094, 54.49221230437979, 0.5440000258386135, 0.8320000395178795, 0.33600001595914364, 0.0, 0.0, 0.0, 0.0, 0.0, 1.7103913375118337E9, 0.0, 2024-03-13 21:42:17.511
16.0, 200.92986501939595, 80.95761434081942, -71.64152355119586, 57.27469787141308, 0.5440000258386135, 0.8320000395178795, 0.33600001595914364, 0.0, 0.0, 0.0, 0.0, 0.0, 1.7103913375118337E9, 0.0, 2024-03-13 21:42:17.511
17.0, 192.04760262463242, 72.18754894472659, -96.10420916136354, 46.638422397430986, 0.5440000258386135, 0.8320000395178795, 0.33600001595914364, 0.0, 0.0, 0.0, 0.0, 0.0, 1.7103913375422769E9, 0.0, 2024-03-13 21:42:17.542
17.0, 199.58724093530327, 83.15667551476508, -100.10216221399605, 51.39183524111286, 0.5440000258386135, 0.8320000395178795, 0.33600001595914364, 0.0, 0.0, 0.0, 0.0, 0.0, 1.7103913375422769E9, 0.0, 2024-03-13 21:42:17.542
18.0, 205.6944975629449, 84.12156970333308, -73.05894563440233, 55.19531349604949, 0.5440000258386135, 0.8320000395178795, 0.33600001595914364, 0.0, 0.0, 0.0, 0.0, 0.0, 1.7103913375429204E9, 0.0, 2024-03-13 21:42:17.542
18.0, 195.7239242810756, 71.80607914924622, -91.1525816200301, 45.63612920930609, 0.5440000258386135, 0.8320000395178795, 0.33600001595914364, 0.0, 0.0, 0.0, 0.0, 0.0, 1.7103913375429204E9, 0.0, 2024-03-13 21:42:17.542
19.0, 199.16089234035462, 79.43547505885363, -104.68727955967188, 51.72468633716926, 0.5440000258386135, 0.8320000395178795, 0.33600001595914364, 0.0, 0.0, 0.0, 0.0, 0.0, 1.710391337543759E9, 0.0, 2024-03-13 21:42:17.543
19.0, 200.11082692909986, 88.66554814949632, -76.3350979955867, 62.353482011239976, 0.5440000258386135, 0.8320000395178795, 0.33600001595914364, 0.0, 0.0, 0.0, 0.0, 0.0, 1.710391337543759E9, 0.0, 2024-03-13 21:42:17.543
20.0, 190.63018054142594, 75.76289330236614, -75.9611080000177, 57.147541272919625, 0.5440000258386135, 0.8320000395178795, 0.35200001671910286, 0.0, 0.0, 0.0, 0.0, 0.0, 1.7103913375445058E9, 0.0, 2024-03-13 21:42:17.544
20.0, 196.48312397208065, 73.84432462509722, -101.39616759866476, 51.159961443860084, 0.5440000258386135, 0.8320000395178795, 0.35200001671910286, 0.0, 0.0, 0.0, 0.0, 0.0, 1.7103913375445058E9, 0.0, 2024-03-13 21:42:17.544
21.0, 198.32689465023577, 82.48723342269659, -79.93288175296038, 59.76173134194687, 0.5440000258386135, 0.8320000395178795, 0.35200001671910286, 0.0, 0.0, 0.0, 0.0, 0.0, 1.7103913375551589E9, 0.0, 2024-03-13 21:42:17.555
21.0, 201.6180066112429, 87.7829317599535, -59.370911796577275, 64.84799528168514, 0.5440000258386135, 0.8320000395178795, 0.35200001671910286, 0.0, 0.0, 0.0, 0.0, 0.0, 1.7103913375551589E9, 0.0, 2024-03-13 21:42:17.555
22.0, 196.4232855727896, 74.7007617149502, -86.71332037262619, 60.745325030293316, 0.5440000258386135, 0.8320000395178795, 0.35200001671910286, 0.0, 0.0, 0.0, 0.0, 0.0, 1.710391337570396E9, 0.0, 2024-03-13 21:42:17.570
22.0, 199.22447063960135, 81.01371284015477, -88.38131575286388, 60.45735273370519, 0.5440000258386135, 0.8320000395178795, 0.35200001671910286, 0.0, 0.0, 0.0, 0.0, 0.0, 1.710391337570396E9, 0.0, 2024-03-13 21:42:17.570
23.0, 196.19515167549253, 76.60063089244068, -72.10527114570141, 56.732412377838045, 0.5440000258386135, 0.8320000395178795, 0.35200001671910286, 0.0, 0.0, 0.0, 0.0, 0.0, 1.7103913375859427E9, 0.0, 2024-03-13 21:42:17.585
23.0, 189.0108038606122, 69.52474017627537, -84.83215069491416, 49.24139276659116, 0.5440000258386135, 0.8320000395178795, 0.35200001671910286, 0.0, 0.0, 0.0, 0.0, 0.0, 1.7103913375859427E9, 0.0, 2024-03-13 21:42:17.585
24.0, 195.06944178882986, 80.04133885167539, -95.06825687363744, 56.332243082579225, 0.5440000258386135, 0.8320000395178795, 0.35200001671910286, 0.0, 0.0, 0.0, 0.0, 0.0, 1.7103913375869403E9, 0.0, 2024-03-13 21:42:17.586
24.0, 195.37985348515213, 80.95013454090804, -74.38661011867225, 57.977799063082784, 0.5440000258386135, 0.8320000395178795, 0.35200001671910286, 0.0, 0.0, 0.0, 0.0, 0.0, 1.7103913375869403E9, 0.0, 2024-03-13 21:42:17.586
25.0, 187.78037677519023, 74.39782981853932, -71.97437464725226, 56.46687948098406, 0.5440000258386135, 0.8320000395178795, 0.35200001671910286, 0.0, 0.0, 0.0, 0.0, 0.0, 1.710391337600152E9, 0.0, 2024-03-13 21:42:17.600
25.0, 191.8269485272467, 69.83515187259763, -100.18817991297692, 47.34152358910069, 0.5440000258386135, 0.8320000395178795, 0.35200001671910286, 0.0, 0.0, 0.0, 0.0, 0.0, 1.710391337600152E9, 0.0, 2024-03-13 21:42:17.600
26.0, 199.17585194017738, 83.49326651077718, -83.1491957148537, 57.65242776693776, 0.5440000258386135, 0.8320000395178795, 0.35200001671910286, 0.0, 0.0, 0.0, 0.0, 0.0, 1.710391337615834E9, 0.0, 2024-03-13 21:42:17.615
26.0, 196.8309346679598, 75.37768360693008, -71.94071554765105, 57.61128886742517, 0.5440000258386135, 0.8320000395178795, 0.35200001671910286, 0.0, 0.0, 0.0, 0.0, 0.0, 1.710391337615834E9, 0.0, 2024-03-13 21:42:17.615
27.0, 191.95784502569586, 65.74744122102857, -97.36081554647535, 45.052704816218466, 0.5440000258386135, 0.8320000395178795, 0.35200001671910286, 0.0, 0.0, 0.0, 0.0, 0.0, 1.7103913376165683E9, 0.0, 2024-03-13 21:42:17.616
27.0, 194.7964290920645, 75.7778529021889, -92.57748350314796, 51.63866863818839, 0.5440000258386135, 0.8320000395178795, 0.35200001671910286, 0.0, 0.0, 0.0, 0.0, 0.0, 1.7103913376165683E9, 0.0, 2024-03-13 21:42:17.616
28.0, 194.67675229348242, 85.38939578831196, -68.8478182842955, 62.46193910995498, 0.5440000258386135, 0.8320000395178795, 0.35200001671910286, 0.0, 0.0, 0.0, 0.0, 0.0, 1.7103913376305676E9, 0.0, 2024-03-13 21:42:17.630
28.0, 185.36440140381455, 66.07655241712928, -80.00393985211849, 53.01869172183797, 0.5440000258386135, 0.8320000395178795, 0.35200001671910286, 0.0, 0.0, 0.0, 0.0, 0.0, 1.7103913376305676E9, 0.0, 2024-03-13 21:42:17.630
29.0, 194.41869919653982, 77.86471707746387, -88.01106565725058, 64.24213148886338, 0.5440000258386135, 0.8320000395178795, 0.35200001671910286, 0.0, 0.0, 0.0, 0.0, 0.0, 1.7103913376459968E9, 0.0, 2024-03-13 21:42:17.645
29.0, 198.5400689477101, 84.84711029473692, -65.22759512718767, 68.32236234052107, 0.5440000258386135, 0.8320000395178795, 0.35200001671910286, 0.0, 0.0, 0.0, 0.0, 0.0, 1.7103913376459968E9, 0.0, 2024-03-13 21:42:17.645
30.0, 197.97160415444523, 76.65298949182034, -65.440769424662, 64.80311648221686, 0.5440000258386135, 0.8320000395178795, 0.35200001671910286, 0.0, 0.0, 0.0, 0.0, 0.0, 1.7103913376468208E9, 0.0, 2024-03-13 21:42:17.646
30.0, 200.40253912564367, 76.02468629926443, -98.65856083109975, 55.61792219104245, 0.5440000258386135, 0.8320000395178795, 0.35200001671910286, 0.0, 0.0, 0.0, 0.0, 0.0, 1.7103913376468208E9, 0.0, 2024-03-13 21:42:17.646
31.0, 201.56938791181892, 81.41762203536928, -82.3712965240702, 57.08770287362859, 0.5440000258386135, 0.8320000395178795, 0.35200001671910286, 0.0, 0.0, 0.0, 0.0, 0.0, 1.7103913376601284E9, 0.0, 2024-03-13 21:42:17.660
31.0, 201.55816821195185, 85.06402449216694, -61.98136196564883, 68.61407453706488, 0.5440000258386135, 0.8320000395178795, 0.35200001671910286, 0.0, 0.0, 0.0, 0.0, 0.0, 1.7103913376601284E9, 0.0, 2024-03-13 21:42:17.660
32.0, 197.47793736029416, 72.00055394694209, -89.65662163775414, 58.84545585280284, 0.5440000258386135, 0.8320000395178795, 0.35200001671910286, 0.0, 0.0, 0.0, 0.0, 0.0, 1.7103913376760023E9, 0.0, 2024-03-13 21:42:17.676
32.0, 198.60364724695683, 83.29505181312561, -91.45551351644099, 66.25793756498024, 0.5440000258386135, 0.8320000395178795, 0.35200001671910286, 0.0, 0.0, 0.0, 0.0, 0.0, 1.7103913376760023E9, 0.0, 2024-03-13 21:42:17.676
33.0, 193.79039600398391, 81.04363203980029, -68.16715649235994, 62.813489705789834, 0.5440000258386135, 0.8320000395178795, 0.35200001671910286, 0.0, 0.0, 0.0, 0.0, 0.0, 1.7103913376767676E9, 0.0, 2024-03-13 21:42:17.676
33.0, 187.74297777563334, 66.74973440915346, -88.58327035047114, 54.15188140841201, 0.5440000258386135, 0.8320000395178795, 0.35200001671910286, 0.0, 0.0, 0.0, 0.0, 0.0, 1.7103913376767676E9, 0.0, 2024-03-13 21:42:17.676
34.0, 187.33906858041883, 66.31216611433774, -108.87222761008888, 52.13981523225084, 0.5440000258386135, 0.8320000395178795, 0.35200001671910286, 0.0, 0.0, 0.0, 0.0, 0.0, 1.710391337690355E9, 0.0, 2024-03-13 21:42:17.690
34.0, 188.68917246442288, 76.45103489421308, -78.76229306682944, 65.13970747822896, 0.5440000258386135, 0.8320000395178795, 0.35200001671910286, 0.0, 0.0, 0.0, 0.0, 0.0, 1.710391337690355E9, 0.0, 2024-03-13 21:42:17.690
35.0, 187.00621748436242, 67.93154279515147, -72.70739503856748, 58.06755666201934, 0.5440000258386135, 0.8320000395178795, 0.35200001671910286, 0.0, 0.0, 0.0, 0.0, 0.0, 1.7103913377058372E9, 0.0, 2024-03-13 21:42:17.705
35.0, 189.51569035463035, 67.4752750005573, -98.1574142370373, 53.549757515545934, 0.5440000258386135, 0.8320000395178795, 0.35200001671910286, 0.0, 0.0, 0.0, 0.0, 0.0, 1.7103913377058372E9, 0.0, 2024-03-13 21:42:17.705
36.0, 200.5783144235611, 82.49097332265228, -83.97571360506117, 65.29304337641224, 0.5440000258386135, 0.8320000395178795, 0.35200001671910286, 0.0, 0.0, 0.0, 0.0, 0.0, 1.7103913377065616E9, 0.0, 2024-03-13 21:42:17.706
36.0, 197.3133817622438, 80.13109645061195, -68.80293948482722, 62.001931415405124, 0.5440000258386135, 0.8320000395178795, 0.35200001671910286, 0.0, 0.0, 0.0, 0.0, 0.0, 1.7103913377065616E9, 0.0, 2024-03-13 21:42:17.706
37.0, 195.04326248914003, 64.5132742356509, -96.44454005733132, 50.292304654140025, 0.5440000258386135, 0.8320000395178795, 0.35200001671910286, 0.0, 0.0, 0.0, 0.0, 0.0, 1.7103913377201257E9, 0.0, 2024-03-13 21:42:17.720
37.0, 197.0964675648138, 71.98185444716364, -96.88584825210273, 51.98273943411186, 0.5440000258386135, 0.8320000395178795, 0.35200001671910286, 0.0, 0.0, 0.0, 0.0, 0.0, 1.7103913377201257E9, 0.0, 2024-03-13 21:42:17.720
38.0, 197.6836318578571, 78.91188906505704, -72.22494794428349, 62.94064630428329, 0.5440000258386135, 0.8320000395178795, 0.35200001671910286, 0.0, 0.0, 0.0, 0.0, 0.0, 1.7103913377359405E9, 0.0, 2024-03-13 21:42:17.735
38.0, 195.81368188001215, 74.19587522093207, -80.0375989517197, 61.42598682222888, 0.5440000258386135, 0.8320000395178795, 0.35200001671910286, 0.0, 0.0, 0.0, 0.0, 0.0, 1.7103913377359405E9, 0.0, 2024-03-13 21:42:17.735
39.0, 204.5800073761493, 81.7803923310712, -93.6396150905639, 63.65870709577575, 0.5440000258386135, 0.8320000395178795, 0.35200001671910286, 0.0, 0.0, 0.0, 0.0, 0.0, 1.71039133773658E9, 0.0, 2024-03-13 21:42:17.736
39.0, 215.2162828501314, 95.49460546858609, -62.66950355749577, 83.25952276354656, 0.5440000258386135, 0.8320000395178795, 0.35200001671910286, 0.0, 0.0, 0.0, 0.0, 0.0, 1.71039133773658E9, 0.0, 2024-03-13 21:42:17.736
40.0, 213.63056526891887, 93.35912259388715, -57.66551741678268, 75.99663704959676, 0.5440000258386135, 0.8320000395178795, 0.35200001671910286, 0.0, 0.0, 0.0, 0.0, 0.0, 1.710391337750772E9, 0.0, 2024-03-13 21:42:17.750
40.0, 210.42547100689262, 88.21302025485784, -90.3784223292023, 67.84739504614845, 0.5440000258386135, 0.8320000395178795, 0.35200001671910286, 0.0, 0.0, 0.0, 0.0, 0.0, 1.710391337750772E9, 0.0, 2024-03-13 21:42:17.750
41.0, 211.92143098916858, 99.69451311882585, -81.52607913408428, 72.20437849452719, 0.5440000258386135, 0.8320000395178795, 0.35200001671910286, 0.0, 0.0, 0.0, 0.0, 0.0, 1.7103913377659547E9, 0.0, 2024-03-13 21:42:17.765
41.0, 209.88692541327327, 90.12784903217107, -59.916937190108, 74.25010377028957, 0.5440000258386135, 0.8320000395178795, 0.35200001671910286, 0.0, 0.0, 0.0, 0.0, 0.0, 1.7103913377659547E9, 0.0, 2024-03-13 21:42:17.765
42.0, 202.3211078029126, 85.68858778476715, -80.6696420442313, 71.34420150471851, 0.5440000258386135, 0.8320000395178795, 0.35200001671910286, 0.0, 0.0, 0.0, 0.0, 0.0, 1.710391337766598E9, 0.0, 2024-03-13 21:42:17.766
42.0, 209.89814511314034, 90.14654853194952, -82.446094523184, 74.00327037321404, 0.5440000258386135, 0.8320000395178795, 0.35200001671910286, 0.0, 0.0, 0.0, 0.0, 0.0, 1.710391337766598E9, 0.0, 2024-03-13 21:42:17.766
43.0, 210.79198120255023, 97.07658314984292, -59.916937190108, 76.30704874591902, 0.5440000258386135, 0.8320000395178795, 0.35200001671910286, 0.0, 0.0, 0.0, 0.0, 0.0, 1.710391337780508E9, 0.0, 2024-03-13 21:42:17.780
43.0, 212.20192348584533, 95.0832164734602, -69.39758357778192, 70.5700422138907, 0.5440000258386135, 0.8320000395178795, 0.35200001671910286, 0.0, 0.0, 0.0, 0.0, 0.0, 1.710391337780508E9, 0.0, 2024-03-13 21:42:17.780
44.0, 211.52500159386545, 92.14739500824362, -90.40834152884781, 72.22681789426133, 0.5440000258386135, 0.8320000395178795, 0.35200001671910286, 0.0, 0.0, 0.0, 0.0, 0.0, 1.710391337795871E9, 0.0, 2024-03-13 21:42:17.795
44.0, 210.5114887058735, 93.7854711888358, -69.04229308199137, 74.59043466625735, 0.5440000258386135, 0.8320000395178795, 0.35200001671910286, 0.0, 0.0, 0.0, 0.0, 0.0, 1.710391337795871E9, 0.0, 2024-03-13 21:42:17.795
45.0, 209.41569801885635, 92.86171589978039, -60.6948363808915, 75.18881865916774, 0.5440000258386135, 0.8320000395178795, 0.35200001671910286, 0.0, 0.0, 0.0, 0.0, 0.0, 1.7103913377965972E9, 0.0, 2024-03-13 21:42:17.796
45.0, 204.96147717162967, 83.68774130847305, -84.51799909863621, 67.37616765173152, 0.5440000258386135, 0.8320000395178795, 0.35200001671910286, 0.0, 0.0, 0.0, 0.0, 0.0, 1.7103913377965972E9, 0.0, 2024-03-13 21:42:17.796
46.0, 209.49049601797014, 88.7852249480784, -69.87629077211022, 75.82834155159071, 0.5440000258386135, 0.8320000395178795, 0.35200001671910286, 0.0, 0.0, 0.0, 0.0, 0.0, 1.7103913378102791E9, 0.0, 2024-03-13 21:42:17.810
46.0, 207.32135404367, 85.1537820911035, -60.35824538487941, 72.4212926919572, 0.5440000258386135, 0.8320000395178795, 0.35200001671910286, 0.0, 0.0, 0.0, 0.0, 0.0, 1.7103913378102791E9, 0.0, 2024-03-13 21:42:17.810
47.0, 204.75578267406672, 78.91188906505704, -90.78981132432818, 62.44697951013222, 0.5440000258386135, 0.8320000395178795, 0.35200001671910286, 0.0, 0.0, 0.0, 0.0, 0.0, 1.7103913378422658E9, 0.0, 2024-03-13 21:42:17.842
47.0, 202.68013819865882, 86.21965357847512, -85.53899178653955, 64.5675027850084, 0.5440000258386135, 0.8320000395178795, 0.35200001671910286, 0.0, 0.0, 0.0, 0.0, 0.0, 1.7103913378422658E9, 0.0, 2024-03-13 21:42:17.842
48.0, 206.2442628564313, 86.53006527479738, -65.6988225216046, 71.35542120458558, 0.5440000258386135, 0.8320000395178795, 0.35200001671910286, 0.0, 0.0, 0.0, 0.0, 0.0, 1.710391337843046E9, 0.0, 2024-03-13 21:42:17.843
48.0, 197.2834625625983, 72.79341273754835, -77.76747967861593, 61.83737581735477, 0.5440000258386135, 0.8320000395178795, 0.35200001671910286, 0.0, 0.0, 0.0, 0.0, 0.0, 1.710391337843046E9, 0.0, 2024-03-13 21:42:17.843
49.0, 203.9479642836377, 79.9665408525616, -95.32630997058004, 63.980338491965085, 0.5440000258386135, 0.8320000395178795, 0.35200001671910286, 0.0, 0.0, 0.0, 0.0, 0.0, 1.7103913378437169E9, 0.0, 2024-03-13 21:42:17.843
49.0, 207.82250063773245, 89.27141194231808, -72.08657164592296, 72.74292408814654, 0.5440000258386135, 0.8320000395178795, 0.35200001671910286, 0.0, 0.0, 0.0, 0.0, 0.0, 1.7103913378437169E9, 0.0, 2024-03-13 21:42:17.843
50.0, 204.68098467495292, 84.83963049482554, -66.41688331309706, 62.30486331181601, 0.5440000258386135, 0.8320000395178795, 0.33600001595914364, 0.0, 0.0, 0.0, 0.0, 0.0, 1.7103913378444853E9, 0.0, 2024-03-13 21:42:17.844
50.0, 199.88269303180277, 80.46394754666835, -93.36660239379853, 56.97550587495789, 0.5440000258386135, 0.8320000395178795, 0.33600001595914364, 0.0, 0.0, 0.0, 0.0, 0.0, 1.7103913378444853E9, 0.0, 2024-03-13 21:42:17.844
51.0, 203.03916859440506, 85.38191598840058, -75.65817610360682, 66.4561522626318, 0.5440000258386135, 0.8320000395178795, 0.33600001595914364, 0.0, 0.0, 0.0, 0.0, 0.0, 1.710391337855811E9, 0.0, 2024-03-13 21:42:17.855
51.0, 199.86399353202432, 88.06342425663024, -61.91404376644641, 69.63880712492391, 0.5440000258386135, 0.8320000395178795, 0.33600001595914364, 0.0, 0.0, 0.0, 0.0, 0.0, 1.710391337855811E9, 0.0, 2024-03-13 21:42:17.855
52.0, 197.12264686450362, 79.64864935632795, -90.15028843190521, 57.932920263614506, 0.5440000258386135, 0.8320000395178795, 0.33600001595914364, 0.0, 0.0, 0.0, 0.0, 0.0, 1.7103913378704703E9, 0.0, 2024-03-13 21:42:17.870
52.0, 201.89101930800825, 83.0781376156956, -93.76303178910166, 61.4933050214313, 0.5440000258386135, 0.8320000395178795, 0.33600001595914364, 0.0, 0.0, 0.0, 0.0, 0.0, 1.7103913378704703E9, 0.0, 2024-03-13 21:42:17.870
53.0, 204.5800073761493, 89.83239693567157, -66.44306261278689, 64.87043468141928, 0.5440000258386135, 0.8320000395178795, 0.33600001595914364, 0.0, 0.0, 0.0, 0.0, 0.0, 1.7103913378859012E9, 0.0, 2024-03-13 21:42:17.885
53.0, 201.12059991713613, 79.73466705530882, -81.99730652850121, 57.62998836720362, 0.5440000258386135, 0.8320000395178795, 0.33600001595914364, 0.0, 0.0, 0.0, 0.0, 0.0, 1.7103913378859012E9, 0.0, 2024-03-13 21:42:17.885
54.0, 200.6493725227192, 76.75022689066827, -100.19191981293261, 57.603809067513794, 0.5440000258386135, 0.8320000395178795, 0.33600001595914364, 0.0, 0.0, 0.0, 0.0, 0.0, 1.7103913378868093E9, 0.0, 2024-03-13 21:42:17.886
54.0, 199.96871073078364, 85.50159278698266, -78.35838387161493, 63.79708339413628, 0.5440000258386135, 0.8320000395178795, 0.33600001595914364, 0.0, 0.0, 0.0, 0.0, 0.0, 1.7103913378868093E9, 0.0, 2024-03-13 21:42:17.886
55.0, 198.97763724252582, 83.67652160860598, -71.55550585221499, 59.66075404314324, 0.5440000258386135, 0.8320000395178795, 0.33600001595914364, 0.0, 0.0, 0.0, 0.0, 0.0, 1.7103913379002385E9, 0.0, 2024-03-13 21:42:17.900
55.0, 197.71729095745832, 73.23098103236407, -98.84929572883993, 54.05090410960838, 0.5440000258386135, 0.8320000395178795, 0.33600001595914364, 0.0, 0.0, 0.0, 0.0, 0.0, 1.7103913379002385E9, 0.0, 2024-03-13 21:42:17.900
56.0, 203.77592888567597, 86.65722187329084, -77.8123584780842, 66.52721036178991, 0.5440000258386135, 0.8320000395178795, 0.33600001595914364, 0.0, 0.0, 0.0, 0.0, 0.0, 1.7103913379160929E9, 0.0, 2024-03-13 21:42:17.916
56.0, 208.394705330953, 84.75735269580036, -63.05097335297614, 71.93510569771752, 0.5440000258386135, 0.8320000395178795, 0.33600001595914364, 0.0, 0.0, 0.0, 0.0, 0.0, 1.7103913379160929E9, 0.0, 2024-03-13 21:42:17.916
57.0, 196.5766214709729, 78.4818005701527, -85.3744361884892, 55.43840699316934, 0.5440000258386135, 0.8320000395178795, 0.33600001595914364, 0.0, 0.0, 0.0, 0.0, 0.0, 1.7103913379167447E9, 0.0, 2024-03-13 21:42:17.916
57.0, 201.56938791181892, 83.32871091272682, -89.92589443456382, 63.11642160220072, 0.5440000258386135, 0.8320000395178795, 0.33600001595914364, 0.0, 0.0, 0.0, 0.0, 0.0, 1.7103913379167447E9, 0.0, 2024-03-13 21:42:17.916
58.0, 198.77568264491856, 84.63767589721829, -66.26728731486946, 65.42767977481708, 0.5440000258386135, 0.8320000395178795, 0.33600001595914364, 0.0, 0.0, 0.0, 0.0, 0.0, 1.7103913379304528E9, 0.0, 2024-03-13 21:42:17.930
58.0, 196.56914167106152, 76.97462088800967, -77.8908963771537, 60.786463929805905, 0.5440000258386135, 0.8320000395178795, 0.33600001595914364, 0.0, 0.0, 0.0, 0.0, 0.0, 1.7103913379304528E9, 0.0, 2024-03-13 21:42:17.930
59.0, 199.62090003490448, 76.09948429837823, -93.0449709976092, 64.01773749152198, 0.5440000258386135, 0.8320000395178795, 0.33600001595914364, 0.0, 0.0, 0.0, 0.0, 0.0, 1.710391337946109E9, 0.0, 2024-03-13 21:42:17.946
59.0, 205.38408586662263, 89.043278045021, -69.78279327321798, 69.23115802975371, 0.5440000258386135, 0.8320000395178795, 0.33600001595914364, 0.0, 0.0, 0.0, 0.0, 0.0, 1.710391337946109E9, 0.0, 2024-03-13 21:42:17.946
60.0, 202.43704470153898, 81.89632922969759, -76.42111569456756, 61.33248932333663, 0.5440000258386135, 0.8320000395178795, 0.33600001595914364, 0.0, 0.0, 0.0, 0.0, 0.0, 1.7103913379468176E9, 0.0, 2024-03-13 21:42:17.946
60.0, 196.98801046609879, 77.91333577688783, -97.43561354558915, 55.28881099494174, 0.5440000258386135, 0.8320000395178795, 0.33600001595914364, 0.0, 0.0, 0.0, 0.0, 0.0, 1.7103913379468176E9, 0.0, 2024-03-13 21:42:17.946
61.0, 202.69883769843727, 88.36635615304112, -81.95616762898862, 59.64953434327617, 0.5440000258386135, 0.8320000395178795, 0.33600001595914364, 0.0, 0.0, 0.0, 0.0, 0.0, 1.710391337960358E9, 0.0, 2024-03-13 21:42:17.960
61.0, 202.96811049524695, 82.50219302251935, -65.93817611876875, 59.63457474345341, 0.5440000258386135, 0.8320000395178795, 0.33600001595914364, 0.0, 0.0, 0.0, 0.0, 0.0, 1.710391337960358E9, 0.0, 2024-03-13 21:42:17.960
62.0, 202.59038059972227, 79.0016466639936, -89.9333742344752, 53.70309341372922, 0.5280000250786543, 0.8320000395178795, 0.33600001595914364, 0.0, 0.0, 0.0, 0.0, 0.0, 1.710391337975893E9, 0.0, 2024-03-13 21:42:17.975
62.0, 206.30036135576665, 85.57639078609645, -95.23655237164348, 61.612981820013374, 0.5280000250786543, 0.8320000395178795, 0.33600001595914364, 0.0, 0.0, 0.0, 0.0, 0.0, 1.710391337975893E9, 0.0, 2024-03-13 21:42:17.975
63.0, 210.24221590906382, 94.90370127558708, -67.10876480489969, 66.25793756498024, 0.5280000250786543, 0.8320000395178795, 0.33600001595914364, 0.0, 0.0, 0.0, 0.0, 0.0, 1.7103913379766045E9, 0.0, 2024-03-13 21:42:17.976
63.0, 202.1378527050838, 80.95013454090804, -73.70594832673669, 59.997345039155334, 0.5280000250786543, 0.8320000395178795, 0.33600001595914364, 0.0, 0.0, 0.0, 0.0, 0.0, 1.7103913379766045E9, 0.0, 2024-03-13 21:42:17.976
64.0, 202.9830700950697, 74.19587522093207, -93.65457469038665, 57.28965747123584, 0.5280000250786543, 0.8320000395178795, 0.33600001595914364, 0.0, 0.0, 0.0, 0.0, 0.0, 1.7103913379901683E9, 0.0, 2024-03-13 21:42:17.990
64.0, 205.69823746290058, 80.07125805132091, -67.82308569643646, 69.77718342328444, 0.5280000250786543, 0.8320000395178795, 0.33600001595914364, 0.0, 0.0, 0.0, 0.0, 0.0, 1.7103913379901683E9, 0.0, 2024-03-13 21:42:17.990
65.0, 198.8392609441653, 76.04712569899857, -66.86941120773554, 58.53504415648058, 0.5280000250786543, 0.8320000395178795, 0.33600001595914364, 0.0, 0.0, 0.0, 0.0, 0.0, 1.7103913380059059E9, 0.0, 2024-03-13 21:42:18.005
65.0, 196.77857606858015, 73.47033462952822, -97.00552505068481, 49.8210772597231, 0.5280000250786543, 0.8320000395178795, 0.33600001595914364, 0.0, 0.0, 0.0, 0.0, 0.0, 1.7103913380059059E9, 0.0, 2024-03-13 21:42:18.005
66.0, 203.59267378784716, 87.595936762169, -82.77520571928471, 58.306910259183496, 0.5280000250786543, 0.8320000395178795, 0.33600001595914364, 0.0, 0.0, 0.0, 0.0, 0.0, 1.7103913380066314E9, 0.0, 2024-03-13 21:42:18.006
66.0, 204.89415897242725, 85.78956508357078, -66.47298181243241, 57.42803376959637, 0.5280000250786543, 0.8320000395178795, 0.33600001595914364, 0.0, 0.0, 0.0, 0.0, 0.0, 1.7103913380066314E9, 0.0, 2024-03-13 21:42:18.006
67.0, 195.9782374780625, 74.88401681277901, -93.5274180918932, 53.497398916166276, 0.5280000250786543, 0.8320000395178795, 0.33600001595914364, 0.0, 0.0, 0.0, 0.0, 0.0, 1.7103913380203176E9, 0.0, 2024-03-13 21:42:18.020
67.0, 196.1689723758027, 78.58651776891202, -96.25006525963545, 58.411627457942814, 0.5280000250786543, 0.8320000395178795, 0.33600001595914364, 0.0, 0.0, 0.0, 0.0, 0.0, 1.7103913380203176E9, 0.0, 2024-03-13 21:42:18.020
68.0, 199.34788733813912, 82.19926112610847, -69.23302797973156, 63.625047996174544, 0.5280000250786543, 0.8320000395178795, 0.33600001595914364, 0.0, 0.0, 0.0, 0.0, 0.0, 1.7103913380359604E9, 0.0, 2024-03-13 21:42:18.035
68.0, 198.18477845191956, 76.30143889598548, -80.08621765114367, 56.94932657526806, 0.5280000250786543, 0.8320000395178795, 0.33600001595914364, 0.0, 0.0, 0.0, 0.0, 0.0, 1.7103913380359604E9, 0.0, 2024-03-13 21:42:18.035
69.0, 207.77388193830848, 87.47625996358693, -97.54033074434847, 59.27180444775149, 0.5280000250786543, 0.8320000395178795, 0.33600001595914364, 0.0, 0.0, 0.0, 0.0, 0.0, 1.7103913380365674E9, 0.0, 2024-03-13 21:42:18.036
69.0, 208.12917243409902, 91.85568281169981, -79.84686405397952, 69.39945352775976, 0.5280000250786543, 0.8320000395178795, 0.33600001595914364, 0.0, 0.0, 0.0, 0.0, 0.0, 1.7103913380365674E9, 0.0, 2024-03-13 21:42:18.036
70.0, 206.97728324774653, 87.07235076837242, -73.46659472957253, 63.80456319404766, 0.5280000250786543, 0.8320000395178795, 0.35200001671910286, 0.0, 0.0, 0.0, 0.0, 0.0, 1.7103913380502343E9, 0.0, 2024-03-13 21:42:18.050
70.0, 210.44791040662676, 88.14196215569973, -95.5245246682316, 65.28182367654517, 0.5280000250786543, 0.8320000395178795, 0.35200001671910286, 0.0, 0.0, 0.0, 0.0, 0.0, 1.7103913380502343E9, 0.0, 2024-03-13 21:42:18.050
71.0, 216.82817973103374, 101.1605539014563, -69.83889177255332, 77.25324343470857, 0.5280000250786543, 0.8320000395178795, 0.35200001671910286, 0.0, 0.0, 0.0, 0.0, 0.0, 1.7103913380659184E9, 0.0, 2024-03-13 21:42:18.065
71.0, 207.6542051397264, 90.77111182454973, -55.384178443811834, 76.68851854139939, 0.5280000250786543, 0.8320000395178795, 0.35200001671910286, 0.0, 0.0, 0.0, 0.0, 0.0, 1.7103913380659184E9, 0.0, 2024-03-13 21:42:18.065
72.0, 200.88498621992767, 81.06233153957874, -83.95701410528272, 61.986971815582365, 0.5440000258386135, 0.8320000395178795, 0.35200001671910286, 0.0, 0.0, 0.0, 0.0, 0.0, 1.7103913380666227E9, 0.0, 2024-03-13 21:42:18.066
72.0, 209.36707931943238, 87.01625226903707, -87.40520186442882, 66.13826076639816, 0.5440000258386135, 0.8320000395178795, 0.35200001671910286, 0.0, 0.0, 0.0, 0.0, 0.0, 1.7103913380666227E9, 0.0, 2024-03-13 21:42:18.066
73.0, 214.40846445970237, 95.35996907018125, -57.781454315409064, 70.940292309504, 0.5440000258386135, 0.8320000395178795, 0.35200001671910286, 0.0, 0.0, 0.0, 0.0, 0.0, 1.710391338080439E9, 0.0, 2024-03-13 21:42:18.080
73.0, 213.72032286785543, 92.73081940133125, -70.3288186667487, 67.19291255390272, 0.5440000258386135, 0.8320000395178795, 0.35200001671910286, 0.0, 0.0, 0.0, 0.0, 0.0, 1.710391338080439E9, 0.0, 2024-03-13 21:42:18.080
74.0, 210.18611740972847, 86.36176977679133, -95.69656006619334, 58.94643315160647, 0.5440000258386135, 0.8320000395178795, 0.35200001671910286, 0.0, 0.0, 0.0, 0.0, 0.0, 1.710391338096256E9, 0.0, 2024-03-13 21:42:18.096
74.0, 210.22725630924106, 92.92529419902712, -70.13808376900852, 69.32465552864596, 0.5440000258386135, 0.8320000395178795, 0.35200001671910286, 0.0, 0.0, 0.0, 0.0, 0.0, 1.710391338096256E9, 0.0, 2024-03-13 21:42:18.096
75.0, 208.40966493077576, 85.21736039035022, -70.72524806205183, 64.93027308071032, 0.5440000258386135, 0.8320000395178795, 0.35200001671910286, 0.0, 0.0, 0.0, 0.0, 0.0, 1.7103913380968292E9, 0.0, 2024-03-13 21:42:18.096
75.0, 210.59376650489867, 84.88076939433813, -94.61946887895465, 59.72807224234566, 0.5440000258386135, 0.8320000395178795, 0.35200001671910286, 0.0, 0.0, 0.0, 0.0, 0.0, 1.7103913380968292E9, 0.0, 2024-03-13 21:42:18.096
76.0, 206.28914165589958, 84.94434769358486, -83.76627920754254, 64.825555881951, 0.5440000258386135, 0.8320000395178795, 0.35200001671910286, 0.0, 0.0, 0.0, 0.0, 0.0, 1.7103913381101308E9, 0.0, 2024-03-13 21:42:18.110
76.0, 203.1289261933416, 80.16475555021316, -66.74225460924208, 62.18144661327824, 0.5440000258386135, 0.8320000395178795, 0.35200001671910286, 0.0, 0.0, 0.0, 0.0, 0.0, 1.7103913381101308E9, 0.0, 2024-03-13 21:42:18.110
77.0, 196.60654067061841, 71.15907645691186, -93.57229689136147, 50.677514349576086, 0.5440000258386135, 0.8320000395178795, 0.35200001671910286, 0.0, 0.0, 0.0, 0.0, 0.0, 1.7103913381261754E9, 0.0, 2024-03-13 21:42:18.126
77.0, 203.71983038634062, 83.26513261348009, -91.97535961028188, 58.329349658917636, 0.5440000258386135, 0.8320000395178795, 0.35200001671910286, 0.0, 0.0, 0.0, 0.0, 0.0, 1.7103913381261754E9, 0.0, 2024-03-13 21:42:18.126
78.0, 204.19479768071324, 84.04677170421928, -71.89209684822708, 61.24273172440007, 0.5440000258386135, 0.8320000395178795, 0.35200001671910286, 0.0, 0.0, 0.0, 0.0, 0.0, 1.7103913381267638E9, 0.0, 2024-03-13 21:42:18.126
78.0, 202.34354720264673, 76.86616378929466, -87.8951287586242, 55.113035697024316, 0.5440000258386135, 0.8320000395178795, 0.35200001671910286, 0.0, 0.0, 0.0, 0.0, 0.0, 1.7103913381267638E9, 0.0, 2024-03-13 21:42:18.126
79.0, 205.41774496622384, 78.41074247099459, -95.71525956597179, 56.709972978103906, 0.5440000258386135, 0.8320000395178795, 0.35200001671910286, 0.0, 0.0, 0.0, 0.0, 0.0, 1.7103913381402073E9, 0.0, 2024-03-13 21:42:18.140
79.0, 208.42088463064283, 88.81140424776822, -70.43353586550802, 65.25564437685534, 0.5440000258386135, 0.8320000395178795, 0.35200001671910286, 0.0, 0.0, 0.0, 0.0, 0.0, 1.7103913381402073E9, 0.0, 2024-03-13 21:42:18.140
80.0, 210.01782191172242, 86.67966127302498, -70.74768746178597, 63.89058089302853, 0.5440000258386135, 0.8320000395178795, 0.35200001671910286, 0.0, 0.0, 0.0, 0.0, 0.0, 1.7103913381559014E9, 0.0, 2024-03-13 21:42:18.155
80.0, 207.75892233848572, 82.61439002119005, -89.72393983695656, 68.13162744278088, 0.5440000258386135, 0.8320000395178795, 0.35200001671910286, 0.0, 0.0, 0.0, 0.0, 0.0, 1.7103913381559014E9, 0.0, 2024-03-13 21:42:18.155
81.0, 209.81586731411517, 92.61114260274917, -75.32158510759473, 71.03378980839625, 0.5440000258386135, 0.8320000395178795, 0.35200001671910286, 0.0, 0.0, 0.0, 0.0, 0.0, 1.7103913381566124E9, 0.0, 2024-03-13 21:42:18.156
81.0, 208.44332403037697, 88.77026534825563, -64.0308271413669, 70.10255471942946, 0.5440000258386135, 0.8320000395178795, 0.35200001671910286, 0.0, 0.0, 0.0, 0.0, 0.0, 1.7103913381566124E9, 0.0, 2024-03-13 21:42:18.156
82.0, 202.39964570198208, 82.24413992557675, -80.01889945194125, 67.7538975472562, 0.5440000258386135, 0.8320000395178795, 0.35200001671910286, 0.0, 0.0, 0.0, 0.0, 0.0, 1.710391338170153E9, 0.0, 2024-03-13 21:42:18.170
82.0, 207.3550131432712, 83.77375900745392, -83.93457470554858, 68.95440543303266, 0.5440000258386135, 0.8320000395178795, 0.35200001671910286, 0.0, 0.0, 0.0, 0.0, 0.0, 1.710391338170153E9, 0.0, 2024-03-13 21:42:18.170
83.0, 203.70861068647355, 84.1140899034217, -66.5515197115019, 69.59018842549995, 0.5440000258386135, 0.8320000395178795, 0.35200001671910286, 0.0, 0.0, 0.0, 0.0, 0.0, 1.71039133818588E9, 0.0, 2024-03-13 21:42:18.185
83.0, 194.3850400969386, 72.11275094561279, -79.53271245770156, 56.80721037695184, 0.5440000258386135, 0.8320000395178795, 0.35200001671910286, 0.0, 0.0, 0.0, 0.0, 0.0, 1.71039133818588E9, 0.0, 2024-03-13 21:42:18.185
84.0, 195.26765648648143, 74.5549056166783, -97.16634074877948, 60.408734034281224, 0.5440000258386135, 0.8320000395178795, 0.35200001671910286, 0.0, 0.0, 0.0, 0.0, 0.0, 1.710391338186728E9, 0.0, 2024-03-13 21:42:18.186
84.0, 201.60678691137582, 84.59279709775001, -70.11564436927438, 70.41296641575173, 0.5440000258386135, 0.8320000395178795, 0.35200001671910286, 0.0, 0.0, 0.0, 0.0, 0.0, 1.710391338186728E9, 0.0, 2024-03-13 21:42:18.186
85.0, 202.7998149972409, 86.05135808046907, -66.44306261278689, 67.63796064862981, 0.5440000258386135, 0.8320000395178795, 0.35200001671910286, 0.0, 0.0, 0.0, 0.0, 0.0, 1.7103913382002308E9, 0.0, 2024-03-13 21:42:18.200
85.0, 206.67435135133564, 86.73949967231601, -88.82636384759098, 65.89142736932263, 0.5440000258386135, 0.8320000395178795, 0.35200001671910286, 0.0, 0.0, 0.0, 0.0, 0.0, 1.7103913382002308E9, 0.0, 2024-03-13 21:42:18.200
86.0, 207.34753334335983, 90.84590982366353, -76.31265859585255, 73.26277018198743, 0.5440000258386135, 0.8320000395178795, 0.35200001671910286, 0.0, 0.0, 0.0, 0.0, 0.0, 1.7103913382159357E9, 0.0, 2024-03-13 21:42:18.215
86.0, 205.77303546201438, 89.69776053726673, -65.47068862430751, 73.39740658039227, 0.5440000258386135, 0.8320000395178795, 0.35200001671910286, 0.0, 0.0, 0.0, 0.0, 0.0, 1.7103913382159357E9, 0.0, 2024-03-13 21:42:18.215
87.0, 200.92986501939595, 83.9308348055929, -84.06173130404204, 66.65810686023906, 0.5440000258386135, 0.8320000395178795, 0.35200001671910286, 0.0, 0.0, 0.0, 0.0, 0.0, 1.710391338216627E9, 0.0, 2024-03-13 21:42:18.216
87.0, 208.53682152926922, 91.02916492149234, -84.41702179983258, 68.31862244056538, 0.5440000258386135, 0.8320000395178795, 0.35200001671910286, 0.0, 0.0, 0.0, 0.0, 0.0, 1.710391338216627E9, 0.0, 2024-03-13 21:42:18.216
88.0, 211.29312779661268, 95.02337807416916, -54.176190758123994, 76.04151584906504, 0.5440000258386135, 0.8320000395178795, 0.35200001671910286, 0.0, 0.0, 0.0, 0.0, 0.0, 1.710391338230481E9, 0.0, 2024-03-13 21:42:18.230
88.0, 201.18417821638286, 79.79824535455555, -71.63030385132879, 72.7952826875262, 0.5440000258386135, 0.8320000395178795, 0.35200001671910286, 0.0, 0.0, 0.0, 0.0, 0.0, 1.710391338230481E9, 0.0, 2024-03-13 21:42:18.230
89.0, 202.5006230007857, 82.45357432309538, -90.54671782720834, 71.07118880795315, 0.5440000258386135, 0.8320000395178795, 0.35200001671910286, 0.0, 0.0, 0.0, 0.0, 0.0, 1.710391338245894E9, 0.0, 2024-03-13 21:42:18.245
89.0, 206.15450525749475, 87.54731806274503, -65.87085791956633, 79.36628690967336, 0.5440000258386135, 0.8320000395178795, 0.35200001671910286, 0.0, 0.0, 0.0, 0.0, 0.0, 1.710391338245894E9, 0.0, 2024-03-13 21:42:18.245
90.0, 204.11999968159944, 79.53271245770156, -62.67698335740715, 69.67246622452512, 0.5440000258386135, 0.8320000395178795, 0.35200001671910286, 0.0, 0.0, 0.0, 0.0, 0.0, 1.7103913382467115E9, 0.0, 2024-03-13 21:42:18.246
90.0, 204.40049217827618, 80.81175824254751, -86.87413607072085, 67.5706424494274, 0.5440000258386135, 0.8320000395178795, 0.35200001671910286, 0.0, 0.0, 0.0, 0.0, 0.0, 1.7103913382467115E9, 0.0, 2024-03-13 21:42:18.246
91.0, 205.30928786750883, 91.87064241152257, -68.27935349103063, 78.47993062017485, 0.5440000258386135, 0.8320000395178795, 0.35200001671910286, 0.0, 0.0, 0.0, 0.0, 0.0, 1.7103913382602966E9, 0.0, 2024-03-13 21:42:18.260
91.0, 206.3938588546589, 92.58496330305934, -55.02140814810991, 82.4292649733834, 0.5440000258386135, 0.8320000395178795, 0.35200001671910286, 0.0, 0.0, 0.0, 0.0, 0.0, 1.7103913382602966E9, 0.0, 2024-03-13 21:42:18.260
92.0, 200.73165032174438, 80.81923804245889, -77.22519418504089, 71.69201220059767, 0.5440000258386135, 0.8320000395178795, 0.35200001671910286, 0.0, 0.0, 0.0, 0.0, 0.0, 1.710391338276122E9, 0.0, 2024-03-13 21:42:18.276
92.0, 203.25608279183507, 83.82237770687789, -81.28672553692013, 73.84993447503075, 0.5440000258386135, 0.8320000395178795, 0.35200001671910286, 0.0, 0.0, 0.0, 0.0, 0.0, 1.710391338276122E9, 0.0, 2024-03-13 21:42:18.276
93.0, 199.93879153113812, 85.26971898972988, -63.73163514491171, 75.4618313559331, 0.5440000258386135, 0.8320000395178795, 0.35200001671910286, 0.0, 0.0, 0.0, 0.0, 0.0, 1.710391338276702E9, 0.0, 2024-03-13 21:42:18.276
93.0, 192.40663302037865, 74.36043081898242, -79.45791445858777, 59.81782984128222, 0.5440000258386135, 0.8320000395178795, 0.35200001671910286, 0.0, 0.0, 0.0, 0.0, 0.0, 1.710391338276702E9, 0.0, 2024-03-13 21:42:18.276
94.0, 196.1278334762901, 71.9220160478726, -93.05619069747627, 61.27265092404559, 0.5440000258386135, 0.8320000395178795, 0.35200001671910286, 0.0, 0.0, 0.0, 0.0, 0.0, 1.7103913382901733E9, 0.0, 2024-03-13 21:42:18.290
94.0, 199.93505163118243, 85.7446862841025, -67.49023460038006, 71.10110800759867, 0.5440000258386135, 0.8320000395178795, 0.35200001671910286, 0.0, 0.0, 0.0, 0.0, 0.0, 1.7103913382901733E9, 0.0, 2024-03-13 21:42:18.290
95.0, 199.0935741411522, 80.43028844706714, -70.93094255961478, 64.60116188460961, 0.5440000258386135, 0.8320000395178795, 0.35200001671910286, 0.0, 0.0, 0.0, 0.0, 0.0, 1.7103913383059585E9, 0.0, 2024-03-13 21:42:18.305
95.0, 201.5058096125722, 81.50737963430583, -89.08441694453359, 57.62624846724793, 0.5440000258386135, 0.8320000395178795, 0.35200001671910286, 0.0, 0.0, 0.0, 0.0, 0.0, 1.7103913383059585E9, 0.0, 2024-03-13 21:42:18.305
96.0, 204.23967648018152, 86.9302345700562, -76.46225459408015, 69.15636003063992, 0.5440000258386135, 0.8320000395178795, 0.35200001671910286, 0.0, 0.0, 0.0, 0.0, 0.0, 1.710391338306532E9, 0.0, 2024-03-13 21:42:18.306
96.0, 200.9448246192187, 85.51281248684973, -60.65369748137891, 69.37327422806993, 0.5440000258386135, 0.8320000395178795, 0.35200001671910286, 0.0, 0.0, 0.0, 0.0, 0.0, 1.710391338306532E9, 0.0, 2024-03-13 21:42:18.306
97.0, 198.49519014824182, 76.0733049986884, -89.9670333340764, 60.419953734148294, 0.5440000258386135, 0.8320000395178795, 0.35200001671910286, 0.0, 0.0, 0.0, 0.0, 0.0, 1.7103913383203423E9, 0.0, 2024-03-13 21:42:18.320
97.0, 200.6905114222318, 74.5885647162795, -84.7049940964207, 61.972012215759605, 0.5440000258386135, 0.8320000395178795, 0.35200001671910286, 0.0, 0.0, 0.0, 0.0, 0.0, 1.7103913383203423E9, 0.0, 2024-03-13 21:42:18.320
98.0, 204.3144744792953, 83.97571360506117, -64.43473633658141, 70.02027692040429, 0.5440000258386135, 0.8320000395178795, 0.35200001671910286, 0.0, 0.0, 0.0, 0.0, 0.0, 1.710391338335938E9, 0.0, 2024-03-13 21:42:18.335
98.0, 200.3913194257766, 80.17971515003592, -73.24594063218683, 61.84485561726615, 0.5440000258386135, 0.8320000395178795, 0.35200001671910286, 0.0, 0.0, 0.0, 0.0, 0.0, 1.710391338335938E9, 0.0, 2024-03-13 21:42:18.335
99.0, 199.81911473255605, 76.35379749536514, -91.01046542171389, 64.64604068407789, 0.5440000258386135, 0.8320000395178795, 0.35200001671910286, 0.0, 0.0, 0.0, 0.0, 0.0, 1.7103913383366194E9, 0.0, 2024-03-13 21:42:18.336
99.0, 206.1320658577606, 86.34681017696857, -66.43184291291982, 73.50960357906297, 0.5440000258386135, 0.8320000395178795, 0.35200001671910286, 0.0, 0.0, 0.0, 0.0, 0.0, 1.7103913383366194E9, 0.0, 2024-03-13 21:42:18.336
100.0, 196.03807587735355, 70.98330115899444, -70.01840697042644, 63.00422460353002, 0.5440000258386135, 0.8320000395178795, 0.35200001671910286, 0.0, 0.0, 0.0, 0.0, 0.0, 1.7103913383508778E9, 0.0, 2024-03-13 21:42:18.350
100.0, 199.1721120402217, 73.28333963174373, -88.65058854967356, 64.59368208469823, 0.5440000258386135, 0.8320000395178795, 0.35200001671910286, 0.0, 0.0, 0.0, 0.0, 0.0, 1.7103913383508778E9, 0.0, 2024-03-13 21:42:18.350
0.0, 202.69696774845943, 85.23045004019514, -81.20444773789495, 74.63905336568132, 0.5440000258386135, 0.8320000395178795, 0.35200001671910286, 0.0, 0.0, 0.0, 0.0, 0.0, 1.710391338351659E9, 0.0, 2024-03-13 21:42:18.351
1.0, 197.02727941563353, 80.00954970205203, -65.74744122102857, 73.67041927715763, 0.5440000258386135, 0.8320000395178795, 0.35200001671910286, 0.0, 0.0, 0.0, 0.0, 0.0, 1.7103913383652017E9, 0.0, 2024-03-13 21:42:18.365
1.0, 188.30957261892036, 66.98347815638408, -85.46419378742576, 58.763178053777665, 0.5440000258386135, 0.8320000395178795, 0.35200001671910286, 0.0, 0.0, 0.0, 0.0, 0.0, 1.7103913383652017E9, 0.0, 2024-03-13 21:42:18.365
2.0, 190.20570189645514, 72.67186598898843, -94.7092264778912, 60.98093872750178, 0.5440000258386135, 0.8320000395178795, 0.35200001671910286, 0.0, 0.0, 0.0, 0.0, 0.0, 1.7103913383976977E9, 0.0, 2024-03-13 21:42:18.397
2.0, 197.49476691009477, 79.92353200307116, -61.97762206569314, 71.95006529754028, 0.5440000258386135, 0.8320000395178795, 0.35200001671910286, 0.0, 0.0, 0.0, 0.0, 0.0, 1.7103913383976977E9, 0.0, 2024-03-13 21:42:18.397
3.0, 193.06298546260223, 72.66812608903274, -73.41423613019288, 62.91446700459346, 0.5440000258386135, 0.8320000395178795, 0.35200001671910286, 0.0, 0.0, 0.0, 0.0, 0.0, 1.710391338398192E9, 0.0, 2024-03-13 21:42:18.398
3.0, 197.8126584063284, 81.26241618720815, -91.1937205195427, 65.13222767831758, 0.5440000258386135, 0.8320000395178795, 0.35200001671910286, 0.0, 0.0, 0.0, 0.0, 0.0, 1.710391338398192E9, 0.0, 2024-03-13 21:42:18.398
4.0, 202.99241984495893, 92.37739885551855, -67.83056549634784, 73.29642928158864, 0.5440000258386135, 0.8320000395178795, 0.35200001671910286, 0.0, 0.0, 0.0, 0.0, 0.0, 1.7103913383988595E9, 0.0, 2024-03-13 21:42:18.398
4.0, 201.64231596095487, 82.4629240729846, -65.52304722368717, 64.92653318075463, 0.5440000258386135, 0.8320000395178795, 0.35200001671910286, 0.0, 0.0, 0.0, 0.0, 0.0, 1.7103913383988595E9, 0.0, 2024-03-13 21:42:18.398
5.0, 193.79974575387314, 67.7912965468131, -102.05438999086618, 52.43900722870603, 0.5440000258386135, 0.8320000395178795, 0.35200001671910286, 0.0, 0.0, 0.0, 0.0, 0.0, 1.7103913383994625E9, 0.0, 2024-03-13 21:42:18.399
5.0, 196.66076921997592, 77.39161973306909, -85.96160048153251, 57.33079637074843, 0.5440000258386135, 0.8320000395178795, 0.35200001671910286, 0.0, 0.0, 0.0, 0.0, 0.0, 1.7103913383994625E9, 0.0, 2024-03-13 21:42:18.399
6.0, 193.4444552580826, 76.00037694955245, -67.45657550077885, 58.722039154265076, 0.5440000258386135, 0.8320000395178795, 0.35200001671910286, 0.0, 0.0, 0.0, 0.0, 0.0, 1.7103913384103355E9, 0.0, 2024-03-13 21:42:18.410
6.0, 188.07769882166758, 63.142600901890546, -91.18624071963131, 51.32825694186613, 0.5440000258386135, 0.8320000395178795, 0.35200001671910286, 0.0, 0.0, 0.0, 0.0, 0.0, 1.7103913384103355E9, 0.0, 2024-03-13 21:42:18.410
7.0, 194.259753448423, 73.460984879639, -91.47795291617513, 60.70792603073642, 0.5440000258386135, 0.8320000395178795, 0.35200001671910286, 0.0, 0.0, 0.0, 0.0, 0.0, 1.710391338425275E9, 0.0, 2024-03-13 21:42:18.425
7.0, 197.6668023080565, 77.15226613590494, -65.89703721925616, 59.85896874079481, 0.5440000258386135, 0.8320000395178795, 0.35200001671910286, 0.0, 0.0, 0.0, 0.0, 0.0, 1.710391338425275E9, 0.0, 2024-03-13 21:42:18.425
8.0, 193.48933405755088, 74.66897256532684, -77.20275478530675, 54.89238159963861, 0.5440000258386135, 0.8320000395178795, 0.35200001671910286, 0.0, 0.0, 0.0, 0.0, 0.0, 1.7103913384408915E9, 0.0, 2024-03-13 21:42:18.440
8.0, 204.08447063202038, 80.30500179855153, -93.9724661866203, 64.52262398554012, 0.5440000258386135, 0.8320000395178795, 0.35200001671910286, 0.0, 0.0, 0.0, 0.0, 0.0, 1.7103913384408915E9, 0.0, 2024-03-13 21:42:18.440
9.0, 208.7855248763226, 87.8035012097098, -68.20455549191684, 68.32984214043245, 0.5440000258386135, 0.8320000395178795, 0.35200001671910286, 0.0, 0.0, 0.0, 0.0, 0.0, 1.7103913384416444E9, 0.0, 2024-03-13 21:42:18.441
9.0, 206.6313425018452, 84.70312414644286, -67.1798229040578, 62.749911406543106, 0.5440000258386135, 0.8320000395178795, 0.35200001671910286, 0.0, 0.0, 0.0, 0.0, 0.0, 1.7103913384416444E9, 0.0, 2024-03-13 21:42:18.441
10.0, 197.1880951137282, 73.22537118243054, -95.0832164734602, 56.41826078156009, 0.5440000258386135, 0.8320000395178795, 0.35200001671910286, 0.0, 0.0, 0.0, 0.0, 0.0, 1.710391338455213E9, 0.0, 2024-03-13 21:42:18.455
10.0, 200.4081489755772, 74.10424767201766, -78.76603296678513, 61.571842920500785, 0.5440000258386135, 0.8320000395178795, 0.35200001671910286, 0.0, 0.0, 0.0, 0.0, 0.0, 1.710391338455213E9, 0.0, 2024-03-13 21:42:18.455
11.0, 192.9246091642417, 73.10195448389277, -63.15943045169115, 57.45795296924189, 0.5440000258386135, 0.8320000395178795, 0.35200001671910286, 0.0, 0.0, 0.0, 0.0, 0.0, 1.710391338470856E9, 0.0, 2024-03-13 21:42:18.470
11.0, 189.56243910407647, 63.91676019271836, -93.30676399450749, 47.58461708622053, 0.5440000258386135, 0.8320000395178795, 0.35200001671910286, 0.0, 0.0, 0.0, 0.0, 0.0, 1.710391338470856E9, 0.0, 2024-03-13 21:42:18.470
12.0, 189.0313733103685, 63.89806069293991, -96.53803755622357, 55.04945739777759, 0.5440000258386135, 0.8320000395178795, 0.35200001671910286, 0.0, 0.0, 0.0, 0.0, 0.0, 1.710391338471602E9, 0.0, 2024-03-13 21:42:18.471
12.0, 192.27386657195166, 65.55483637331054, -80.52752584591508, 52.61852242657915, 0.5440000258386135, 0.8320000395178795, 0.35200001671910286, 0.0, 0.0, 0.0, 0.0, 0.0, 1.710391338471602E9, 0.0, 2024-03-13 21:42:18.471
13.0, 183.34672537771985, 56.754851777572185, -93.99116568639874, 43.814797930885106, 0.5440000258386135, 0.8320000395178795, 0.35200001671910286, 0.0, 0.0, 0.0, 0.0, 0.0, 1.710391338485248E9, 0.0, 2024-03-13 21:42:18.485
13.0, 189.1473102089949, 65.7156520714052, -106.58714873716235, 49.933274258393794, 0.5440000258386135, 0.8320000395178795, 0.35200001671910286, 0.0, 0.0, 0.0, 0.0, 0.0, 1.710391338485248E9, 0.0, 2024-03-13 21:42:18.485
14.0, 198.48958029830828, 81.82340118056163, -71.88087714836001, 63.38943429896608, 0.5440000258386135, 0.8320000395178795, 0.35200001671910286, 0.0, 0.0, 0.0, 0.0, 0.0, 1.710391338501076E9, 0.0, 2024-03-13 21:42:18.501
14.0, 192.24394737230614, 72.22307799430564, -75.59459780436009, 54.43237390508875, 0.5440000258386135, 0.8320000395178795, 0.35200001671910286, 0.0, 0.0, 0.0, 0.0, 0.0, 1.710391338501076E9, 0.0, 2024-03-13 21:42:18.501
15.0, 190.2618003957905, 69.30595602886751, -99.83662931714207, 51.82566363597289, 0.5440000258386135, 0.8320000395178795, 0.35200001671910286, 0.0, 0.0, 0.0, 0.0, 0.0, 1.710391338501696E9, 0.0, 2024-03-13 21:42:18.501
15.0, 198.73267379542813, 80.59671399509534, -76.26777979638427, 68.7898498349823, 0.5440000258386135, 0.8320000395178795, 0.35200001671910286, 0.0, 0.0, 0.0, 0.0, 0.0, 1.710391338501696E9, 0.0, 2024-03-13 21:42:18.501
16.0, 199.14032289059833, 81.44193138508126, -57.63185831718147, 67.81373594654724, 0.5440000258386135, 0.8320000395178795, 0.35200001671910286, 0.0, 0.0, 0.0, 0.0, 0.0, 1.7103913385155015E9, 0.0, 2024-03-13 21:42:18.515
16.0, 194.3008923479356, 69.36953432811424, -84.7797920955345, 57.543970668222755, 0.5440000258386135, 0.8320000395178795, 0.35200001671910286, 0.0, 0.0, 0.0, 0.0, 0.0, 1.7103913385155015E9, 0.0, 2024-03-13 21:42:18.515
17.0, 194.53650604514405, 73.39366668043658, -89.02831844519824, 64.19351278943941, 0.5440000258386135, 0.8320000395178795, 0.35200001671910286, 0.0, 0.0, 0.0, 0.0, 0.0, 1.7103913385309577E9, 0.0, 2024-03-13 21:42:18.530
17.0, 202.0050862566568, 84.3553134505637, -61.742008368484676, 72.35771439271048, 0.5440000258386135, 0.8320000395178795, 0.35200001671910286, 0.0, 0.0, 0.0, 0.0, 0.0, 1.7103913385309577E9, 0.0, 2024-03-13 21:42:18.530
18.0, 201.31320476485416, 75.98915724968538, -77.56178518105298, 62.51429770933464, 0.5440000258386135, 0.8320000395178795, 0.35200001671910286, 0.0, 0.0, 0.0, 0.0, 0.0, 1.7103913385318215E9, 0.0, 2024-03-13 21:42:18.531
18.0, 200.49042677460238, 86.34494022699073, -96.25006525963545, 62.68633310729638, 0.5440000258386135, 0.8320000395178795, 0.35200001671910286, 0.0, 0.0, 0.0, 0.0, 0.0, 1.7103913385318215E9, 0.0, 2024-03-13 21:42:18.531
19.0, 205.75994581216946, 91.82389366207644, -65.4744285242632, 75.63386675389484, 0.5440000258386135, 0.8320000395178795, 0.35200001671910286, 0.0, 0.0, 0.0, 0.0, 0.0, 1.7103913385453167E9, 0.0, 2024-03-13 21:42:18.545
19.0, 207.76827208837494, 90.48126957798377, -60.74719498027116, 75.12524035992101, 0.5440000258386135, 0.8320000395178795, 0.35200001671910286, 0.0, 0.0, 0.0, 0.0, 0.0, 1.7103913385453167E9, 0.0, 2024-03-13 21:42:18.545
20.0, 201.07385116769, 81.0193226900883, -86.34307027701288, 65.67451317189261, 0.5440000258386135, 0.8320000395178795, 0.35200001671910286, 0.0, 0.0, 0.0, 0.0, 0.0, 1.710391338561147E9, 0.0, 2024-03-13 21:42:18.561
20.0, 203.9647938334383, 89.22092329291627, -73.06642543431371, 74.35482096904889, 0.5440000258386135, 0.8320000395178795, 0.35200001671910286, 0.0, 0.0, 0.0, 0.0, 0.0, 1.710391338561147E9, 0.0, 2024-03-13 21:42:18.561
21.0, 203.2280335421674, 85.81761433323845, -59.5466870944947, 69.39571362780407, 0.5440000258386135, 0.8320000395178795, 0.35200001671910286, 0.0, 0.0, 0.0, 0.0, 0.0, 1.7103913385617764E9, 0.0, 2024-03-13 21:42:18.561
21.0, 206.54158490290865, 85.3950056382455, -85.86810298264027, 64.74327808292583, 0.5440000258386135, 0.8320000395178795, 0.35200001671910286, 0.0, 0.0, 0.0, 0.0, 0.0, 1.7103913385617764E9, 0.0, 2024-03-13 21:42:18.561
22.0, 201.05889156786725, 87.06674091843888, -88.1905808551237, 65.82410917012021, 0.5280000250786543, 0.8320000395178795, 0.35200001671910286, 0.0, 0.0, 0.0, 0.0, 0.0, 1.7103913385751631E9, 0.0, 2024-03-13 21:42:18.575
22.0, 205.19896081881598, 90.38029227918014, -63.843832143582404, 71.75185059988871, 0.5280000250786543, 0.8320000395178795, 0.35200001671910286, 0.0, 0.0, 0.0, 0.0, 0.0, 1.7103913385751631E9, 0.0, 2024-03-13 21:42:18.575
23.0, 203.46364723937586, 82.66113877063617, -76.42111569456756, 64.13741429010406, 0.5280000250786543, 0.8320000395178795, 0.35200001671910286, 0.0, 0.0, 0.0, 0.0, 0.0, 1.7103913386073024E9, 0.0, 2024-03-13 21:42:18.607
23.0, 209.492365967948, 91.82763356203213, -85.81574438326061, 68.39716033963487, 0.5280000250786543, 0.8320000395178795, 0.35200001671910286, 0.0, 0.0, 0.0, 0.0, 0.0, 1.7103913386073024E9, 0.0, 2024-03-13 21:42:18.607
24.0, 211.87842213967815, 101.62617144593969, -63.22674865089357, 73.22911108238623, 0.5280000250786543, 0.8320000395178795, 0.35200001671910286, 0.0, 0.0, 0.0, 0.0, 0.0, 1.7103913386079931E9, 0.0, 2024-03-13 21:42:18.607
24.0, 209.02113857353106, 94.7297959276475, -65.39215072523803, 69.43685252731666, 0.5280000250786543, 0.8320000395178795, 0.35200001671910286, 0.0, 0.0, 0.0, 0.0, 0.0, 1.7103913386079931E9, 0.0, 2024-03-13 21:42:18.607
25.0, 208.0412847851403, 87.7623623101972, -92.9327739989385, 67.21535195363685, 0.5280000250786543, 0.8320000395178795, 0.35200001671910286, 0.0, 0.0, 0.0, 0.0, 0.0, 1.7103913386087685E9, 0.0, 2024-03-13 21:42:18.608
25.0, 209.79529786435887, 90.78046157443896, -74.3679106188938, 69.02172363223508, 0.5280000250786543, 0.8320000395178795, 0.35200001671910286, 0.0, 0.0, 0.0, 0.0, 0.0, 1.7103913386087685E9, 0.0, 2024-03-13 21:42:18.608
26.0, 212.11029593693092, 89.03766819508746, -59.49058859515935, 71.6845324006863, 0.5280000250786543, 0.8320000395178795, 0.35200001671910286, 0.0, 0.0, 0.0, 0.0, 0.0, 1.7103913386094816E9, 0.0, 2024-03-13 21:42:18.609
26.0, 211.2276795473881, 84.62458624737337, -82.65552892070264, 61.612981820013374, 0.5280000250786543, 0.8320000395178795, 0.35200001671910286, 0.0, 0.0, 0.0, 0.0, 0.0, 1.7103913386094816E9, 0.0, 2024-03-13 21:42:18.609
27.0, 215.50238519674167, 96.91015760181472, -80.69208144396544, 70.99265090888366, 0.5280000250786543, 0.8320000395178795, 0.35200001671910286, 0.0, 0.0, 0.0, 0.0, 0.0, 1.7103913386201572E9, 0.0, 2024-03-13 21:42:18.620
27.0, 212.85453602811322, 95.82932651462033, -61.68216996919364, 72.78406298765913, 0.5280000250786543, 0.8320000395178795, 0.35200001671910286, 0.0, 0.0, 0.0, 0.0, 0.0, 1.7103913386201572E9, 0.0, 2024-03-13 21:42:18.620
28.0, 200.62132327305153, 86.24770282814279, -74.1098575219512, 63.83074249373749, 0.5280000250786543, 0.8320000395178795, 0.35200001671910286, 0.0, 0.0, 0.0, 0.0, 0.0, 1.7103913386352074E9, 0.0, 2024-03-13 21:42:18.635
28.0, 201.8891493580304, 83.49887636071071, -94.73914567753673, 61.586802520323545, 0.5280000250786543, 0.8320000395178795, 0.35200001671910286, 0.0, 0.0, 0.0, 0.0, 0.0, 1.7103913386352074E9, 0.0, 2024-03-13 21:42:18.635
29.0, 208.44145408039913, 93.80978053854778, -67.57251239940524, 72.54470939049497, 0.5280000250786543, 0.8320000395178795, 0.35200001671910286, 0.0, 0.0, 0.0, 0.0, 0.0, 1.710391338650866E9, 0.0, 2024-03-13 21:42:18.650
29.0, 199.69756798399612, 80.30500179855153, -66.26728731486946, 64.22343198908493, 0.5280000250786543, 0.8320000395178795, 0.35200001671910286, 0.0, 0.0, 0.0, 0.0, 0.0, 1.710391338650866E9, 0.0, 2024-03-13 21:42:18.650
30.0, 198.85983039392158, 77.85910722753033, -91.3395766178146, 66.02980366768315, 0.5280000250786543, 0.8320000395178795, 0.35200001671910286, 0.0, 0.0, 0.0, 0.0, 0.0, 1.710391338651564E9, 0.0, 2024-03-13 21:42:18.651
30.0, 205.4121351162903, 92.38861855538562, -73.44789522979409, 73.87237387476489, 0.5280000250786543, 0.8320000395178795, 0.35200001671910286, 0.0, 0.0, 0.0, 0.0, 0.0, 1.710391338651564E9, 0.0, 2024-03-13 21:42:18.651
31.0, 199.9631008808501, 87.51926881307736, -58.66033080499619, 74.60165436612442, 0.5280000250786543, 0.8320000395178795, 0.35200001671910286, 0.0, 0.0, 0.0, 0.0, 0.0, 1.7103913386654046E9, 0.0, 2024-03-13 21:42:18.665
31.0, 198.85983039392158, 78.23309722309932, -82.97342041693628, 63.165040301624686, 0.5280000250786543, 0.8320000395178795, 0.35200001671910286, 0.0, 0.0, 0.0, 0.0, 0.0, 1.7103913386654046E9, 0.0, 2024-03-13 21:42:18.665
32.0, 202.86152334650978, 87.71374361077324, -88.35887635312974, 71.44517880352214, 0.5440000258386135, 0.8320000395178795, 0.35200001671910286, 0.0, 0.0, 0.0, 0.0, 0.0, 1.7103913386810513E9, 0.0, 2024-03-13 21:42:18.681
32.0, 203.69178113667294, 89.85296638542786, -66.22240851540118, 74.70637156488374, 0.5440000258386135, 0.8320000395178795, 0.35200001671910286, 0.0, 0.0, 0.0, 0.0, 0.0, 1.7103913386810513E9, 0.0, 2024-03-13 21:42:18.681
33.0, 196.780446018558, 77.95634462637827, -77.69268167950213, 62.95934580406174, 0.5440000258386135, 0.8320000395178795, 0.35200001671910286, 0.0, 0.0, 0.0, 0.0, 0.0, 1.7103913386816823E9, 0.0, 2024-03-13 21:42:18.681
33.0, 197.45362801058218, 80.47329729655758, -93.21700639557093, 63.70358589524403, 0.5440000258386135, 0.8320000395178795, 0.35200001671910286, 0.0, 0.0, 0.0, 0.0, 0.0, 1.7103913386816823E9, 0.0, 2024-03-13 21:42:18.681
34.0, 196.57475152099505, 83.84294715663418, -67.37803760170937, 67.9745516446419, 0.5440000258386135, 0.8320000395178795, 0.35200001671910286, 0.0, 0.0, 0.0, 0.0, 0.0, 1.7103913386954403E9, 0.0, 2024-03-13 21:42:18.695
34.0, 200.52782577415928, 83.54375516017899, -65.18645622767508, 70.72711801202968, 0.5440000258386135, 0.8320000395178795, 0.35200001671910286, 0.0, 0.0, 0.0, 0.0, 0.0, 1.7103913386954403E9, 0.0, 2024-03-13 21:42:18.695
35.0, 198.6728353961371, 83.85416685650125, -93.1571679962799, 63.87936119316146, 0.5440000258386135, 0.8320000395178795, 0.35200001671910286, 0.0, 0.0, 0.0, 0.0, 0.0, 1.7103913387108169E9, 0.0, 2024-03-13 21:42:18.710
35.0, 200.87189657008275, 84.17579825269058, -75.44874170608819, 73.14683328336105, 0.5440000258386135, 0.8320000395178795, 0.35200001671910286, 0.0, 0.0, 0.0, 0.0, 0.0, 1.7103913387108169E9, 0.0, 2024-03-13 21:42:18.710
36.0, 196.65702932002023, 79.95345120271668, -57.81885331496596, 70.7532973117195, 0.5440000258386135, 0.8320000395178795, 0.35200001671910286, 0.0, 0.0, 0.0, 0.0, 0.0, 1.710391338711572E9, 0.0, 2024-03-13 21:42:18.711
36.0, 190.27302009565756, 75.00930346129462, -78.6650556679815, 67.03583675576374, 0.5440000258386135, 0.8320000395178795, 0.35200001671910286, 0.0, 0.0, 0.0, 0.0, 0.0, 1.710391338711572E9, 0.0, 2024-03-13 21:42:18.711
37.0, 201.58621746161953, 90.32419377984479, -76.7427470907569, 75.36085405712947, 0.5440000258386135, 0.8320000395178795, 0.35200001671910286, 0.0, 0.0, 0.0, 0.0, 0.0, 1.710391338725201E9, 0.0, 2024-03-13 21:42:18.725
37.0, 203.64690233720466, 99.6589840692468, -58.48455550707877, 85.84005373297259, 0.5440000258386135, 0.8320000395178795, 0.35200001671910286, 0.0, 0.0, 0.0, 0.0, 0.0, 1.710391338725201E9, 0.0, 2024-03-13 21:42:18.725
38.0, 197.80143870646134, 82.8369140685536, -77.74504027888179, 65.17710647778586, 0.5440000258386135, 0.8320000395178795, 0.35200001671910286, 0.0, 0.0, 0.0, 0.0, 0.0, 1.7103913387408504E9, 0.0, 2024-03-13 21:42:18.740
38.0, 208.18340098345652, 88.70855699898675, -93.71441308967769, 62.99674480361864, 0.5440000258386135, 0.8320000395178795, 0.35200001671910286, 0.0, 0.0, 0.0, 0.0, 0.0, 1.7103913387408504E9, 0.0, 2024-03-13 21:42:18.740
39.0, 209.31659067003056, 95.57127341767773, -65.67264322191477, 73.07577518420294, 0.5440000258386135, 0.8320000395178795, 0.35200001671910286, 0.0, 0.0, 0.0, 0.0, 0.0, 1.7103913387415702E9, 0.0, 2024-03-13 21:42:18.741
39.0, 203.16819514287636, 87.19389751693234, -64.89848393108696, 67.98577134450898, 0.5440000258386135, 0.8320000395178795, 0.35200001671910286, 0.0, 0.0, 0.0, 0.0, 0.0, 1.7103913387415702E9, 0.0, 2024-03-13 21:42:18.741
40.0, 202.35289695253596, 82.27218917524442, -92.37178900558501, 61.945832916069776, 0.5440000258386135, 0.8320000395178795, 0.35200001671910286, 0.0, 0.0, 0.0, 0.0, 0.0, 1.7103913387552204E9, 0.0, 2024-03-13 21:42:18.755
40.0, 200.61758337309584, 80.47703719651327, -78.87822996545583, 63.572689396794885, 0.5440000258386135, 0.8320000395178795, 0.35200001671910286, 0.0, 0.0, 0.0, 0.0, 0.0, 1.7103913387552204E9, 0.0, 2024-03-13 21:42:18.755
41.0, 192.63663686765358, 74.51563666714355, -67.75950739718974, 59.87018844066188, 0.5440000258386135, 0.8320000395178795, 0.35200001671910286, 0.0, 0.0, 0.0, 0.0, 0.0, 1.7103913387708595E9, 0.0, 2024-03-13 21:42:18.770
41.0, 186.50694084027782, 65.41646007495001, -92.31569050624967, 47.60331658599898, 0.5440000258386135, 0.8320000395178795, 0.35200001671910286, 0.0, 0.0, 0.0, 0.0, 0.0, 1.7103913387708595E9, 0.0, 2024-03-13 21:42:18.770
42.0, 187.92810282343999, 74.44831846794114, -89.5967832384631, 59.084809449967, 0.5280000250786543, 0.8320000395178795, 0.35200001671910286, 0.0, 0.0, 0.0, 0.0, 0.0, 1.7103913387717652E9, 0.0, 2024-03-13 21:42:18.771
42.0, 187.45313552906737, 70.24841081770137, -67.87170439586043, 57.4916120688431, 0.5280000250786543, 0.8320000395178795, 0.35200001671910286, 0.0, 0.0, 0.0, 0.0, 0.0, 1.7103913387717652E9, 0.0, 2024-03-13 21:42:18.771
43.0, 184.28544026659802, 65.70069247158244, -84.63019609730691, 56.9343669754453, 0.5280000250786543, 0.8320000395178795, 0.35200001671910286, 0.0, 0.0, 0.0, 0.0, 0.0, 1.7103913388016293E9, 0.0, 2024-03-13 21:42:18.801
43.0, 189.86163110053167, 71.65835310099646, -98.19855313654989, 60.367595134768635, 0.5280000250786543, 0.8320000395178795, 0.35200001671910286, 0.0, 0.0, 0.0, 0.0, 0.0, 1.7103913388016293E9, 0.0, 2024-03-13 21:42:18.801
44.0, 200.8195379707031, 82.14503257675096, -70.6242707632482, 70.5326432143338, 0.5280000250786543, 0.8320000395178795, 0.35200001671910286, 0.0, 0.0, 0.0, 0.0, 0.0, 1.710391338802524E9, 0.0, 2024-03-13 21:42:18.802
44.0, 196.01376652764156, 76.84559433953837, -67.96894179470837, 62.806009905878454, 0.5280000250786543, 0.8320000395178795, 0.35200001671910286, 0.0, 0.0, 0.0, 0.0, 0.0, 1.710391338802524E9, 0.0, 2024-03-13 21:42:18.802
45.0, 192.703955066856, 67.69405914796516, -100.95859930384904, 51.61248933849856, 0.5280000250786543, 0.8320000395178795, 0.35200001671910286, 0.0, 0.0, 0.0, 0.0, 0.0, 1.7103913388030417E9, 0.0, 2024-03-13 21:42:18.803
45.0, 198.62421669671312, 80.4620775966905, -80.80801834259182, 57.091442773584276, 0.5280000250786543, 0.8320000395178795, 0.35200001671910286, 0.0, 0.0, 0.0, 0.0, 0.0, 1.7103913388030417E9, 0.0, 2024-03-13 21:42:18.803
46.0, 192.86477076495066, 75.03174286102876, -65.82597912009805, 56.07792988559231, 0.5280000250786543, 0.8320000395178795, 0.35200001671910286, 0.0, 0.0, 0.0, 0.0, 0.0, 1.7103913388151648E9, 0.0, 2024-03-13 21:42:18.815
46.0, 191.3314117831178, 64.6796997836791, -89.17043464351445, 49.847256559412926, 0.5280000250786543, 0.8320000395178795, 0.35200001671910286, 0.0, 0.0, 0.0, 0.0, 0.0, 1.7103913388151648E9, 0.0, 2024-03-13 21:42:18.815
47.0, 200.1164367790334, 73.49464397924021, -91.68738731369376, 61.9009541166015, 0.5280000250786543, 0.8320000395178795, 0.35200001671910286, 0.0, 0.0, 0.0, 0.0, 0.0, 1.710391338831255E9, 0.0, 2024-03-13 21:42:18.831
47.0, 196.17084232578054, 73.89107337454334, -70.71028846222907, 65.39402067521587, 0.5280000250786543, 0.8320000395178795, 0.35200001671910286, 0.0, 0.0, 0.0, 0.0, 0.0, 1.710391338831255E9, 0.0, 2024-03-13 21:42:18.831
48.0, 187.30727943079546, 69.87816072208807, -80.16101565025747, 55.576783291529864, 0.5280000250786543, 0.8320000395178795, 0.35200001671910286, 0.0, 0.0, 0.0, 0.0, 0.0, 1.7103913388318677E9, 0.0, 2024-03-13 21:42:18.831
48.0, 192.16166957328096, 70.39052701601759, -97.72358584217727, 54.10326270898804, 0.5280000250786543, 0.8320000395178795, 0.35200001671910286, 0.0, 0.0, 0.0, 0.0, 0.0, 1.7103913388318677E9, 0.0, 2024-03-13 21:42:18.831
49.0, 198.31006510043517, 81.50550968432799, -74.3679106188938, 56.49679868062958, 0.5280000250786543, 0.8320000395178795, 0.35200001671910286, 0.0, 0.0, 0.0, 0.0, 0.0, 1.710391338845303E9, 0.0, 2024-03-13 21:42:18.845
49.0, 191.80263917753473, 72.88878018641844, -72.99162743519992, 49.19651396712288, 0.5280000250786543, 0.8320000395178795, 0.35200001671910286, 0.0, 0.0, 0.0, 0.0, 0.0, 1.710391338845303E9, 0.0, 2024-03-13 21:42:18.845
50.0, 191.72410127846524, 71.28810300538316, -98.14245463721454, 46.16345510305837, 0.5280000250786543, 0.8320000395178795, 0.35200001671910286, 0.0, 0.0, 0.0, 0.0, 0.0, 1.7103913388609242E9, 0.0, 2024-03-13 21:42:18.860
50.0, 197.27785271266475, 81.15395908849314, -89.40978824067861, 54.39871480548754, 0.5280000250786543, 0.8320000395178795, 0.35200001671910286, 0.0, 0.0, 0.0, 0.0, 0.0, 1.7103913388609242E9, 0.0, 2024-03-13 21:42:18.860
51.0, 195.5537588330917, 73.59188137808815, -76.3687570951879, 55.87971518794075, 0.5280000250786543, 0.8320000395178795, 0.35200001671910286, 0.0, 0.0, 0.0, 0.0, 0.0, 1.7103913388615792E9, 0.0, 2024-03-13 21:42:18.861
51.0, 193.05924556264654, 67.99325114442036, -95.68160046637058, 44.17756822658703, 0.5280000250786543, 0.8320000395178795, 0.35200001671910286, 0.0, 0.0, 0.0, 0.0, 0.0, 1.7103913388615792E9, 0.0, 2024-03-13 21:42:18.861
52.0, 197.64062300836667, 74.88588676275685, -96.07802986167371, 50.53913805121556, 0.5280000250786543, 0.8320000395178795, 0.35200001671910286, 0.0, 0.0, 0.0, 0.0, 0.0, 1.7103913388751688E9, 0.0, 2024-03-13 21:42:18.875
52.0, 196.61963032046333, 80.29752199864015, -71.30867245513946, 58.4153673578985, 0.5280000250786543, 0.8320000395178795, 0.35200001671910286, 0.0, 0.0, 0.0, 0.0, 0.0, 1.7103913388751688E9, 0.0, 2024-03-13 21:42:18.875
53.0, 195.1461097379215, 76.52396294334903, -79.7047478556633, 52.304370830301195, 0.5280000250786543, 0.8320000395178795, 0.35200001671910286, 0.0, 0.0, 0.0, 0.0, 0.0, 1.7103913388911543E9, 0.0, 2024-03-13 21:42:18.891
53.0, 198.38112319959328, 79.9085724032484, -93.62839539069682, 59.084809449967, 0.5280000250786543, 0.8320000395178795, 0.35200001671910286, 0.0, 0.0, 0.0, 0.0, 0.0, 1.7103913388911543E9, 0.0, 2024-03-13 21:42:18.891
54.0, 198.62421669671312, 85.2454096400179, -69.22180827986449, 65.91760666901246, 0.5280000250786543, 0.8320000395178795, 0.35200001671910286, 0.0, 0.0, 0.0, 0.0, 0.0, 1.7103913388916433E9, 0.0, 2024-03-13 21:42:18.891
54.0, 193.6987684550695, 78.21439772332087, -72.22868784423918, 61.35866862302646, 0.5280000250786543, 0.8320000395178795, 0.35200001671910286, 0.0, 0.0, 0.0, 0.0, 0.0, 1.7103913388916433E9, 0.0, 2024-03-13 21:42:18.891
55.0, 192.10183117398992, 72.11836079554632, -94.44369358103722, 58.751958353910595, 0.5280000250786543, 0.8320000395178795, 0.35200001671910286, 0.0, 0.0, 0.0, 0.0, 0.0, 1.71039133890518E9, 0.0, 2024-03-13 21:42:18.905
55.0, 200.84197737043723, 84.31043465109542, -74.34921111911535, 69.6051480253227, 0.5280000250786543, 0.8320000395178795, 0.35200001671910286, 0.0, 0.0, 0.0, 0.0, 0.0, 1.71039133890518E9, 0.0, 2024-03-13 21:42:18.905
56.0, 198.3399843000807, 82.49658317258582, -63.46236234810203, 68.07178904348984, 0.5280000250786543, 0.8320000395178795, 0.35200001671910286, 0.0, 0.0, 0.0, 0.0, 0.0, 1.710391338920874E9, 0.0, 2024-03-13 21:42:18.920
56.0, 193.16770266136155, 68.46447853883728, -86.40664857625961, 55.913374287541956, 0.5280000250786543, 0.8320000395178795, 0.35200001671910286, 0.0, 0.0, 0.0, 0.0, 0.0, 1.710391338920874E9, 0.0, 2024-03-13 21:42:18.920
57.0, 197.21427441341802, 78.47619072021917, -85.47541348729283, 63.93171979254112, 0.5280000250786543, 0.8320000395178795, 0.35200001671910286, 0.0, 0.0, 0.0, 0.0, 0.0, 1.7103913389215853E9, 0.0, 2024-03-13 21:42:18.921
57.0, 202.2631393535994, 86.93210452003404, -59.744901792146266, 71.99494409700856, 0.5280000250786543, 0.8320000395178795, 0.35200001671910286, 0.0, 0.0, 0.0, 0.0, 0.0, 1.7103913389215853E9, 0.0, 2024-03-13 21:42:18.921
58.0, 190.82652528909966, 76.92039233865216, -74.24449392035604, 60.55085023259744, 0.5280000250786543, 0.8320000395178795, 0.35200001671910286, 0.0, 0.0, 0.0, 0.0, 0.0, 1.7103913389515328E9, 0.0, 2024-03-13 21:42:18.951
58.0, 190.46375499339774, 69.39197372784838, -99.31678322330117, 52.06127733318135, 0.5280000250786543, 0.8320000395178795, 0.35200001671910286, 0.0, 0.0, 0.0, 0.0, 0.0, 1.7103913389515328E9, 0.0, 2024-03-13 21:42:18.951
59.0, 192.71891466667876, 75.00930346129462, -77.36731038335711, 59.993605139199644, 0.5280000250786543, 0.8320000395178795, 0.35200001671910286, 0.0, 0.0, 0.0, 0.0, 0.0, 1.710391338952318E9, 0.0, 2024-03-13 21:42:18.952
59.0, 183.2906268783845, 67.30136965261772, -72.91682943608612, 56.12654858501628, 0.5280000250786543, 0.8320000395178795, 0.35200001671910286, 0.0, 0.0, 0.0, 0.0, 0.0, 1.710391338952318E9, 0.0, 2024-03-13 21:42:18.952
60.0, 188.12257762113586, 67.76137734716758, -94.06970358546823, 53.32910341816023, 0.5280000250786543, 0.8320000395178795, 0.35200001671910286, 0.0, 0.0, 0.0, 0.0, 0.0, 1.7103913389530532E9, 0.0, 2024-03-13 21:42:18.953
60.0, 199.04682539170608, 85.2416697400622, -77.67772207967937, 62.57787600858137, 0.5280000250786543, 0.8320000395178795, 0.35200001671910286, 0.0, 0.0, 0.0, 0.0, 0.0, 1.7103913389530532E9, 0.0, 2024-03-13 21:42:18.953
61.0, 195.28448603628203, 78.80530191631988, -64.09066554065794, 59.993605139199644, 0.5280000250786543, 0.8320000395178795, 0.35200001671910286, 0.0, 0.0, 0.0, 0.0, 0.0, 1.710391338965263E9, 0.0, 2024-03-13 21:42:18.965
61.0, 193.83340485347435, 73.9060329743661, -86.75071937218308, 54.18180060805753, 0.5280000250786543, 0.8320000395178795, 0.35200001671910286, 0.0, 0.0, 0.0, 0.0, 0.0, 1.710391338965263E9, 0.0, 2024-03-13 21:42:18.965
62.0, 198.04453220358118, 79.94971130276099, -85.04532499238849, 60.004824839066714, 0.5280000250786543, 0.8320000395178795, 0.35200001671910286, 0.0, 0.0, 0.0, 0.0, 0.0, 1.7103913389812846E9, 0.0, 2024-03-13 21:42:18.981
62.0, 199.06178499152884, 85.51842233678326, -62.71064245700836, 65.29678327636793, 0.5280000250786543, 0.8320000395178795, 0.35200001671910286, 0.0, 0.0, 0.0, 0.0, 0.0, 1.7103913389812846E9, 0.0, 2024-03-13 21:42:18.981
63.0, 198.35868379985914, 78.25553662283346, -73.93034232407808, 59.215705948416144, 0.5280000250786543, 0.8320000395178795, 0.35200001671910286, 0.0, 0.0, 0.0, 0.0, 0.0, 1.7103913389816828E9, 0.0, 2024-03-13 21:42:18.981
63.0, 200.91303546959534, 82.52650237223133, -83.7812388073653, 61.65412071952596, 0.5280000250786543, 0.8320000395178795, 0.35200001671910286, 0.0, 0.0, 0.0, 0.0, 0.0, 1.7103913389816828E9, 0.0, 2024-03-13 21:42:18.981
64.0, 195.19846833730116, 75.97045774990693, -82.4086955236271, 56.81843007681891, 0.5280000250786543, 0.8320000395178795, 0.35200001671910286, 0.0, 0.0, 0.0, 0.0, 0.0, 1.7103913389956508E9, 0.0, 2024-03-13 21:42:18.995
64.0, 189.56991890398785, 67.1629933542572, -72.29974594339728, 47.857629782985896, 0.5280000250786543, 0.8320000395178795, 0.35200001671910286, 0.0, 0.0, 0.0, 0.0, 0.0, 1.7103913389956508E9, 0.0, 2024-03-13 21:42:18.995
65.0, 188.65738331479952, 63.8644015933387, -99.33548272307962, 44.76473251963034, 0.5280000250786543, 0.8320000395178795, 0.35200001671910286, 0.0, 0.0, 0.0, 0.0, 0.0, 1.7103913390111172E9, 0.0, 2024-03-13 21:42:19.011
65.0, 195.36302393535152, 75.60020765429363, -80.89403604157269, 59.511158044915646, 0.5280000250786543, 0.8320000395178795, 0.35200001671910286, 0.0, 0.0, 0.0, 0.0, 0.0, 1.7103913390111172E9, 0.0, 2024-03-13 21:42:19.011
66.0, 184.37519786553457, 68.3859406397678, -70.78882636129856, 55.34490949427709, 0.5280000250786543, 0.8320000395178795, 0.35200001671910286, 0.0, 0.0, 0.0, 0.0, 0.0, 1.7103913390115683E9, 0.0, 2024-03-13 21:42:19.011
66.0, 186.67897623823956, 63.557729796972126, -92.17357430793345, 45.66604840895161, 0.5280000250786543, 0.8320000395178795, 0.35200001671910286, 0.0, 0.0, 0.0, 0.0, 0.0, 1.7103913390115683E9, 0.0, 2024-03-13 21:42:19.011
67.0, 192.1055710739456, 69.98661782080308, -88.99091944564134, 53.946186910849065, 0.5280000250786543, 0.8320000395178795, 0.35200001671910286, 0.0, 0.0, 0.0, 0.0, 0.0, 1.7103913390252104E9, 0.0, 2024-03-13 21:42:19.025
67.0, 192.7750131660141, 75.85452085128054, -64.46091563627124, 63.42309339856729, 0.5280000250786543, 0.8320000395178795, 0.35200001671910286, 0.0, 0.0, 0.0, 0.0, 0.0, 1.7103913390252104E9, 0.0, 2024-03-13 21:42:19.025
68.0, 182.85305858356878, 67.11811455478892, -79.91418225318193, 50.80093104811385, 0.5280000250786543, 0.8320000395178795, 0.35200001671910286, 0.0, 0.0, 0.0, 0.0, 0.0, 1.710391339040857E9, 0.0, 2024-03-13 21:42:19.040
68.0, 180.98684850567952, 60.13572133751586, -102.63033458404243, 41.57085795747116, 0.5280000250786543, 0.8320000395178795, 0.35200001671910286, 0.0, 0.0, 0.0, 0.0, 0.0, 1.710391339040857E9, 0.0, 2024-03-13 21:42:19.040
69.0, 182.01906089344993, 67.24153125332668, -80.65094254445285, 47.6332357856445, 0.5280000250786543, 0.8320000395178795, 0.35200001671910286, 0.0, 0.0, 0.0, 0.0, 0.0, 1.7103913390415893E9, 0.0, 2024-03-13 21:42:19.041
69.0, 182.6660635857843, 66.0148440678604, -82.65178902074695, 45.045225016307086, 0.5280000250786543, 0.8320000395178795, 0.35200001671910286, 0.0, 0.0, 0.0, 0.0, 0.0, 1.7103913390415893E9, 0.0, 2024-03-13 21:42:19.041
70.0, 183.79925327235833, 60.797683629672974, -110.03159659635276, 36.15174292167649, 0.5280000250786543, 0.8320000395178795, 0.35200001671910286, 0.0, 0.0, 0.0, 0.0, 0.0, 1.71039133905523E9, 0.0, 2024-03-13 21:42:19.055
