%OpenBCI Raw EXG Data
%Number of channels = 4
%Sample Rate = 200 Hz
%Board = OpenBCI_GUI$BoardGanglionBLE
Sample Index, EXG Channel 0, EXG Channel 1, EXG Channel 2, EXG Channel 3, Accel Channel 0, Accel Channel 1, Accel Channel 2, Other, Other, Other, Other, Other, Timestamp, Other, Timestamp (Formatted)
2.0, 219.99774494348094, -45.727756758220494, 243.77976876171306, -52.59795297682285, 0.01600000075995922, 0.0, 0.0, 0.0, 0.0, 0.0, 0.0, 0.0, 1.7103872601819625E9, 0.0, 2024-03-13 20:34:20.181
2.0, 409.9958823923953, -72.71674478845671, 399.7747358134948, -44.022362378425896, 0.01600000075995922, 0.0, 0.0, 0.0, 0.0, 0.0, 0.0, 0.0, 1.7103872601819625E9, 0.0, 2024-03-13 20:34:20.181
3.0, 372.91477433172986, -301.2358517809771, 388.7906496436335, 172.79272770276293, 0.01600000075995922, 0.0, 0.0, 0.0, 0.0, 0.0, 0.0, 0.0, 1.7103872601963325E9, 0.0, 2024-03-13 20:34:20.196
3.0, 487.163108128123, -305.940645925235, 506.70782529655844, 227.64397040288895, 0.01600000075995922, 0.0, 0.0, 0.0, 0.0, 0.0, 0.0, 0.0, 1.7103872601963325E9, 0.0, 2024-03-13 20:34:20.196
4.0, 272.2628468242474, -253.13325855089352, 745.4181596683338, 286.59601340442896, 0.01600000075995922, 0.0, 0.0, 0.0, 0.0, 0.0, 0.0, 0.0, 1.7103872601970484E9, 0.0, 2024-03-13 20:34:20.197
4.0, 465.5072174347006, -95.0289879241027, 972.2767510805279, 382.50200786814094, 0.01600000075995922, 0.0, 0.0, 0.0, 0.0, 0.0, 0.0, 0.0, 1.7103872601970484E9, 0.0, 2024-03-13 20:34:20.197
5.0, 551.9269556608051, -237.63511313451454, 1080.7880783448927, 270.8024158915505, 0.01600000075995922, 0.0, 0.0, 0.0, 0.0, 0.0, 0.0, 0.0, 1.7103872602107809E9, 0.0, 2024-03-13 20:34:20.210
5.0, 592.2281175833195, -17.998268536757678, 1080.4514873488806, 48.10446318006143, 0.01600000075995922, 0.0, 0.0, 0.0, 0.0, 0.0, 0.0, 0.0, 1.7103872602107809E9, 0.0, 2024-03-13 20:34:20.210
6.0, 493.2161362064071, -4.422431697603315, 985.5234767235816, 0.04861869942396879, 0.01600000075995922, 0.0, 0.0, 0.0, 0.0, 0.0, 0.0, 0.0, 1.7103872602265103E9, 0.0, 2024-03-13 20:34:20.226
6.0, 708.6100643044338, -43.96065402915701, 1229.5201596827246, -46.29996145144105, 0.01600000075995922, 0.0, 0.0, 0.0, 0.0, 0.0, 0.0, 0.0, 1.7103872602265103E9, 0.0, 2024-03-13 20:34:20.226
7.0, 494.03704424668103, -221.33288922766224, 996.5767510426231, -159.39827601145953, 0.01600000075995922, 0.0, 0.0, 0.0, 0.0, 0.0, 0.0, 0.0, 1.710387260227147E9, 0.0, 2024-03-13 20:34:20.227
7.0, 417.78983390005305, -61.0482569267042, 897.9088404616341, -30.2370911417529, 0.01600000075995922, 0.0, 0.0, 0.0, 0.0, 0.0, 0.0, 0.0, 1.710387260227147E9, 0.0, 2024-03-13 20:34:20.227
8.0, 370.77555155707523, -292.9706728789024, 885.3016377110034, 182.19857609132305, 0.01600000075995922, 0.0, 0.0, 0.0, 0.0, 0.0, 0.0, 0.0, 1.7103872602406812E9, 0.0, 2024-03-13 20:34:20.240
8.0, 470.1540431296453, -314.1684258277528, 997.8109180280007, 220.57929938659072, 0.01600000075995922, 0.0, 0.0, 0.0, 0.0, 0.0, 0.0, 0.0, 1.7103872602406812E9, 0.0, 2024-03-13 20:34:20.240
9.0, 262.0753593449481, -251.71957636764273, 754.2854624632746, 286.9475640002638, 0.01600000075995922, 0.0, 0.0, 0.0, 0.0, 0.0, 0.0, 0.0, 1.7103872602728455E9, 0.0, 2024-03-13 20:34:20.272
9.0, 475.41047251736745, -92.81122725037858, 987.9469318948686, 387.6219309074804, 0.01600000075995922, 0.0, 0.0, 0.0, 0.0, 0.0, 0.0, 0.0, 1.7103872602728455E9, 0.0, 2024-03-13 20:34:20.272
10.0, 561.2019075509161, -238.41675222525373, 1087.3964815665968, 272.95659826602787, 0.01600000075995922, 0.0, 1.0560000501573086, 0.0, 0.0, 0.0, 0.0, 0.0, 1.7103872602736456E9, 0.0, 2024-03-13 20:34:20.273
10.0, 604.9175981329754, -12.68013079976663, 1086.8579359729774, 53.86764901177958, 0.01600000075995922, 0.0, 1.0560000501573086, 0.0, 0.0, 0.0, 0.0, 0.0, 1.7103872602736456E9, 0.0, 2024-03-13 20:34:20.273
11.0, 512.5439391774125, -0.884486339520663, 985.4112797249109, 4.177468250505626, 0.01600000075995922, -0.11200000531971455, 1.0560000501573086, 0.0, 0.0, 0.0, 0.0, 0.0, 1.710387260274257E9, 0.0, 2024-03-13 20:34:20.274
11.0, 687.8835387500003, -52.91771442303434, 1226.5207599182613, -49.19464401714504, 0.01600000075995922, -0.11200000531971455, 1.0560000501573086, 0.0, 0.0, 0.0, 0.0, 0.0, 1.710387260274257E9, 0.0, 2024-03-13 20:34:20.274
12.0, 459.3382524577901, -237.29478223854676, 985.0316798794083, -177.0094649028033, 0.01600000075995922, -0.11200000531971455, 1.0560000501573086, 0.0, 0.0, 0.0, 0.0, 0.0, 1.7103872602749584E9, 0.0, 2024-03-13 20:34:20.274
12.0, 394.48651727614924, -72.15949969505891, 892.1194753302261, -44.58708727173507, 0.01600000075995922, -0.11200000531971455, 1.0560000501573086, 0.0, 0.0, 0.0, 0.0, 0.0, 1.7103872602749584E9, 0.0, 2024-03-13 20:34:20.274
13.0, 338.9116039345972, -311.8272484554909, 878.1397292958573, 170.1336588342674, 0.01600000075995922, -0.11200000531971455, 1.0560000501573086, 0.0, 0.0, 0.0, 0.0, 0.0, 1.7103872602860734E9, 0.0, 2024-03-13 20:34:20.286
13.0, 461.12218473665416, -313.020276541356, 996.6029303423129, 228.52284689247608, 0.01600000075995922, -0.11200000531971455, 1.0560000501573086, 0.0, 0.0, 0.0, 0.0, 0.0, 1.7103872602860734E9, 0.0, 2024-03-13 20:34:20.286
14.0, 264.98126161051914, -255.2911808253266, 751.8545274920762, 287.5160287935287, 0.01600000075995922, -0.11200000531971455, 1.0560000501573086, 0.0, 0.0, 0.0, 0.0, 0.0, 1.7103872603012362E9, 0.0, 2024-03-13 20:34:20.301
14.0, 477.0672481977381, -95.62363201705739, 981.1926725748926, 383.46316215675324, 0.01600000075995922, -0.11200000531971455, 1.0560000501573086, 0.0, 0.0, 0.0, 0.0, 0.0, 1.7103872603012362E9, 0.0, 2024-03-13 20:34:20.301
15.0, 566.3517497899011, -244.92043824819848, 1083.2040537162684, 262.9112269850448, 0.01600000075995922, -0.11200000531971455, 1.0560000501573086, 0.0, 0.0, 0.0, 0.0, 0.0, 1.710387260316389E9, 0.0, 2024-03-13 20:34:20.316
15.0, 593.6044007670134, -27.5125740240328, 1080.0812372532673, 39.90286257723346, 0.01600000075995922, -0.11200000531971455, 1.0560000501573086, 0.0, 0.0, 0.0, 0.0, 0.0, 1.710387260316389E9, 0.0, 2024-03-13 20:34:20.316
16.0, 471.4312189645134, -12.725009599234909, 983.3206756496802, -8.85234319511801, 0.01600000075995922, -0.11200000531971455, 1.0560000501573086, 0.0, 0.0, 0.0, 0.0, 0.0, 1.7103872603172708E9, 0.0, 2024-03-13 20:34:20.317
16.0, 678.6160666598007, -48.13812227966264, 1227.0293863122351, -55.60483254119754, 0.01600000075995922, -0.11200000531971455, 1.0560000501573086, 0.0, 0.0, 0.0, 0.0, 0.0, 1.7103872603172708E9, 0.0, 2024-03-13 20:34:20.317
17.0, 465.05655949003994, -233.25569028640166, 989.8075321228243, -168.9649400981143, 0.01600000075995922, -0.11200000531971455, 1.0560000501573086, 0.0, 0.0, 0.0, 0.0, 0.0, 1.7103872603308537E9, 0.0, 2024-03-13 20:34:20.330
17.0, 409.9958823923953, -65.90638696914539, 897.1646003704518, -37.41769905667752, 0.01600000075995922, -0.11200000531971455, 1.0560000501573086, 0.0, 0.0, 0.0, 0.0, 0.0, 1.7103872603308537E9, 0.0, 2024-03-13 20:34:20.330
18.0, 374.4967520129867, -303.045963359531, 884.920167915523, 177.1347515513189, 0.01600000075995922, -0.11200000531971455, 1.0560000501573086, 0.0, 0.0, 0.0, 0.0, 0.0, 1.7103872603464112E9, 0.0, 2024-03-13 20:34:20.346
18.0, 482.0057860892266, -316.92473209509626, 989.1268703308888, 215.2499419497326, 0.01600000075995922, -0.11200000531971455, 1.0560000501573086, 0.0, 0.0, 0.0, 0.0, 0.0, 1.7103872603464112E9, 0.0, 2024-03-13 20:34:20.346
19.0, 275.2884258884005, -255.08548632776365, 1231.5733647583984, 282.11561325751245, 0.01600000075995922, -0.11200000531971455, 1.0560000501573086, 0.0, 0.0, 0.0, 0.0, 0.0, 1.7103872603470945E9, 0.0, 2024-03-13 20:34:20.347
19.0, 473.7910958365537, -92.45967665454373, 1464.0231066043489, 379.1136585082859, 0.01600000075995922, -0.11200000531971455, 1.0560000501573086, 0.0, 0.0, 0.0, 0.0, 0.0, 1.7103872603470945E9, 0.0, 2024-03-13 20:34:20.347
20.0, 567.9262476712465, -241.81632128497586, 1570.1483776969835, 263.91726007312536, 0.01600000075995922, -0.11200000531971455, 1.0560000501573086, 0.0, 0.0, 0.0, 0.0, 0.0, 1.7103872603607287E9, 0.0, 2024-03-13 20:34:20.360
20.0, 601.6788447713479, -22.033620588947088, 1565.114472356625, 38.39194299513474, 0.01600000075995922, -0.11200000531971455, 1.0560000501573086, 0.0, 0.0, 0.0, 0.0, 0.0, 1.7103872603607287E9, 0.0, 2024-03-13 20:34:20.360
21.0, 497.1841700593941, -2.728257017675787, 1468.2080546547659, -0.2131742974743247, 0.01600000075995922, -0.11200000531971455, 1.0560000501573086, 0.0, 0.0, 0.0, 0.0, 0.0, 1.7103872603763914E9, 0.0, 2024-03-13 20:34:20.376
21.0, 706.280106632039, -47.30786448949948, 1227.3360581086017, -51.88737198524177, 0.01600000075995922, -0.11200000531971455, 1.0560000501573086, 0.0, 0.0, 0.0, 0.0, 0.0, 1.7103872603763914E9, 0.0, 2024-03-13 20:34:20.376
22.0, 492.6046625636518, -232.51892999513075, 986.6772358599119, -168.39273540489376, 0.01600000075995922, -0.11200000531971455, 1.0560000501573086, 0.0, 0.0, 0.0, 0.0, 0.0, 1.7103872603771179E9, 0.0, 2024-03-13 20:34:20.377
22.0, 402.4637238816358, -57.547710568178445, 898.9223533496261, -31.703131924383342, 0.01600000075995922, -0.11200000531971455, 1.0560000501573086, 0.0, 0.0, 0.0, 0.0, 0.0, 1.7103872603771179E9, 0.0, 2024-03-13 20:34:20.377
23.0, 375.5364442006685, -290.4163212091662, 885.17448111251, 179.81625981954858, 0.01600000075995922, -0.11200000531971455, 1.0560000501573086, 0.0, 0.0, 0.0, 0.0, 0.0, 1.7103872603910468E9, 0.0, 2024-03-13 20:34:20.391
23.0, 488.21028011571616, -315.3090953142382, 993.5549118784256, 220.14921089168638, 0.01600000075995922, -0.11200000531971455, 1.0560000501573086, 0.0, 0.0, 0.0, 0.0, 0.0, 1.7103872603910468E9, 0.0, 2024-03-13 20:34:20.391
24.0, 277.46878756256774, -252.2506421613507, 1235.5376587114297, 286.3865790069103, 0.01600000075995922, -0.11200000531971455, 1.0560000501573086, 0.0, 0.0, 0.0, 0.0, 0.0, 1.7103872604063845E9, 0.0, 2024-03-13 20:34:20.406
24.0, 480.2536429599859, -87.26869551604614, 1471.4430681164376, 388.0669790022075, 0.01600000075995922, -0.11200000531971455, 1.0560000501573086, 0.0, 0.0, 0.0, 0.0, 0.0, 1.7103872604063845E9, 0.0, 2024-03-13 20:34:20.406
25.0, 554.6047240290791, -243.86204656073824, 1575.3917174348608, 263.0907421829179, 0.01600000075995922, -0.11200000531971455, 1.0560000501573086, 0.0, 0.0, 0.0, 0.0, 0.0, 1.710387260407118E9, 0.0, 2024-03-13 20:34:20.407
25.0, 587.6467401375994, -22.564686382655054, 1573.9219367522746, 43.463247335050255, 0.01600000075995922, -0.11200000531971455, 1.0560000501573086, 0.0, 0.0, 0.0, 0.0, 0.0, 1.710387260407118E9, 0.0, 2024-03-13 20:34:20.407
26.0, 496.15943747153506, 1.3332743342034519, 1477.5316252443008, 4.151288950815797, 0.01600000075995922, -0.11200000531971455, 1.0560000501573086, 0.0, 0.0, 0.0, 0.0, 0.0, 1.7103872604209695E9, 0.0, 2024-03-13 20:34:20.420
26.0, 704.0436464585364, -41.439961459022015, 1233.9257618305273, -43.34544048644602, 0.01600000075995922, -0.11200000531971455, 1.0560000501573086, 0.0, 0.0, 0.0, 0.0, 0.0, 1.7103872604209695E9, 0.0, 2024-03-13 20:34:20.420
27.0, 483.8906956668943, -230.3161289212294, 1476.6060000052676, -168.01500550936908, 0.01600000075995922, -0.11200000531971455, 1.0560000501573086, 0.0, 0.0, 0.0, 0.0, 0.0, 1.7103872604366794E9, 0.0, 2024-03-13 20:34:20.436
27.0, 415.9498031218536, -62.07298951456323, 1391.779459160287, -34.051789096556604, 0.01600000075995922, -0.11200000531971455, 1.0560000501573086, 0.0, 0.0, 0.0, 0.0, 0.0, 1.7103872604366794E9, 0.0, 2024-03-13 20:34:20.436
28.0, 362.7385065522976, -301.87911457335576, 1371.2062695040368, 178.5895726340823, 0.01600000075995922, -0.11200000531971455, 1.0560000501573086, 0.0, 0.0, 0.0, 0.0, 0.0, 1.710387260437106E9, 0.0, 2024-03-13 20:34:20.437
28.0, 467.60343135986477, -318.89565937174484, 1473.6851381398737, 212.3926583835855, 0.01600000075995922, -0.11200000531971455, 1.0560000501573086, 0.0, 0.0, 0.0, 0.0, 0.0, 1.710387260437106E9, 0.0, 2024-03-13 20:34:20.437
29.0, 271.1745359371416, -253.27537474920973, 1231.8127183555625, 281.83138086088, 0.01600000075995922, -0.11200000531971455, 1.0560000501573086, 0.0, 0.0, 0.0, 0.0, 0.0, 1.7103872604507287E9, 0.0, 2024-03-13 20:34:20.450
29.0, 476.19211160810664, -93.04684094758704, 1465.3208518889733, 381.78768697660416, 0.01600000075995922, -0.11200000531971455, 1.0560000501573086, 0.0, 0.0, 0.0, 0.0, 0.0, 1.7103872604507287E9, 0.0, 2024-03-13 20:34:20.450
30.0, 581.0046778162941, -240.99728319467977, 1568.9029910117388, 263.0496032834053, 0.01600000075995922, -0.11200000531971455, 1.0560000501573086, 0.0, 0.0, 0.0, 0.0, 0.0, 1.7103872604665124E9, 0.0, 2024-03-13 20:34:20.466
30.0, 620.9168901434168, -18.099245835561305, 1568.491602016613, 43.059338139835745, 0.01600000075995922, -0.11200000531971455, 1.0560000501573086, 0.0, 0.0, 0.0, 0.0, 0.0, 1.7103872604665124E9, 0.0, 2024-03-13 20:34:20.466
31.0, 494.16233089519665, 6.307341275271028, 1481.4061615983956, 11.316937265917659, 0.01600000075995922, -0.11200000531971455, 1.0560000501573086, 0.0, 0.0, 0.0, 0.0, 0.0, 1.7103872604670932E9, 0.0, 2024-03-13 20:34:20.467
31.0, 702.4953278768808, -46.40280870022252, 1726.3303397465497, -44.912458567880094, 0.01600000075995922, -0.11200000531971455, 1.0560000501573086, 0.0, 0.0, 0.0, 0.0, 0.0, 1.7103872604670932E9, 0.0, 2024-03-13 20:34:20.467
32.0, 478.7371135279536, -235.65670605795458, 1969.9530327101238, -169.96349338628352, 0.01600000075995922, -0.11200000531971455, 1.0560000501573086, 0.0, 0.0, 0.0, 0.0, 0.0, 1.7103872604806807E9, 0.0, 2024-03-13 20:34:20.480
32.0, 418.5490335910581, -58.57244315603748, 1886.805706945248, -25.565956097096205, 0.01600000075995922, -0.11200000531971455, 1.0560000501573086, 0.0, 0.0, 0.0, 0.0, 0.0, 1.7103872604806807E9, 0.0, 2024-03-13 20:34:20.480
33.0, 365.7192068169825, -289.3354901219718, 1876.0983733721077, 191.30149258347228, 0.01600000075995922, -0.11200000531971455, 1.0560000501573086, 0.0, 0.0, 0.0, 0.0, 0.0, 1.7103872604964063E9, 0.0, 2024-03-13 20:34:20.496
33.0, 462.93603621516377, -322.6131199277006, 1975.8059761407785, 213.7726814672351, 0.01600000075995922, -0.11200000531971455, 1.0560000501573086, 0.0, 0.0, 0.0, 0.0, 0.0, 1.7103872604964063E9, 0.0, 2024-03-13 20:34:20.496
34.0, 261.86966484738514, -260.41484376462176, 2218.1888922690414, 284.0341819347814, 0.01600000075995922, -0.11200000531971455, 1.0560000501573086, 0.0, 0.0, 0.0, 0.0, 0.0, 1.7103872604971228E9, 0.0, 2024-03-13 20:34:20.497
34.0, 447.69407394574955, -93.47692944249138, 2458.2081916253082, 389.7723733820021, 0.01600000075995922, -0.11200000531971455, 1.0560000501573086, 0.0, 0.0, 0.0, 0.0, 0.0, 1.7103872604971228E9, 0.0, 2024-03-13 20:34:20.497
35.0, 556.0483254119754, -250.582646781113, 2555.963566617109, 267.1634932346642, 0.01600000075995922, -0.11200000531971455, 1.0560000501573086, 0.0, 0.0, 0.0, 0.0, 0.0, 1.71038726051076E9, 0.0, 2024-03-13 20:34:20.510
35.0, 596.4841237328947, -27.295659826602787, 2553.962720140815, 38.86317038955167, 0.01600000075995922, -0.11200000531971455, 1.0560000501573086, 0.0, 0.0, 0.0, 0.0, 0.0, 1.71038726051076E9, 0.0, 2024-03-13 20:34:20.510
36.0, 493.7659014998935, -1.4230319331400096, 2458.028676427435, 1.929788377135992, 0.01600000075995922, -0.11200000531971455, 1.0560000501573086, 0.0, 0.0, 0.0, 0.0, 0.0, 1.7103872605263836E9, 0.0, 2024-03-13 20:34:20.526
36.0, 704.8290254492313, -47.00119269313291, 2698.962381322868, -57.56828001793474, 0.01600000075995922, -0.11200000531971455, 1.0560000501573086, 0.0, 0.0, 0.0, 0.0, 0.0, 1.7103872605263836E9, 0.0, 2024-03-13 20:34:20.526
37.0, 491.6322885751724, -237.02550944173709, 2940.127960015554, -180.95505935605615, 0.01600000075995922, -0.11200000531971455, 1.0560000501573086, 0.0, 0.0, 0.0, 0.0, 0.0, 1.7103872605270944E9, 0.0, 2024-03-13 20:34:20.527
37.0, 416.4659093157388, -59.31294334726408, 2851.6325773140416, -37.170865659601986, 0.01600000075995922, -0.11200000531971455, 1.0560000501573086, 0.0, 0.0, 0.0, 0.0, 0.0, 1.7103872605270944E9, 0.0, 2024-03-13 20:34:20.527
38.0, 365.02732532517985, -290.92494760314, 2837.697710079141, 177.48256224719808, 0.01600000075995922, -0.11200000531971455, 1.0560000501573086, 0.0, 0.0, 0.0, 0.0, 0.0, 1.7103872605409403E9, 0.0, 2024-03-13 20:34:20.540
38.0, 469.0657322425395, -310.93341236608103, 2950.8465132885613, 214.31870686076581, 0.01600000075995922, -0.11200000531971455, 1.0560000501573086, 0.0, 0.0, 0.0, 0.0, 0.0, 1.7103872605409403E9, 0.0, 2024-03-13 20:34:20.540
39.0, 264.30433971853927, -248.1367522100918, 2706.5356787331402, 286.3117810077965, 0.01600000075995922, -0.11200000531971455, 1.0560000501573086, 0.0, 0.0, 0.0, 0.0, 0.0, 1.7103872605565207E9, 0.0, 2024-03-13 20:34:20.556
39.0, 474.4380985288881, -76.96527113812044, 2944.696247811429, 393.87504363339394, 0.01600000075995922, -0.11200000531971455, 1.0560000501573086, 0.0, 0.0, 0.0, 0.0, 0.0, 1.7103872605565207E9, 0.0, 2024-03-13 20:34:20.556
40.0, 561.2767055500299, -227.72811815189198, 3053.652623170521, 279.30320849083364, 0.01600000075995922, -0.11200000531971455, 1.0560000501573086, 0.0, 0.0, 0.0, 0.0, 0.0, 1.7103872605571868E9, 0.0, 2024-03-13 20:34:20.557
40.0, 593.2827693708241, -10.338953427504748, 3048.8692911271937, 50.318483953829855, 0.01600000075995922, -0.11200000531971455, 1.0560000501573086, 0.0, 0.0, 0.0, 0.0, 0.0, 1.7103872605571868E9, 0.0, 2024-03-13 20:34:20.557
41.0, 476.26316970726475, -2.447764520999044, 2944.5840508127585, 1.8961292775347829, 0.01600000075995922, -0.12800000607967377, 1.0560000501573086, 0.0, 0.0, 0.0, 0.0, 0.0, 1.7103872605710385E9, 0.0, 2024-03-13 20:34:20.571
41.0, 694.7911339681596, -43.99057322880253, 2705.0359788509086, -46.57297414820641, 0.01600000075995922, -0.12800000607967377, 1.0560000501573086, 0.0, 0.0, 0.0, 0.0, 0.0, 1.7103872605710385E9, 0.0, 2024-03-13 20:34:20.571
42.0, 479.84038401488215, -231.45305850775912, 2948.8157476126216, -171.96433986257762, 0.01600000075995922, -0.12800000607967377, 1.0560000501573086, 0.0, 0.0, 0.0, 0.0, 0.0, 1.7103872605872288E9, 0.0, 2024-03-13 20:34:20.587
42.0, 415.8750051227398, -50.39328195294365, 2866.218187141232, -25.177006501704454, 0.01600000075995922, -0.12800000607967377, 1.0560000501573086, 0.0, 0.0, 0.0, 0.0, 0.0, 1.7103872605872288E9, 0.0, 2024-03-13 20:34:20.587
43.0, 369.934074067045, -287.54781794315204, 2848.240488054231, 184.8838242595084, 0.01600000075995922, -0.12800000607967377, 1.0560000501573086, 0.0, 0.0, 0.0, 0.0, 0.0, 1.7103872605874715E9, 0.0, 2024-03-13 20:34:20.587
43.0, 479.817944615148, -314.9051861190237, 2961.4341700631194, 218.8439858071506, 0.01600000075995922, -0.12800000607967377, 1.0560000501573086, 0.0, 0.0, 0.0, 0.0, 0.0, 1.7103872605874715E9, 0.0, 2024-03-13 20:34:20.587
44.0, 272.97716771578416, -251.40916467132047, 3206.147043863777, 291.1736509501934, 0.01600000075995922, -0.12800000607967377, 1.0560000501573086, 0.0, 0.0, 0.0, 0.0, 0.0, 1.710387260600726E9, 0.0, 2024-03-13 20:34:20.600
44.0, 485.53064179746434, -77.32804143382236, 3447.060179309454, 401.7475330401212, 0.01600000075995922, -0.12800000607967377, 1.0560000501573086, 0.0, 0.0, 0.0, 0.0, 0.0, 1.710387260600726E9, 0.0, 2024-03-13 20:34:20.600
45.0, 565.85808299575, -235.75020355684683, 3545.6719913911074, 276.59926082286984, 0.01600000075995922, -0.12800000607967377, 1.0560000501573086, 0.0, 0.0, 0.0, 0.0, 0.0, 1.7103872606163597E9, 0.0, 2024-03-13 20:34:20.616
45.0, 585.8366285590455, -21.94012309005484, 3534.957178018056, 42.93592144129798, 0.01600000075995922, -0.12800000607967377, 1.0560000501573086, 0.0, 0.0, 0.0, 0.0, 0.0, 1.7103872606163597E9, 0.0, 2024-03-13 20:34:20.616
46.0, 495.2843008819036, 8.921531344298273, 3445.7399946250953, 14.129342032596469, 0.01600000075995922, -0.12800000607967377, 1.0560000501573086, 0.0, 0.0, 0.0, 0.0, 0.0, 1.7103872606170833E9, 0.0, 2024-03-13 20:34:20.617
46.0, 708.8269785018638, -41.17816846212372, 3682.806642966345, -47.272335439920425, 0.01600000075995922, -0.12800000607967377, 1.0560000501573086, 0.0, 0.0, 0.0, 0.0, 0.0, 1.7103872606170833E9, 0.0, 2024-03-13 20:34:20.617
47.0, 488.9657399067655, -231.58021510625258, 3440.8500754330307, -173.5650170436129, 0.01600000075995922, -0.12800000607967377, 1.0560000501573086, 0.0, 0.0, 0.0, 0.0, 0.0, 1.7103872606307485E9, 0.0, 2024-03-13 20:34:20.630
47.0, 417.20640950696543, -56.12654858501628, 3349.0112221711315, -37.219484359025955, 0.01600000075995922, -0.12800000607967377, 1.0560000501573086, 0.0, 0.0, 0.0, 0.0, 0.0, 1.7103872606307485E9, 0.0, 2024-03-13 20:34:20.630
48.0, 379.36236185533926, -287.9666867381893, 3342.178424952086, 184.13210436841473, 0.01600000075995922, -0.12800000607967377, 1.0560000501573086, 0.0, 0.0, 0.0, 0.0, 0.0, 1.710387260646397E9, 0.0, 2024-03-13 20:34:20.646
48.0, 488.8535429080948, -317.97190408268943, 3441.1417876295745, 211.9924890883267, 0.01600000075995922, -0.12800000607967377, 1.0560000501573086, 0.0, 0.0, 0.0, 0.0, 0.0, 1.710387260646397E9, 0.0, 2024-03-13 20:34:20.646
49.0, 250.16751788603142, -254.46466293511912, 3199.729375539813, 288.0732738869265, 0.01600000075995922, -0.12800000607967377, 1.0560000501573086, 0.0, 0.0, 0.0, 0.0, 0.0, 1.7103872606470788E9, 0.0, 2024-03-13 20:34:20.647
49.0, 483.2455629245378, -77.3130818339996, 2958.4403801485896, 401.9008689383045, 0.01600000075995922, -0.12800000607967377, 1.0560000501573086, 0.0, 0.0, 0.0, 0.0, 0.0, 1.7103872606470788E9, 0.0, 2024-03-13 20:34:20.647
50.0, 563.5617844229564, -238.78700232086703, 3051.3787639974616, 268.951165413484, 0.01600000075995922, -0.12800000607967377, 1.0560000501573086, 0.0, 0.0, 0.0, 0.0, 0.0, 1.7103872606610096E9, 0.0, 2024-03-13 20:34:20.661
50.0, 591.9962437860668, -27.434036124963313, 3042.122511607129, 34.47626774152741, 0.01600000075995922, -0.12800000607967377, 1.0560000501573086, 0.0, 0.0, 0.0, 0.0, 0.0, 1.7103872606610096E9, 0.0, 2024-03-13 20:34:20.661
51.0, 491.52944132639095, 4.007302802521735, 2949.692754152231, 10.333343577571213, 0.01600000075995922, -0.12800000607967377, 1.0560000501573086, 0.0, 0.0, 0.0, 0.0, 0.0, 1.7103872606763704E9, 0.0, 2024-03-13 20:34:20.676
51.0, 709.0999911986291, -47.947387381922454, 3185.5214956081472, -56.165817534551024, 0.01600000075995922, -0.12800000607967377, 1.0560000501573086, 0.0, 0.0, 0.0, 0.0, 0.0, 1.7103872606763704E9, 0.0, 2024-03-13 20:34:20.676
52.0, 487.5931966230273, -246.37899923091754, 3424.5702909259126, -189.99065764900297, 0.01600000075995922, -0.12800000607967377, 1.0560000501573086, 0.0, 0.0, 0.0, 0.0, 0.0, 1.710387260677061E9, 0.0, 2024-03-13 20:34:20.677
52.0, 425.15743681276217, -61.87103491695598, 3338.887312991079, -44.37765287421644, 0.01600000075995922, -0.12800000607967377, 1.0560000501573086, 0.0, 0.0, 0.0, 0.0, 0.0, 1.710387260677061E9, 0.0, 2024-03-13 20:34:20.677
53.0, 376.9089874844067, -289.50752551993355, 3330.8091290867887, 173.660384492483, 0.01600000075995922, -0.12800000607967377, 1.0560000501573086, 0.0, 0.0, 0.0, 0.0, 0.0, 1.7103872606906717E9, 0.0, 2024-03-13 20:34:20.690
53.0, 465.05655949003994, -319.71095756208524, 3433.8190635163337, 199.71813743375242, 0.01600000075995922, -0.12800000607967377, 1.0560000501573086, 0.0, 0.0, 0.0, 0.0, 0.0, 1.7103872606906717E9, 0.0, 2024-03-13 20:34:20.690
54.0, 261.4844551519491, -257.56503999838606, 3192.133638729807, 273.78311615623534, 0.01600000075995922, -0.12800000607967377, 1.0560000501573086, 0.0, 0.0, 0.0, 0.0, 0.0, 1.710387260706395E9, 0.0, 2024-03-13 20:34:20.706
54.0, 476.25942980730906, -81.40453238552436, 3430.728036202956, 386.41768312174827, 0.01600000075995922, -0.12800000607967377, 1.0560000501573086, 0.0, 0.0, 0.0, 0.0, 0.0, 1.710387260706395E9, 0.0, 2024-03-13 20:34:20.706
55.0, 556.1829618103802, -237.87820663163438, 3533.6444731336087, 265.7647706512362, 0.01600000075995922, -0.12800000607967377, 1.0560000501573086, 0.0, 0.0, 0.0, 0.0, 0.0, 1.7103872607071817E9, 0.0, 2024-03-13 20:34:20.707
55.0, 588.3984600286931, -27.808026120532304, 3522.3125762678683, 29.59195839939639, 0.01600000075995922, -0.12800000607967377, 1.0560000501573086, 0.0, 0.0, 0.0, 0.0, 0.0, 1.7103872607071817E9, 0.0, 2024-03-13 20:34:20.707
56.0, 473.6153205386363, 3.6108734072186053, 3436.22568913782, 4.8880492420867085, 0.01600000075995922, -0.12800000607967377, 1.0560000501573086, 0.0, 0.0, 0.0, 0.0, 0.0, 1.7103872607211432E9, 0.0, 2024-03-13 20:34:20.721
56.0, 697.596058934927, -51.133782144170254, 3675.521317852661, -56.25557513348758, 0.01600000075995922, -0.12800000607967377, 1.0560000501573086, 0.0, 0.0, 0.0, 0.0, 0.0, 1.7103872607211432E9, 0.0, 2024-03-13 20:34:20.721
57.0, 486.54976453538984, -243.03552867053077, 3918.9009173191153, -185.61497470084578, 0.01600000075995922, -0.12800000607967377, 1.0560000501573086, 0.0, 0.0, 0.0, 0.0, 0.0, 1.710387260736395E9, 0.0, 2024-03-13 20:34:20.736
57.0, 426.42900279769674, -55.01205839822069, 3837.761917830445, -32.95599840953946, 0.01600000075995922, -0.12800000607967377, 1.0560000501573086, 0.0, 0.0, 0.0, 0.0, 0.0, 1.710387260736395E9, 0.0, 2024-03-13 20:34:20.736
58.0, 373.76747152162716, -288.01904533756897, 3827.97833954636, 187.06044603371993, 0.01600000075995922, -0.12800000607967377, 1.0560000501573086, 0.0, 0.0, 0.0, 0.0, 0.0, 1.7103872607371075E9, 0.0, 2024-03-13 20:34:20.737
58.0, 485.4614536482841, -303.10954165877774, 3942.421148140449, 224.0349669456482, 0.01600000075995922, -0.12800000607967377, 1.0560000501573086, 0.0, 0.0, 0.0, 0.0, 0.0, 1.7103872607371075E9, 0.0, 2024-03-13 20:34:20.737
59.0, 263.2571677309461, -259.19937627902254, 4176.557584866416, 283.4731969414279, 0.01600000075995922, -0.12800000607967377, 1.0560000501573086, 0.0, 0.0, 0.0, 0.0, 0.0, 1.710387260750698E9, 0.0, 2024-03-13 20:34:20.750
59.0, 474.77842942485586, -80.17784520005807, 3931.65210621804, 400.1505957590416, 0.01600000075995922, -0.12800000607967377, 1.0560000501573086, 0.0, 0.0, 0.0, 0.0, 0.0, 1.710387260750698E9, 0.0, 2024-03-13 20:34:20.750
60.0, 550.7675866745412, -237.1638857400976, 4026.920447739307, 266.2098187459633, 0.01600000075995922, -0.12800000607967377, 1.0560000501573086, 0.0, 0.0, 0.0, 0.0, 0.0, 1.710387260766441E9, 0.0, 2024-03-13 20:34:20.766
60.0, 580.7391449194402, -35.822631725575775, 4016.1532757668756, 31.731181174051017, 0.01600000075995922, -0.12800000607967377, 1.0560000501573086, 0.0, 0.0, 0.0, 0.0, 0.0, 1.710387260766441E9, 0.0, 2024-03-13 20:34:20.766
61.0, 484.19175761332735, -2.167272024322301, 3924.9502054974437, 5.149842238985002, 0.01600000075995922, -0.12800000607967377, 1.0560000501573086, 0.0, 0.0, 0.0, 0.0, 0.0, 1.7103872607673457E9, 0.0, 2024-03-13 20:34:20.767
61.0, 700.875951196067, -40.50124657014385, 3684.736431343481, -42.13745280075818, 0.01600000075995922, -0.12800000607967377, 1.0560000501573086, 0.0, 0.0, 0.0, 0.0, 0.0, 1.7103872607673457E9, 0.0, 2024-03-13 20:34:20.767
62.0, 496.22114582080394, -236.22143095126376, 3928.7854729020037, -176.1530278129503, 0.01600000075995922, -0.12800000607967377, 1.0560000501573086, 0.0, 0.0, 0.0, 0.0, 0.0, 1.7103872607807033E9, 0.0, 2024-03-13 20:34:20.780
62.0, 394.22098437929526, -55.67028079042211, 3841.8047496825457, -28.6064947610721, 0.01600000075995922, -0.12800000607967377, 1.0560000501573086, 0.0, 0.0, 0.0, 0.0, 0.0, 1.7103872607807033E9, 0.0, 2024-03-13 20:34:20.780
63.0, 368.6699878820218, -288.3481565336697, 3832.1483279969543, 190.3328584949486, 0.01600000075995922, -0.12800000607967377, 1.0560000501573086, 0.0, 0.0, 0.0, 0.0, 0.0, 1.71038726079643E9, 0.0, 2024-03-13 20:34:20.796
63.0, 481.90854869037867, -321.67440503882244, 3931.3660038714297, 210.1786376098171, 0.01600000075995922, -0.12800000607967377, 1.0560000501573086, 0.0, 0.0, 0.0, 0.0, 0.0, 1.71038726079643E9, 0.0, 2024-03-13 20:34:20.796
64.0, 267.34487838251516, -263.4105036291294, 4169.784626046661, 272.51529007125646, 0.01600000075995922, -0.12800000607967377, 1.0560000501573086, 0.0, 0.0, 0.0, 0.0, 0.0, 1.7103872607972276E9, 0.0, 2024-03-13 20:34:20.797
64.0, 469.9090796825476, -83.84668705658987, 3925.043702996336, 392.6259170481935, 0.01600000075995922, -0.12800000607967377, 1.0560000501573086, 0.0, 0.0, 0.0, 0.0, 0.0, 1.7103872607972276E9, 0.0, 2024-03-13 20:34:20.797
65.0, 550.5207532774657, -246.3565598311834, 4017.8324908469804, 257.21535935252905, 0.01600000075995922, -0.12800000607967377, 1.0560000501573086, 0.0, 0.0, 0.0, 0.0, 0.0, 1.710387260810661E9, 0.0, 2024-03-13 20:34:20.810
65.0, 583.4505723873153, -42.0383454519324, 4006.5679121804424, 17.96460943715647, 0.01600000075995922, -0.12800000607967377, 1.0560000501573086, 0.0, 0.0, 0.0, 0.0, 0.0, 1.710387260810661E9, 0.0, 2024-03-13 20:34:20.810
66.0, 478.40613238187507, -3.3191612106747925, 3925.585988489911, 1.2266871854662895, 0.01600000075995922, -0.12800000607967377, 1.0560000501573086, 0.0, 0.0, 0.0, 0.0, 0.0, 1.7103872608263917E9, 0.0, 2024-03-13 20:34:20.826
66.0, 701.2536810915917, -40.3703500716947, 3687.8779473062605, -44.931158067658544, 0.01600000075995922, -0.12800000607967377, 1.0560000501573086, 0.0, 0.0, 0.0, 0.0, 0.0, 1.7103872608263917E9, 0.0, 2024-03-13 20:34:20.826
67.0, 472.76823319867253, -247.3925121189095, 3922.2743070791475, -186.28441679291427, 0.01600000075995922, -0.12800000607967377, 1.0560000501573086, 0.0, 0.0, 0.0, 0.0, 0.0, 1.7103872608271031E9, 0.0, 2024-03-13 20:34:20.827
67.0, 399.916852011811, -69.38075402798131, 3829.5416177278385, -42.58250089548528, 0.01600000075995922, -0.12800000607967377, 1.0560000501573086, 0.0, 0.0, 0.0, 0.0, 0.0, 1.7103872608271031E9, 0.0, 2024-03-13 20:34:20.827
68.0, 385.3499416843988, -292.98563247872517, 3821.6317293215543, 176.76076155574992, 0.01600000075995922, -0.12800000607967377, 1.0560000501573086, 0.0, 0.0, 0.0, 0.0, 0.0, 1.7103872608410895E9, 0.0, 2024-03-13 20:34:20.841
68.0, 442.90139215253294, -333.7243626960553, 3922.173329780344, 195.89221977908164, 0.01600000075995922, -0.12800000607967377, 1.0560000501573086, 0.0, 0.0, 0.0, 0.0, 0.0, 1.7103872608410895E9, 0.0, 2024-03-13 20:34:20.841
69.0, 241.54704848816618, -289.2719118227251, 4153.370205141138, 253.44180029723793, 0.01600000075995922, -0.12800000607967377, 1.0560000501573086, 0.0, 0.0, 0.0, 0.0, 0.0, 1.71038726085642E9, 0.0, 2024-03-13 20:34:20.856
69.0, 476.2369904075749, -98.82498637912795, 3916.5466502970085, 384.15878354851156, 0.01600000075995922, -0.12800000607967377, 1.0560000501573086, 0.0, 0.0, 0.0, 0.0, 0.0, 1.71038726085642E9, 0.0, 2024-03-13 20:34:20.856
70.0, 565.6823076978326, -252.05242746369913, 4019.3770695286803, 255.83533626887947, 0.01600000075995922, -0.12800000607967377, 1.0560000501573086, 0.0, 0.0, 0.0, 0.0, 0.0, 1.7103872608571239E9, 0.0, 2024-03-13 20:34:20.857
70.0, 583.2037389902398, -41.63817615667358, 4008.516400057357, 20.949049601797014, 0.01600000075995922, -0.12800000607967377, 1.0560000501573086, 0.0, 0.0, 0.0, 0.0, 0.0, 1.7103872608571239E9, 0.0, 2024-03-13 20:34:20.857
71.0, 473.55922203930095, -6.797268169466406, 3918.4652189742774, -4.536498646251857, 0.01600000075995922, -0.12800000607967377, 1.0560000501573086, 0.0, 0.0, 0.0, 0.0, 0.0, 1.7103872608711274E9, 0.0, 2024-03-13 20:34:20.871
71.0, 710.8914032774046, -33.055105758365244, 3684.6354540446773, -44.912458567880094, 0.01600000075995922, -0.12800000607967377, 1.0560000501573086, 0.0, 0.0, 0.0, 0.0, 0.0, 1.7103872608711274E9, 0.0, 2024-03-13 20:34:20.871
72.0, 480.25177301000804, -242.68397807469591, 3439.7580246459693, -185.3793610036373, 0.01600000075995922, -0.12800000607967377, 1.0560000501573086, 0.0, 0.0, 0.0, 0.0, 0.0, 1.7103872608867967E9, 0.0, 2024-03-13 20:34:20.886
72.0, 411.2150897779502, -66.23923806520179, 3343.6706450344063, -37.02874946128577, 0.01600000075995922, -0.12800000607967377, 1.0560000501573086, 0.0, 0.0, 0.0, 0.0, 0.0, 1.7103872608867967E9, 0.0, 2024-03-13 20:34:20.886
73.0, 360.46090747928247, -286.46324695600197, 3343.277955539059, 189.52504010451958, 0.01600000075995922, -0.12800000607967377, 1.0560000501573086, 0.0, 0.0, 0.0, 0.0, 0.0, 1.7103872608872335E9, 0.0, 2024-03-13 20:34:20.887
73.0, 465.13509738910943, -316.4647244005464, 3447.0059507600963, 217.74071532022208, 0.01600000075995922, -0.12800000607967377, 1.0560000501573086, 0.0, 0.0, 0.0, 0.0, 0.0, 1.7103872608872335E9, 0.0, 2024-03-13 20:34:20.887
74.0, 265.3365521063097, -262.5241473396309, 3685.3460350362584, 277.59407421108335, 0.01600000075995922, -0.12800000607967377, 1.0560000501573086, 0.0, 0.0, 0.0, 0.0, 0.0, 1.7103872609007783E9, 0.0, 2024-03-13 20:34:20.900
74.0, 488.07751366728917, -73.25155048212036, 3445.766173924785, 407.2638854747638, 0.01600000075995922, -0.12800000607967377, 1.0560000501573086, 0.0, 0.0, 0.0, 0.0, 0.0, 1.7103872609007783E9, 0.0, 2024-03-13 20:34:20.900
75.0, 560.7007609568536, -229.84864142676815, 3546.3676127828658, 280.33542087860405, 0.01600000075995922, -0.12800000607967377, 1.0560000501573086, 0.0, 0.0, 0.0, 0.0, 0.0, 1.7103872609166927E9, 0.0, 2024-03-13 20:34:20.916
75.0, 584.1237543793395, -30.268880291376263, 3532.122333851643, 522.7033774070442, 0.01600000075995922, -0.12800000607967377, 1.0560000501573086, 0.0, 0.0, 0.0, 0.0, 0.0, 1.7103872609166927E9, 0.0, 2024-03-13 20:34:20.916
76.0, 491.45838322723284, 6.830927269067615, 3442.2506679664366, 504.60787147143856, 0.01600000075995922, -0.12800000607967377, 1.0560000501573086, 0.0, 0.0, 0.0, 0.0, 0.0, 1.7103872609172487E9, 0.0, 2024-03-13 20:34:20.917
76.0, 712.5593986576423, -33.021446658764035, 3199.8714917381294, 453.4236006778665, 0.01600000075995922, -0.12800000607967377, 1.0560000501573086, 0.0, 0.0, 0.0, 0.0, 0.0, 1.7103872609172487E9, 0.0, 2024-03-13 20:34:20.917
77.0, 481.1119499998167, -239.46018431289122, 3434.914854203351, 308.2406843979843, 0.01600000075995922, -0.12800000607967377, 1.0560000501573086, 0.0, 0.0, 0.0, 0.0, 0.0, 1.710387260930814E9, 0.0, 2024-03-13 20:34:20.930
77.0, 412.0341278682463, -62.678853307385, 3347.4554237895645, 458.9324733125977, 0.01600000075995922, -0.12800000607967377, 1.0560000501573086, 0.0, 0.0, 0.0, 0.0, 0.0, 1.710387260930814E9, 0.0, 2024-03-13 20:34:20.930
78.0, 392.029403005261, -274.3983296989463, 3352.06672043493, 693.1006991881877, 0.01600000075995922, -0.12800000607967377, 1.0560000501573086, 0.0, 0.0, 0.0, 0.0, 0.0, 1.710387260946401E9, 0.0, 2024-03-13 20:34:20.946
78.0, 458.8071866640821, -312.93425884237513, 3445.379094279371, 708.1182674602605, 0.01600000075995922, -0.12800000607967377, 1.0560000501573086, 0.0, 0.0, 0.0, 0.0, 0.0, 1.710387260946401E9, 0.0, 2024-03-13 20:34:20.946
79.0, 246.1733047333546, -255.20142322639003, 3688.8316217949614, 773.5739964847453, 0.01600000075995922, -0.12800000607967377, 1.0560000501573086, 0.0, 0.0, 0.0, 0.0, 0.0, 1.7103872609471114E9, 0.0, 2024-03-13 20:34:20.947
79.0, 476.6595991025679, -65.55483637331054, 3446.925542911049, 901.3102794713341, 0.01600000075995922, -0.12800000607967377, 1.0560000501573086, 0.0, 0.0, 0.0, 0.0, 0.0, 1.7103872609471114E9, 0.0, 2024-03-13 20:34:20.947
80.0, 578.2521114489064, -226.123701070901, 3545.642072191462, 769.4750661333092, 0.01600000075995922, -0.12800000607967377, 1.0560000501573086, 0.0, 0.0, 0.0, 0.0, 0.0, 1.7103872609607563E9, 0.0, 2024-03-13 20:34:20.960
80.0, 599.60320029594, -33.788126149680465, 3527.8812873018906, 1006.6782208229415, 0.01600000075995922, -0.12800000607967377, 1.0560000501573086, 0.0, 0.0, 0.0, 0.0, 0.0, 1.7103872609607563E9, 0.0, 2024-03-13 20:34:20.960
81.0, 507.35669793887064, 10.058460930828005, 3442.452622564044, 990.8939730599523, 0.01600000075995922, -0.12800000607967377, 1.0560000501573086, 0.0, 0.0, 0.0, 0.0, 0.0, 1.7103872609764E9, 0.0, 2024-03-13 20:34:20.976
81.0, 717.9111954942346, -32.176229268778116, 3203.648790693376, 940.0313336625695, 0.01600000075995922, -0.12800000607967377, 1.0560000501573086, 0.0, 0.0, 0.0, 0.0, 0.0, 1.7103872609764E9, 0.0, 2024-03-13 20:34:20.976
82.0, 489.2686718031764, -233.74187728064135, 3443.5278438013047, 806.8983750399202, 0.01600000075995922, -0.12800000607967377, 1.0560000501573086, 0.0, 0.0, 0.0, 0.0, 0.0, 1.7103872609771495E9, 0.0, 2024-03-13 20:34:20.977
82.0, 401.6446857913397, -66.40753356320783, 3347.436724289786, 942.4510489339009, 0.01600000075995922, -0.12800000607967377, 1.0560000501573086, 0.0, 0.0, 0.0, 0.0, 0.0, 1.7103872609771495E9, 0.0, 2024-03-13 20:34:20.977
83.0, 369.69846036983654, -280.68510152446106, 3344.6467589228414, 1176.9857850051485, 0.01600000075995922, -0.12800000607967377, 1.0560000501573086, 0.0, 0.0, 0.0, 0.0, 0.0, 1.7103872609910195E9, 0.0, 2024-03-13 20:34:20.991
83.0, 467.7866864576936, -319.56510146381333, 3445.311776080169, 1195.6908946335316, 0.01600000075995922, -0.12800000607967377, 1.0560000501573086, 0.0, 0.0, 0.0, 0.0, 0.0, 1.7103872609910195E9, 0.0, 2024-03-13 20:34:20.991
84.0, 254.8835317301564, -265.7292416016571, 3679.695046203211, 1255.4170969258994, 0.01600000075995922, -0.12800000607967377, 1.0560000501573086, 0.0, 0.0, 0.0, 0.0, 0.0, 1.7103872610068784E9, 0.0, 2024-03-13 20:34:21.006
84.0, 478.52954908041283, -78.51358971977606, 3924.7108519002795, 1378.69167926535, 0.01600000075995922, -0.12800000607967377, 1.0560000501573086, 0.0, 0.0, 0.0, 0.0, 0.0, 1.7103872610068784E9, 0.0, 2024-03-13 20:34:21.006
85.0, 573.7156128026545, -232.75080379238352, 4034.867735145148, 1253.251694851555, 0.01600000075995922, -0.12800000607967377, 1.0560000501573086, 0.0, 0.0, 0.0, 0.0, 0.0, 1.71038726100747E9, 0.0, 2024-03-13 20:34:21.007
85.0, 560.2108340626583, -38.05535199912265, 4011.9197090170346, 1493.3869311064482, 0.01600000075995922, -0.12800000607967377, 1.0560000501573086, 0.0, 0.0, 0.0, 0.0, 0.0, 1.71038726100747E9, 0.0, 2024-03-13 20:34:21.007
86.0, 481.2035775487311, 2.6384994187392294, 3930.8966464269906, 1481.8624293929897, 0.01600000075995922, -0.12800000607967377, 1.0560000501573086, 0.0, 0.0, 0.0, 0.0, 0.0, 1.710387261020872E9, 0.0, 2024-03-13 20:34:21.020
86.0, 716.9463013056666, -36.03954592300579, 3691.139140067622, 1435.2258769455366, 0.01600000075995922, -0.12800000607967377, 1.0560000501573086, 0.0, 0.0, 0.0, 0.0, 0.0, 1.710387261020872E9, 0.0, 2024-03-13 20:34:21.020
87.0, 489.1489950045943, -244.96905694762245, 3926.8482047249563, 1288.6778971818276, 0.01600000075995922, -0.12800000607967377, 1.0560000501573086, 0.0, 0.0, 0.0, 0.0, 0.0, 1.7103872610365064E9, 0.0, 2024-03-13 20:34:21.036
87.0, 417.4457631041296, -60.88744122860953, 3839.220478813164, 1441.8604594669305, 0.01600000075995922, -0.12800000607967377, 1.0560000501573086, 0.0, 0.0, 0.0, 0.0, 0.0, 1.7103872610365064E9, 0.0, 2024-03-13 20:34:21.036
88.0, 378.29649036796764, -274.4768675980158, 3841.1540070902556, 1671.8437372921035, 0.01600000075995922, -0.12800000607967377, 1.0560000501573086, 0.0, 0.0, 0.0, 0.0, 0.0, 1.710387261037152E9, 0.0, 2024-03-13 20:34:21.037
88.0, 475.1468095704913, -313.3157286378555, 3937.3161847009324, 1690.784460617695, 0.01600000075995922, -0.12800000607967377, 1.0560000501573086, 0.0, 0.0, 0.0, 0.0, 0.0, 1.710387261037152E9, 0.0, 2024-03-13 20:34:21.037
89.0, 248.80993420211598, -272.83505151746795, 4169.646249748301, 1743.561928792391, 0.01600000075995922, -0.12800000607967377, 1.0560000501573086, 0.0, 0.0, 0.0, 0.0, 0.0, 1.710387261050784E9, 0.0, 2024-03-13 20:34:21.050
89.0, 475.9490181109868, -79.93849160289392, 3926.117054283619, 1871.320651178714, 0.01600000075995922, -0.12800000607967377, 1.0560000501573086, 0.0, 0.0, 0.0, 0.0, 0.0, 1.710387261050784E9, 0.0, 2024-03-13 20:34:21.050
90.0, 558.6325962813571, -240.873866496142, 4035.4399398383684, 1743.9284389880486, 0.01600000075995922, -0.12800000607967377, 1.0560000501573086, 0.0, 0.0, 0.0, 0.0, 0.0, 1.710387261066392E9, 0.0, 2024-03-13 20:34:21.066
90.0, 581.8087563067675, -43.414628635626286, 4017.791351947468, 1986.3861531154253, 0.01600000075995922, -0.12800000607967377, 1.0560000501573086, 0.0, 0.0, 0.0, 0.0, 0.0, 1.710387261066392E9, 0.0, 2024-03-13 20:34:21.066
91.0, 503.13061098894104, -4.747802993748337, 3928.405873056501, 1970.5196275534108, 0.01600000075995922, -0.12800000607967377, 1.0560000501573086, 0.0, 0.0, 0.0, 0.0, 0.0, 1.7103872610674384E9, 0.0, 2024-03-13 20:34:21.067
91.0, 696.8144198441878, -35.19806843297556, 3700.103680261411, 1929.6163417380303, 0.01600000075995922, -0.12800000607967377, 1.0560000501573086, 0.0, 0.0, 0.0, 0.0, 0.0, 1.7103872610674384E9, 0.0, 2024-03-13 20:34:21.067
92.0, 474.4399684788659, -254.90223122993484, 3924.78004004946, 1775.4539256645367, 0.01600000075995922, -0.12800000607967377, 1.0560000501573086, 0.0, 0.0, 0.0, 0.0, 0.0, 1.7103872610807388E9, 0.0, 2024-03-13 20:34:21.080
92.0, 403.57073426852, -80.97444389062002, 3828.6477816384286, 1915.6590351033956, 0.01600000075995922, -0.12800000607967377, 1.0560000501573086, 0.0, 0.0, 0.0, 0.0, 0.0, 1.7103872610807388E9, 0.0, 2024-03-13 20:34:21.080
93.0, 370.62221565889195, -288.7408460290171, 3833.419893981889, 2151.158665363211, 0.01600000075995922, -0.12800000607967377, 1.0560000501573086, 0.0, 0.0, 0.0, 0.0, 0.0, 1.7103872610963967E9, 0.0, 2024-03-13 20:34:21.096
93.0, 468.3401916511357, -325.23104989668354, 3933.5052266460843, 2169.927353290841, 0.01600000075995922, -0.12800000607967377, 1.0560000501573086, 0.0, 0.0, 0.0, 0.0, 0.0, 1.7103872610963967E9, 0.0, 2024-03-13 20:34:21.096
94.0, 246.47997652972117, -276.7881257706322, 4168.157769565936, 2226.1829284243286, 0.01600000075995922, -0.12800000607967377, 1.0560000501573086, 0.0, 0.0, 0.0, 0.0, 0.0, 1.7103872610971384E9, 0.0, 2024-03-13 20:34:21.097
94.0, 466.3524348246865, -87.73992291046306, 3923.9628719091415, 2357.374878969975, 0.01600000075995922, -0.12800000607967377, 1.0560000501573086, 0.0, 0.0, 0.0, 0.0, 0.0, 1.7103872610971384E9, 0.0, 2024-03-13 20:34:21.097
95.0, 554.8291180264205, -243.7984682614915, 4032.38444157457, 2227.985560202971, 0.01600000075995922, -0.12800000607967377, 1.0560000501573086, 0.0, 0.0, 0.0, 0.0, 0.0, 1.710387261110881E9, 0.0, 2024-03-13 20:34:21.110
95.0, 567.9038082715124, -49.44334736419842, 4008.621117256116, 2469.934647936374, 0.01600000075995922, -0.12800000607967377, 1.0560000501573086, 0.0, 0.0, 0.0, 0.0, 0.0, 1.710387261110881E9, 0.0, 2024-03-13 20:34:21.110
96.0, 480.6089334557764, -5.114313189405948, 3918.158547177911, 2453.806329377461, 0.01600000075995922, -0.12800000607967377, 1.0560000501573086, 0.0, 0.0, 0.0, 0.0, 0.0, 1.7103872611263916E9, 0.0, 2024-03-13 20:34:21.126
96.0, 712.720214355737, -28.226894915569574, 3695.974830710329, 2421.474894260522, 0.01600000075995922, -0.12800000607967377, 1.0560000501573086, 0.0, 0.0, 0.0, 0.0, 0.0, 1.7103872611263916E9, 0.0, 2024-03-13 20:34:21.126
97.0, 472.84303119778633, -248.544401305262, 3926.294699531514, 2262.6039441428147, 0.01600000075995922, -0.12800000607967377, 1.0560000501573086, 0.0, 0.0, 0.0, 0.0, 0.0, 1.7103872611271503E9, 0.0, 2024-03-13 20:34:21.127
97.0, 400.2123041083105, -69.1264408309944, 3831.5761233037338, 2414.103551447857, 0.01600000075995922, -0.12800000607967377, 1.0560000501573086, 0.0, 0.0, 0.0, 0.0, 0.0, 1.7103872611271503E9, 0.0, 2024-03-13 20:34:21.127
98.0, 374.03674431843683, -275.13135009026155, 3838.9362464165315, 2651.218818488531, 0.01600000075995922, -0.12800000607967377, 1.0560000501573086, 0.0, 0.0, 0.0, 0.0, 0.0, 1.710387261140684E9, 0.0, 2024-03-13 20:34:21.140
98.0, 482.4096952844411, -312.32839504955336, 3937.140409403015, 2670.189461013768, 0.01600000075995922, -0.12800000607967377, 1.0560000501573086, 0.0, 0.0, 0.0, 0.0, 0.0, 1.710387261140684E9, 0.0, 2024-03-13 20:34:21.140
99.0, 263.5825390270911, -267.93952247546986, 4167.974514468107, 2724.687283168081, 0.01600000075995922, -0.12800000607967377, 1.0560000501573086, 0.0, 0.0, 0.0, 0.0, 0.0, 1.710387261156409E9, 0.0, 2024-03-13 20:34:21.156
99.0, 465.91860642982647, -67.3836474516429, 3928.349774557166, 2862.588614234235, 0.01600000075995922, -0.12800000607967377, 1.0560000501573086, 0.0, 0.0, 0.0, 0.0, 0.0, 1.710387261156409E9, 0.0, 2024-03-13 20:34:21.156
100.0, 547.7719268100336, -223.06072300719097, 4039.531390389893, 2734.347444753628, 0.01600000075995922, -0.12800000607967377, 1.0560000501573086, 0.0, 0.0, 0.0, 0.0, 0.0, 1.710387261157103E9, 0.0, 2024-03-13 20:34:21.157
100.0, 572.3916882183403, -30.220261591952294, 4022.043618197087, 2977.1380099770613, 0.01600000075995922, -0.12800000607967377, 1.0560000501573086, 0.0, 0.0, 0.0, 0.0, 0.0, 1.710387261157103E9, 0.0, 2024-03-13 20:34:21.157
0.0, -116.67739881761372, 404.0980601622723, 53.46560976654291, 214.84790270449594, 0.01600000075995922, -0.12800000607967377, 1.0560000501573086, 0.0, 0.0, 0.0, 0.0, 0.0, 1.710387261171451E9, 0.0, 2024-03-13 20:34:21.171
1.0, 108.7394611616619, 380.51799094164744, -178.29599048756063, 180.53058071108535, 0.01600000075995922, -0.12800000607967377, 1.0560000501573086, 0.0, 0.0, 0.0, 0.0, 0.0, 1.710387261172161E9, 0.0, 2024-03-13 20:34:21.172
1.0, -131.42195439292118, 157.63865308230743, 49.058137668762356, 19.90187761420384, 0.01600000075995922, -0.12800000607967377, 1.0560000501573086, 0.0, 0.0, 0.0, 0.0, 0.0, 1.710387261172161E9, 0.0, 2024-03-13 20:34:21.172
2.0, -202.0256557064131, 338.33939924137667, -42.825594392605126, 169.84942643763497, 0.01600000075995922, -0.12800000607967377, 1.0560000501573086, 0.0, 0.0, 0.0, 0.0, 0.0, 1.7103872611857831E9, 0.0, 2024-03-13 20:34:21.185
2.0, -230.28433977160603, 137.84336261684075, -33.32250860519707, 413.520738100633, 0.01600000075995922, -0.12800000607967377, 1.0560000501573086, 0.0, 0.0, 0.0, 0.0, 0.0, 1.7103872611857831E9, 0.0, 2024-03-13 20:34:21.185
3.0, -137.16644072486088, 83.12114646518603, 60.20303953671828, 420.90891046309844, 0.01600000075995922, -0.12800000607967377, 1.0560000501573086, 0.0, 0.0, 0.0, 0.0, 0.0, 1.7103872612013845E9, 0.0, 2024-03-13 20:34:21.201
3.0, -367.30305444821715, 122.58457079762593, 290.58461670717224, 470.0212766812183, 0.01600000075995922, -0.12800000607967377, 1.0560000501573086, 0.0, 0.0, 0.0, 0.0, 0.0, 1.7103872612013845E9, 0.0, 2024-03-13 20:34:21.201
4.0, -128.08409368246794, 325.07771399850026, 47.43689103797078, 605.2186600794084, 0.01600000075995922, -0.12800000607967377, 1.0560000501573086, 0.0, 0.0, 0.0, 0.0, 0.0, 1.7103872612021306E9, 0.0, 2024-03-13 20:34:21.202
4.0, -53.02243162179366, 163.9104653079994, 158.33801437402144, 477.9910034867935, 0.01600000075995922, -0.12800000607967377, 1.0560000501573086, 0.0, 0.0, 0.0, 0.0, 0.0, 1.7103872612021306E9, 0.0, 2024-03-13 20:34:21.202
5.0, -45.426694811787456, 348.75876051792875, 129.28647151822224, 711.0054702260531, 0.01600000075995922, -0.12800000607967377, 1.0560000501573086, 0.0, 0.0, 0.0, 0.0, 0.0, 1.7103872612157676E9, 0.0, 2024-03-13 20:34:21.215
5.0, -120.69779126998037, 407.42283122288063, 47.713643634691834, 706.6279173279181, 0.01600000075995922, -0.12800000607967377, 1.0560000501573086, 0.0, 0.0, 0.0, 0.0, 0.0, 1.7103872612157676E9, 0.0, 2024-03-13 20:34:21.215
6.0, 104.42735651275143, 375.9665326955728, -184.81463611032814, 664.3520882287994, 0.01600000075995922, -0.12800000607967377, 1.0560000501573086, 0.0, 0.0, 0.0, 0.0, 0.0, 1.710387261231614E9, 0.0, 2024-03-13 20:34:21.231
6.0, -137.6750671188347, 152.6832856410183, 43.7063408321701, 503.18109963834286, 0.01600000075995922, -0.12800000607967377, 1.0560000501573086, 0.0, 0.0, 0.0, 0.0, 0.0, 1.710387261231614E9, 0.0, 2024-03-13 20:34:21.231
7.0, -208.66397812776268, 335.5157747748308, -47.35835313890129, 647.918967823498, 0.01600000075995922, -0.12800000607967377, 1.0560000501573086, 0.0, 0.0, 0.0, 0.0, 0.0, 1.710387261232278E9, 0.0, 2024-03-13 20:34:21.232
7.0, -220.00335479341447, 132.23725258326158, -34.418299292214215, 403.7895184159279, 0.01600000075995922, -0.12800000607967377, 1.0560000501573086, 0.0, 0.0, 0.0, 0.0, 0.0, 1.710387261232278E9, 0.0, 2024-03-13 20:34:21.232
8.0, -150.61512096552178, 79.84873400395736, 63.85692179342732, 413.45528985140845, 0.01600000075995922, -0.12800000607967377, 1.0560000501573086, 0.0, 0.0, 0.0, 0.0, 0.0, 1.7103872612457845E9, 0.0, 2024-03-13 20:34:21.245
8.0, -361.6520656151697, 117.42724875872955, 288.13124233623967, 466.0869019278325, 0.01600000075995922, -0.12800000607967377, 1.0560000501573086, 0.0, 0.0, 0.0, 0.0, 0.0, 1.7103872612457845E9, 0.0, 2024-03-13 20:34:21.245
9.0, -129.48281626589596, 323.11800642171875, 53.41699106711894, 608.2891179430299, 0.01600000075995922, -0.12800000607967377, 1.0560000501573086, 0.0, 0.0, 0.0, 0.0, 0.0, 1.7103872612614448E9, 0.0, 2024-03-13 20:34:21.261
9.0, -33.425355853978544, 174.30364728486165, 164.81552109727636, 486.1365055902861, 0.01600000075995922, -0.12800000607967377, 1.0560000501573086, 0.0, 0.0, 0.0, 0.0, 0.0, 1.7103872612614448E9, 0.0, 2024-03-13 20:34:21.261
10.0, -15.09610617114231, 365.02358542522416, 140.4164137863554, 725.5275017539971, 0.01600000075995922, -0.12800000607967377, 1.0560000501573086, 0.0, 0.0, 0.0, 0.0, 0.0, 1.7103872612620919E9, 0.0, 2024-03-13 20:34:21.262
10.0, -124.32549422699958, 406.1026465385221, 48.28958822786808, 707.256220520474, 0.01600000075995922, -0.12800000607967377, 1.0560000501573086, 0.0, 0.0, 0.0, 0.0, 0.0, 1.7103872612620919E9, 0.0, 2024-03-13 20:34:21.262
11.0, 97.86757199047133, 377.36899517895654, -185.2372448053211, 661.3152894647792, 0.01600000075995922, -0.12800000607967377, 1.0560000501573086, 0.0, 0.0, 0.0, 0.0, 0.0, 1.7103872612756965E9, 0.0, 2024-03-13 20:34:21.275
11.0, -135.7527585416101, 152.13352034753188, 43.30991143686697, 500.77260406687856, 0.01600000075995922, -0.12800000607967377, 1.0560000501573086, 0.0, 0.0, 0.0, 0.0, 0.0, 1.7103872612756965E9, 0.0, 2024-03-13 20:34:21.275
12.0, -220.97198888193816, 328.9971291520633, -50.496129201725125, 646.9765130346641, 0.01600000075995922, -0.12800000607967377, 1.0560000501573086, 0.0, 0.0, 0.0, 0.0, 0.0, 1.7103872612913673E9, 0.0, 2024-03-13 20:34:21.291
12.0, -225.0297803338617, 134.3016773588024, -39.03333583753556, 410.8654091320932, 0.01600000075995922, -0.12800000607967377, 1.0560000501573086, 0.0, 0.0, 0.0, 0.0, 0.0, 1.7103872612913673E9, 0.0, 2024-03-13 20:34:21.291
13.0, -143.24751805281267, 78.82400141609833, 54.88116189977154, 412.16502436669543, 0.01600000075995922, -0.12800000607967377, 1.0560000501573086, 0.0, 0.0, 0.0, 0.0, 0.0, 1.710387261292086E9, 0.0, 2024-03-13 20:34:21.292
13.0, 101.52145424718037, 113.94914179993793, 275.6212769844569, 454.10800236975774, 0.01600000075995922, -0.12800000607967377, 1.0560000501573086, 0.0, 0.0, 0.0, 0.0, 0.0, 1.710387261292086E9, 0.0, 2024-03-13 20:34:21.292
14.0, 342.31865279423073, 317.89710608357564, 39.71025772951543, 594.3991295075975, 0.01600000075995922, -0.12800000607967377, 1.0560000501573086, 0.0, 0.0, 0.0, 0.0, 0.0, 1.7103872613059652E9, 0.0, 2024-03-13 20:34:21.305
14.0, 445.6165595203638, 165.7991147856228, 152.58230834221467, 470.3541277772747, 0.01600000075995922, -0.12800000607967377, 1.0560000501573086, 0.0, 0.0, 0.0, 0.0, 0.0, 1.7103872613059652E9, 0.0, 2024-03-13 20:34:21.305
15.0, 445.6128196204081, 339.9886951218359, 118.44076164672151, 693.8842082289048, 0.01600000075995922, -0.12800000607967377, 1.0560000501573086, 0.0, 0.0, 0.0, 0.0, 0.0, 1.7103872613213706E9, 0.0, 2024-03-13 20:34:21.321
15.0, 363.17607484711334, 391.2702033142559, 39.29886873438954, 688.5941197415814, 0.01600000075995922, -0.12800000607967377, 1.0560000501573086, 0.0, 0.0, 0.0, 0.0, 0.0, 1.7103872613213706E9, 0.0, 2024-03-13 20:34:21.321
16.0, 593.488463868387, 369.6760209701024, -190.69749874062836, 654.7181059429422, 0.01600000075995922, -0.12800000607967377, 1.0560000501573086, 0.0, 0.0, 0.0, 0.0, 0.0, 1.7103872613220727E9, 0.0, 2024-03-13 20:34:21.322
16.0, 353.3120887139812, 144.88559423340484, 34.76797993807122, 494.10436244588345, 0.01600000075995922, -0.12800000607967377, 1.0560000501573086, 0.0, 0.0, 0.0, 0.0, 0.0, 1.7103872613220727E9, 0.0, 2024-03-13 20:34:21.322
17.0, 279.61549013713375, 326.8504265774973, -55.43653704319149, 643.9210147708654, 0.01600000075995922, -0.12800000607967377, 1.0560000501573086, 0.0, 0.0, 0.0, 0.0, 0.0, 1.710387261336147E9, 0.0, 2024-03-13 20:34:21.336
17.0, 239.07497461745515, 129.10695632034913, -41.82330120448023, 408.7149666575715, 0.01600000075995922, -0.12800000607967377, 1.0560000501573086, 0.0, 0.0, 0.0, 0.0, 0.0, 1.710387261336147E9, 0.0, 2024-03-13 20:34:21.336
18.0, 346.0529428999871, 83.21838386403397, 60.805163429584354, 414.3566057407297, 0.01600000075995922, -0.12800000607967377, 1.0560000501573086, 0.0, 0.0, 0.0, 0.0, 0.0, 1.710387261351368E9, 0.0, 2024-03-13 20:34:21.351
18.0, 122.87254309421405, 111.30129263130948, 277.88017655769363, 456.6099954401143, 0.01600000075995922, -0.12800000607967377, 1.0560000501573086, 0.0, 0.0, 0.0, 0.0, 0.0, 1.710387261351368E9, 0.0, 2024-03-13 20:34:21.351
19.0, 355.86831033369526, 327.3927120710723, 48.66357822343707, 605.2971979784779, 0.01600000075995922, -0.12800000607967377, 1.0560000501573086, 0.0, 0.0, 0.0, 0.0, 0.0, 1.710387261352072E9, 0.0, 2024-03-13 20:34:21.352
19.0, 463.4371828092262, 170.97139642434195, 154.54575581895187, 474.26232323097065, 0.01600000075995922, -0.12800000607967377, 1.0560000501573086, 0.0, 0.0, 0.0, 0.0, 0.0, 1.710387261352072E9, 0.0, 2024-03-13 20:34:21.352
20.0, 439.66637869086117, 349.0018540150486, 121.29430531291291, 697.6914263837971, 0.01600000075995922, -0.12800000607967377, 1.0560000501573086, 0.0, 0.0, 0.0, 0.0, 0.0, 1.710387261366052E9, 0.0, 2024-03-13 20:34:21.366
20.0, 363.87543613882735, 407.97633641632274, 45.0957136657089, 702.4336195276119, 0.01600000075995922, -0.12800000607967377, 1.0560000501573086, 0.0, 0.0, 0.0, 0.0, 0.0, 1.710387261366052E9, 0.0, 2024-03-13 20:34:21.366
21.0, 124.7836319715716, 388.0202302527614, -176.51953800860792, 669.9862475120462, 0.01600000075995922, -0.12800000607967377, 1.0560000501573086, 0.0, 0.0, 0.0, 0.0, 0.0, 1.7103872613817637E9, 0.0, 2024-03-13 20:34:21.381
21.0, 364.2924349838868, 152.17839914700016, 45.897922206204385, 507.955081931781, 0.01600000075995922, -0.12800000607967377, 1.0560000501573086, 0.0, 0.0, 0.0, 0.0, 0.0, 1.7103872613817637E9, 0.0, 2024-03-13 20:34:21.381
22.0, 282.446594403591, 330.1490183384158, -44.63196607120335, 659.6229847348295, 0.01600000075995922, -0.12800000607967377, 1.0560000501573086, 0.0, 0.0, 0.0, 0.0, 0.0, 1.7103872613822289E9, 0.0, 2024-03-13 20:34:21.382
22.0, 254.90223122993484, 138.73719870625064, -32.19679871853441, 420.7032159655355, 0.01600000075995922, -0.12800000607967377, 1.0560000501573086, 0.0, 0.0, 0.0, 0.0, 0.0, 1.7103872613822289E9, 0.0, 2024-03-13 20:34:21.382
23.0, 359.15755234472454, 92.57561355317011, 67.94463244499639, 423.40903358347714, 0.01600000075995922, -0.12800000607967377, 1.0560000501573086, 0.0, 0.0, 0.0, 0.0, 0.0, 1.710387261395801E9, 0.0, 2024-03-13 20:34:21.395
23.0, 123.48962658690289, 117.80497865425423, 283.95751398568973, 465.60258488357067, 0.01600000075995922, -0.12800000607967377, 1.0560000501573086, 0.0, 0.0, 0.0, 0.0, 0.0, 1.710387261395801E9, 0.0, 2024-03-13 20:34:21.395
24.0, 366.3026312100701, 334.9884488810785, 59.52050779480487, 621.047786641866, 0.01600000075995922, -0.12800000607967377, 1.0560000501573086, 0.0, 0.0, 0.0, 0.0, 0.0, 1.7103872614114661E9, 0.0, 2024-03-13 20:34:21.411
24.0, 437.1756053203717, 186.05067304568365, 169.62503244029358, 495.54422392882407, 0.01600000075995922, -0.12800000607967377, 1.0560000501573086, 0.0, 0.0, 0.0, 0.0, 0.0, 1.7103872614114661E9, 0.0, 2024-03-13 20:34:21.411
25.0, 440.26102278381586, 353.6729890597053, 130.95072699850425, 712.8660704540089, 0.01600000075995922, -0.12800000607967377, 1.0560000501573086, 0.0, 0.0, 0.0, 0.0, 0.0, 1.7103872614121723E9, 0.0, 2024-03-13 20:34:21.412
25.0, 373.9282872197218, 412.97284275712445, 48.74585602246225, 709.8236618400551, 0.01600000075995922, -0.12800000607967377, 1.0560000501573086, 0.0, 0.0, 0.0, 0.0, 0.0, 1.7103872614121723E9, 0.0, 2024-03-13 20:34:21.412
26.0, 612.1692641470581, 391.88728680694476, -175.99221211485565, 674.0552586638369, 0.01600000075995922, -0.12800000607967377, 1.0560000501573086, 0.0, 0.0, 0.0, 0.0, 0.0, 1.7103872614257467E9, 0.0, 2024-03-13 20:34:21.425
26.0, 854.5727497250773, 161.18781814025715, 50.83085024775937, 510.86472409730777, 0.01600000075995922, -0.12800000607967377, 1.0560000501573086, 0.0, 0.0, 0.0, 0.0, 0.0, 1.7103872614257467E9, 0.0, 2024-03-13 20:34:21.425
27.0, 770.8906182665378, 340.7628544126637, -42.806894892826676, 660.0231540300883, 0.01600000075995922, -0.12800000607967377, 1.0560000501573086, 0.0, 0.0, 0.0, 0.0, 0.0, 1.7103872614414997E9, 0.0, 2024-03-13 20:34:21.441
27.0, 739.916766833514, 141.44488627417013, -30.745717535726726, 423.362284834031, 0.01600000075995922, -0.12800000607967377, 1.0560000501573086, 0.0, 0.0, 0.0, 0.0, 0.0, 1.7103872614414997E9, 0.0, 2024-03-13 20:34:21.441
28.0, 843.7419994533993, 94.16507103433833, 64.23839158890769, 421.7840470527299, 0.01600000075995922, -0.12800000607967377, 1.0560000501573086, 0.0, 0.0, 0.0, 0.0, 0.0, 1.7103872614421544E9, 0.0, 2024-03-13 20:34:21.442
28.0, 620.094112153165, 126.04771815659478, 283.4488875917159, 467.7249781084247, 0.01600000075995922, -0.12800000607967377, 1.0560000501573086, 0.0, 0.0, 0.0, 0.0, 0.0, 1.7103872614421544E9, 0.0, 2024-03-13 20:34:21.442
29.0, 855.2627612669021, 339.04250043304637, 51.292727892287076, 615.8362360536121, 0.01600000075995922, -0.12800000607967377, 1.0560000501573086, 0.0, 0.0, 0.0, 0.0, 0.0, 1.710387261455724E9, 0.0, 2024-03-13 20:34:21.455
29.0, 944.3602678612806, 175.59765266953036, 158.2445168751292, 484.9172982047312, 0.01600000075995922, -0.12800000607967377, 1.0560000501573086, 0.0, 0.0, 0.0, 0.0, 0.0, 1.710387261455724E9, 0.0, 2024-03-13 20:34:21.455
30.0, 950.000036994461, 349.71617490658537, 129.3762291171588, 704.6588600012474, 0.01600000075995922, -0.12800000607967377, 1.0560000501573086, 0.0, 0.0, 0.0, 0.0, 0.0, 1.7103872614714708E9, 0.0, 2024-03-13 20:34:21.471
30.0, 857.1663703443483, 404.9619770520367, 41.617606706917286, 703.6210377635434, 0.01600000075995922, -0.12800000607967377, 1.0560000501573086, 0.0, 0.0, 0.0, 0.0, 0.0, 1.7103872614714708E9, 0.0, 2024-03-13 20:34:21.471
31.0, 1086.416627778206, 385.1367673869245, -173.84924944024533, 671.7458704411983, 0.01600000075995922, -0.12800000607967377, 1.0560000501573086, 0.0, 0.0, 0.0, 0.0, 0.0, 1.7103872614721277E9, 0.0, 2024-03-13 20:34:21.472
31.0, 1331.2248690277338, 145.16982663003728, 54.64928810251877, 504.0936352275312, 0.01600000075995922, -0.12800000607967377, 1.0560000501573086, 0.0, 0.0, 0.0, 0.0, 0.0, 1.7103872614721277E9, 0.0, 2024-03-13 20:34:21.472
32.0, 1256.0659695682116, 325.12259279796854, -45.316367763094604, 650.656574591063, 0.01600000075995922, -0.12800000607967377, 1.0560000501573086, 0.0, 0.0, 0.0, 0.0, 0.0, 1.7103872614860945E9, 0.0, 2024-03-13 20:34:21.486
32.0, 1241.4130415418185, 138.61378200771287, -24.09243551455438, 423.0500031877309, 0.01600000075995922, -0.12800000607967377, 1.0560000501573086, 0.0, 0.0, 0.0, 0.0, 0.0, 1.7103872614860945E9, 0.0, 2024-03-13 20:34:21.486
33.0, 1334.8114330852404, 91.62941886438057, 66.16817996604368, 421.082815811038, 0.01600000075995922, -0.12800000607967377, 1.0560000501573086, 0.0, 0.0, 0.0, 0.0, 0.0, 1.7103872615014584E9, 0.0, 2024-03-13 20:34:21.501
33.0, 1098.0851156399585, 115.998606975656, 280.40834892774, 457.1765902834013, 0.01600000075995922, -0.12800000607967377, 1.0560000501573086, 0.0, 0.0, 0.0, 0.0, 0.0, 1.7103872615014584E9, 0.0, 2024-03-13 20:34:21.501
34.0, 1332.876034858171, 331.2597686252557, 49.21334351692349, 612.7265092404559, 0.01600000075995922, -0.12800000607967377, 1.0560000501573086, 0.0, 0.0, 0.0, 0.0, 0.0, 1.710387261502172E9, 0.0, 2024-03-13 20:34:21.502
34.0, 1433.1895014196634, 180.90831060661003, 161.5805076356046, 482.76124588027596, 0.01600000075995922, -0.12800000607967377, 1.0560000501573086, 0.0, 0.0, 0.0, 0.0, 0.0, 1.710387261502172E9, 0.0, 2024-03-13 20:34:21.502
35.0, 1433.6831682138145, 338.2234623427503, 115.16086938558146, 695.3857780611143, 0.01600000075995922, -0.12800000607967377, 1.0560000501573086, 0.0, 0.0, 0.0, 0.0, 0.0, 1.7103872615157483E9, 0.0, 2024-03-13 20:34:21.515
35.0, 1350.9098324445076, 402.40762538230047, 43.82414768077433, 703.5499796643853, 0.01600000075995922, -0.12800000607967377, 1.0560000501573086, 0.0, 0.0, 0.0, 0.0, 0.0, 1.7103872615157483E9, 0.0, 2024-03-13 20:34:21.515
36.0, 1583.757873635739, 392.0555823049508, -168.8938819989562, 679.6669785473496, 0.01600000075995922, -0.12800000607967377, 1.0560000501573086, 0.0, 0.0, 0.0, 0.0, 0.0, 1.710387261531614E9, 0.0, 2024-03-13 20:34:21.531
36.0, 1826.2772961123846, 148.21784509392455, 55.67776059033349, 506.37123430054635, 0.01600000075995922, -0.12800000607967377, 1.0560000501573086, 0.0, 0.0, 0.0, 0.0, 0.0, 1.710387261531614E9, 0.0, 2024-03-13 20:34:21.531
37.0, 1745.0672385245562, 323.2077640206553, -46.62159284763038, 647.870349124074, 0.01600000075995922, -0.12800000607967377, 1.0560000501573086, 0.0, 0.0, 0.0, 0.0, 0.0, 1.7103872615321774E9, 0.0, 2024-03-13 20:34:21.532
37.0, 1695.5621828110889, 123.08571739168838, -37.69819155335426, 409.0403379537165, 0.01600000075995922, -0.12800000607967377, 1.0560000501573086, 0.0, 0.0, 0.0, 0.0, 0.0, 1.7103872615321774E9, 0.0, 2024-03-13 20:34:21.532
38.0, 1804.8813284658827, 65.25938427681103, 51.941600534599274, 402.51421253103763, 0.01600000075995922, -0.12800000607967377, 1.0560000501573086, 0.0, 0.0, 0.0, 0.0, 0.0, 1.7103872615459456E9, 0.0, 2024-03-13 20:34:21.545
38.0, 1591.465807444416, 97.29536729725078, 272.83131161751226, 444.8498800294474, 0.01600000075995922, -0.12800000607967377, 1.0560000501573086, 0.0, 0.0, 0.0, 0.0, 0.0, 1.7103872615459456E9, 0.0, 2024-03-13 20:34:21.545
39.0, 1826.0285927653313, 318.40573247754946, 42.436644797213376, 602.4268247624859, 0.01600000075995922, -0.12800000607967377, 1.0560000501573086, 0.0, 0.0, 0.0, 0.0, 0.0, 1.7103872615614223E9, 0.0, 2024-03-13 20:34:21.561
39.0, 1902.6348335077055, 161.18033834034577, 153.3901267326437, 473.4152358910069, 0.01600000075995922, -0.12800000607967377, 1.0560000501573086, 0.0, 0.0, 0.0, 0.0, 0.0, 1.7103872615614223E9, 0.0, 2024-03-13 20:34:21.561
40.0, 1906.6627057599835, 319.19111146824434, 112.46066161757335, 683.1899643056095, 0.01600000075995922, -0.12800000607967377, 1.0560000501573086, 0.0, 0.0, 0.0, 0.0, 0.0, 1.7103872615621328E9, 0.0, 2024-03-13 20:34:21.562
40.0, 1831.5299856001511, 386.99549766490236, 32.772743311710656, 689.2149431342259, 0.01600000075995922, -0.12800000607967377, 1.0560000501573086, 0.0, 0.0, 0.0, 0.0, 0.0, 1.7103872615621328E9, 0.0, 2024-03-13 20:34:21.562
41.0, 2064.4154257909395, 373.10924912942573, -186.58360878936946, 659.146147490479, 0.01600000075995922, -0.12800000607967377, 1.0560000501573086, 0.0, 0.0, 0.0, 0.0, 0.0, 1.7103872615757205E9, 0.0, 2024-03-13 20:34:21.575
41.0, 2305.7866989811882, 130.60665620258078, 39.087564386893064, 485.8279638439417, 0.01600000075995922, -0.12800000607967377, 1.0560000501573086, 0.0, 0.0, 0.0, 0.0, 0.0, 1.7103872615757205E9, 0.0, 2024-03-13 20:34:21.575
42.0, 2226.3755332720466, 310.29762937361374, -59.726202292367816, 636.0111263645813, 0.01600000075995922, -0.12800000607967377, 1.0560000501573086, 0.0, 0.0, 0.0, 0.0, 0.0, 1.7103872615914333E9, 0.0, 2024-03-13 20:34:21.591
42.0, 2217.904659872409, 128.8526431233622, -36.21719117090106, 412.24543221574277, 0.01600000075995922, -0.12800000607967377, 1.0560000501573086, 0.0, 0.0, 0.0, 0.0, 0.0, 1.7103872615914333E9, 0.0, 2024-03-13 20:34:21.591
43.0, 2319.250338821672, 77.21584443515167, 59.3802615464665, 410.98508593067527, 0.01600000075995922, -0.12800000607967377, 1.0560000501573086, 0.0, 0.0, 0.0, 0.0, 0.0, 1.710387261592114E9, 0.0, 2024-03-13 20:34:21.592
43.0, 2541.344297690317, 93.11789904674515, 266.16680989647284, 440.6163132796064, 0.01600000075995922, -0.12800000607967377, 1.0560000501573086, 0.0, 0.0, 0.0, 0.0, 0.0, 1.710387261592114E9, 0.0, 2024-03-13 20:34:21.592
44.0, 2780.6193569554016, 324.01932231104, 42.881692891940475, 608.4368439912796, 0.01600000075995922, -0.12800000607967377, 1.0560000501573086, 0.0, 0.0, 0.0, 0.0, 0.0, 1.7103872616057577E9, 0.0, 2024-03-13 20:34:21.605
44.0, 2893.4128696690314, 166.2853017798625, 157.08140798890963, 480.4238084079698, 0.01600000075995922, -0.12800000607967377, 1.0560000501573086, 0.0, 0.0, 0.0, 0.0, 0.0, 1.7103872616057577E9, 0.0, 2024-03-13 20:34:21.605
45.0, 2896.516986632254, 329.0569675513543, 117.69652155553922, 691.4738427074626, 0.01600000075995922, -0.12800000607967377, 1.0560000501573086, 0.0, 0.0, 0.0, 0.0, 0.0, 1.7103872616213894E9, 0.0, 2024-03-13 20:34:21.621
45.0, 2811.0845819944516, 393.48422408802435, 38.457391244359314, 696.0851393528283, 0.01600000075995922, -0.12800000607967377, 1.0560000501573086, 0.0, 0.0, 0.0, 0.0, 0.0, 1.7103872616213894E9, 0.0, 2024-03-13 20:34:21.621
46.0, 3052.059425789397, 381.28467043256387, -178.8270562812686, 673.1558127244934, 0.01600000075995922, -0.12800000607967377, 1.0560000501573086, 0.0, 0.0, 0.0, 0.0, 0.0, 1.7103872616221306E9, 0.0, 2024-03-13 20:34:21.622
46.0, 3272.734092624858, 618.4896950721741, 36.982000711839646, 484.2011073632166, 0.01600000075995922, -0.12800000607967377, 1.0560000501573086, 0.0, 0.0, 0.0, 0.0, 0.0, 1.7103872616221306E9, 0.0, 2024-03-13 20:34:21.622
47.0, 3187.5447814841755, 791.4825074225664, -67.20974210370332, 625.6927423868328, 0.01600000075995922, -0.12800000607967377, 1.0560000501573086, 0.0, 0.0, 0.0, 0.0, 0.0, 1.710387261635926E9, 0.0, 2024-03-13 20:34:21.635
47.0, 3194.7179095991887, 615.2023230111226, -47.38079253863543, 400.1917346585542, 0.01600000075995922, -0.12800000607967377, 1.0560000501573086, 0.0, 0.0, 0.0, 0.0, 0.0, 1.710387261635926E9, 0.0, 2024-03-13 20:34:21.635
48.0, 3283.1459741014987, 560.3005916615948, 51.63866863818839, 401.6222463916056, 0.01600000075995922, -0.12800000607967377, 1.0560000501573086, 0.0, 0.0, 0.0, 0.0, 0.0, 1.710387261651414E9, 0.0, 2024-03-13 20:34:21.651
48.0, 3527.129567410797, 574.6692872913554, 261.56299305101857, 434.9260554970242, 0.01600000075995922, -0.12800000607967377, 1.0560000501573086, 0.0, 0.0, 0.0, 0.0, 0.0, 1.710387261651414E9, 0.0, 2024-03-13 20:34:21.651
49.0, 3288.305166090373, 809.4527267096564, 42.866733292117715, 607.0474711577408, 0.01600000075995922, -0.12800000607967377, 1.0560000501573086, 0.0, 0.0, 0.0, 0.0, 0.0, 1.7103872616523867E9, 0.0, 2024-03-13 20:34:21.652
49.0, 3385.765088985674, 661.7378981597722, 163.4654172132723, 478.63426627917215, 0.01600000075995922, -0.12800000607967377, 1.0560000501573086, 0.0, 0.0, 0.0, 0.0, 0.0, 1.7103872616523867E9, 0.0, 2024-03-13 20:34:21.652
50.0, 3372.1705526467413, 819.0231306962669, 117.99197365203872, 683.3900489532389, 0.01600000075995922, -0.12800000607967377, 1.0560000501573086, 0.0, 0.0, 0.0, 0.0, 0.0, 1.7103872616657703E9, 0.0, 2024-03-13 20:34:21.665
50.0, 3284.5615262347274, 879.3327573817223, 33.976991097442806, 692.1825537490658, 0.01600000075995922, -0.12800000607967377, 1.0560000501573086, 0.0, 0.0, 0.0, 0.0, 0.0, 1.7103872616657703E9, 0.0, 2024-03-13 20:34:21.665
51.0, 3040.798587022815, 867.9410221166909, -179.0477103786543, 665.7489408622496, 0.01600000075995922, -0.12800000607967377, 1.0560000501573086, 0.0, 0.0, 0.0, 0.0, 0.0, 1.7103872616814291E9, 0.0, 2024-03-13 20:34:21.681
51.0, 2796.6018194160424, 1112.97365736356, 38.84821078972891, 483.93370451638475, 0.01600000075995922, -0.12800000607967377, 1.0560000501573086, 0.0, 0.0, 0.0, 0.0, 0.0, 1.7103872616814291E9, 0.0, 2024-03-13 20:34:21.681
52.0, 2715.5039588268846, 1290.5328875598498, -57.403724419884384, 641.0020228554495, 0.01600000075995922, -0.12800000607967377, 1.0560000501573086, 0.0, 0.0, 0.0, 0.0, 0.0, 1.710387261682215E9, 0.0, 2024-03-13 20:34:21.682
52.0, 2738.863373950124, 1113.6169201559387, -32.039722920395434, 419.5550666791387, 0.01600000075995922, -0.12800000607967377, 1.0560000501573086, 0.0, 0.0, 0.0, 0.0, 0.0, 1.710387261682215E9, 0.0, 2024-03-13 20:34:21.682
53.0, 2798.064120298717, 1047.592726338189, 62.001931415405124, 414.3940047402866, 0.01600000075995922, -0.12800000607967377, 1.0560000501573086, 0.0, 0.0, 0.0, 0.0, 0.0, 1.7103872616957514E9, 0.0, 2024-03-13 20:34:21.695
53.0, 2578.4141860511154, 1076.3188978978433, 271.02493993891403, 447.91098814317957, 0.01600000075995922, -0.12800000607967377, 1.0560000501573086, 0.0, 0.0, 0.0, 0.0, 0.0, 1.7103872616957514E9, 0.0, 2024-03-13 20:34:21.695
54.0, 2803.2345319874585, 1316.8318640482612, 52.01078868377954, 621.3937273877673, 0.01600000075995922, -0.12800000607967377, 1.0560000501573086, 0.0, 0.0, 0.0, 0.0, 0.0, 1.7103872617114844E9, 0.0, 2024-03-13 20:34:21.711
54.0, 2933.8636275897734, 1162.265538779553, 166.22546338057145, 489.00874875625595, 0.01600000075995922, -0.12800000607967377, 1.0560000501573086, 0.0, 0.0, 0.0, 0.0, 0.0, 1.7103872617114844E9, 0.0, 2024-03-13 20:34:21.711
55.0, 2932.8127157022245, 1316.3681164537556, 124.53679857449606, 695.8139966060407, 0.01600000075995922, -0.12800000607967377, 1.0560000501573086, 0.0, 0.0, 0.0, 0.0, 0.0, 1.71038726171214E9, 0.0, 2024-03-13 20:34:21.712
55.0, 2833.800734325312, 1386.7081548203714, 45.7988148573786, 708.4810377559625, 0.01600000075995922, -0.12800000607967377, 1.0560000501573086, 0.0, 0.0, 0.0, 0.0, 0.0, 1.71038726171214E9, 0.0, 2024-03-13 20:34:21.712
56.0, 3074.1510148276575, 1380.6382971922867, -165.41951494012028, 685.7424460253678, 0.01600000075995922, -0.12800000607967377, 1.0560000501573086, 0.0, 0.0, 0.0, 0.0, 0.0, 1.7103872617257612E9, 0.0, 2024-03-13 20:34:21.725
56.0, 2835.4219809561037, 1608.4374734433368, 44.17008842667565, 498.9494028384797, 0.01600000075995922, -0.12800000607967377, 1.0560000501573086, 0.0, 0.0, 0.0, 0.0, 0.0, 1.7103872617257612E9, 0.0, 2024-03-13 20:34:21.725
57.0, 2744.648999181576, 1786.1799587374553, -61.06134657654911, 644.7755819107406, 0.01600000075995922, -0.12800000607967377, 1.0560000501573086, 0.0, 0.0, 0.0, 0.0, 0.0, 1.7103872617416065E9, 0.0, 2024-03-13 20:34:21.741
57.0, 2695.876963859424, 1616.9083468429744, -31.523616726510227, 426.76559379370883, 0.01600000075995922, -0.12800000607967377, 1.0560000501573086, 0.0, 0.0, 0.0, 0.0, 0.0, 1.7103872617416065E9, 0.0, 2024-03-13 20:34:21.741
58.0, 2801.235555461142, 1556.1723715625703, 62.95560590410605, 418.7360285888426, 0.01600000075995922, -0.12800000607967377, 1.0560000501573086, 0.0, 0.0, 0.0, 0.0, 0.0, 1.710387261742195E9, 0.0, 2024-03-13 20:34:21.742
58.0, 2569.5094842566177, 1572.758827866055, 268.31725237099454, 448.0755437412299, 0.01600000075995922, -0.12800000607967377, 1.0560000501573086, 0.0, 0.0, 0.0, 0.0, 0.0, 1.710387261742195E9, 0.0, 2024-03-13 20:34:21.742
59.0, 2812.8460748735815, 1806.0163881024346, 50.28669480420649, 617.9642391283996, 0.01600000075995922, -0.12800000607967377, 1.0560000501573086, 0.0, 0.0, 0.0, 0.0, 0.0, 1.7103872617560232E9, 0.0, 2024-03-13 20:34:21.756
59.0, 2901.6219500717707, 1648.5553802680224, 170.12243913440034, 490.7291027358733, 0.01600000075995922, -0.12800000607967377, 1.0560000501573086, 0.0, 0.0, 0.0, 0.0, 0.0, 1.7103872617560232E9, 0.0, 2024-03-13 20:34:21.756
60.0, 2881.321773112286, 1804.3633523220196, 118.75117334304377, 693.0876095383428, 0.01600000075995922, -0.12800000607967377, 1.0560000501573086, 0.0, 0.0, 0.0, 0.0, 0.0, 1.710387261771456E9, 0.0, 2024-03-13 20:34:21.771
60.0, 2808.1562403291464, 1867.9453914687037, 36.91281256265938, 701.9212532336824, 0.01600000075995922, -0.12800000607967377, 1.0560000501573086, 0.0, 0.0, 0.0, 0.0, 0.0, 1.710387261771456E9, 0.0, 2024-03-13 20:34:21.771
61.0, 2564.426960216835, 1857.2866765949875, -172.61508245486766, 680.3719496889971, 0.01600000075995922, -0.11200000531971455, 1.0560000501573086, 0.0, 0.0, 0.0, 0.0, 0.0, 1.7103872617721145E9, 0.0, 2024-03-13 20:34:21.772
61.0, 2801.8862980534323, 1614.8850609669462, 50.61393605032936, 498.12662484822795, 0.01600000075995922, -0.11200000531971455, 1.0560000501573086, 0.0, 0.0, 0.0, 0.0, 0.0, 1.7103872617721145E9, 0.0, 2024-03-13 20:34:21.772
62.0, 2722.0413039494306, 1788.31918151211, -53.39081176742911, 647.6627846765332, 0.01600000075995922, -0.11200000531971455, 1.0560000501573086, 0.0, 0.0, 0.0, 0.0, 0.0, 1.7103872617863467E9, 0.0, 2024-03-13 20:34:21.786
62.0, 2722.834162740037, 1630.8880928773433, -15.756198513321579, 443.310911197681, 0.01600000075995922, -0.11200000531971455, 1.0560000501573086, 0.0, 0.0, 0.0, 0.0, 0.0, 1.7103872617863467E9, 0.0, 2024-03-13 20:34:21.786
63.0, 2811.6399571378715, 1561.0080622052774, 70.78321651136503, 423.19398933602497, 0.01600000075995922, -0.11200000531971455, 1.0560000501573086, 0.0, 0.0, 0.0, 0.0, 0.0, 1.7103872618016806E9, 0.0, 2024-03-13 20:34:21.801
63.0, 3046.199002558831, 1565.7427755491808, 268.38831047015265, 448.32985693821684, 0.01600000075995922, -0.11200000531971455, 1.0560000501573086, 0.0, 0.0, 0.0, 0.0, 0.0, 1.7103872618016806E9, 0.0, 2024-03-13 20:34:21.801
64.0, 2808.4442126257345, 1806.6820902945474, 55.94890333712101, 628.4621383040212, 0.01600000075995922, -0.11200000531971455, 1.0560000501573086, 0.0, 0.0, 0.0, 0.0, 0.0, 1.7103872618022647E9, 0.0, 2024-03-13 20:34:21.802
64.0, 2899.6809419947676, 1654.7935333941132, 168.55916095292196, 496.64936436573043, 0.01600000075995922, -0.11200000531971455, 1.0560000501573086, 0.0, 0.0, 0.0, 0.0, 0.0, 1.7103872618022647E9, 0.0, 2024-03-13 20:34:21.802
65.0, 2891.7934929882176, 1807.228115688078, 122.6331894970499, 696.81254989421, 0.01600000075995922, -0.11200000531971455, 1.0560000501573086, 0.0, 0.0, 0.0, 0.0, 0.0, 1.7103872618157523E9, 0.0, 2024-03-13 20:34:21.815
65.0, 2808.451692425646, 1869.5984272491187, 41.1688187122345, 705.3283020933159, 0.01600000075995922, -0.11200000531971455, 1.0560000501573086, 0.0, 0.0, 0.0, 0.0, 0.0, 1.7103872618157523E9, 0.0, 2024-03-13 20:34:21.815
66.0, 2565.7882838007063, 1864.216711212881, -167.22214671876281, 682.5410916632973, 0.01600000075995922, -0.11200000531971455, 1.0560000501573086, 0.0, 0.0, 0.0, 0.0, 0.0, 1.7103872618314319E9, 0.0, 2024-03-13 20:34:21.831
66.0, 2788.306721314322, 2095.3855373240076, 44.54033852228895, 494.1885101948865, 0.01600000075995922, -0.11200000531971455, 1.0560000501573086, 0.0, 0.0, 0.0, 0.0, 0.0, 1.7103872618314319E9, 0.0, 2024-03-13 20:34:21.831
67.0, 2715.260865329765, 2266.0446521020494, -66.76095410902053, 633.4287254451774, 0.01600000075995922, -0.11200000531971455, 1.0560000501573086, 0.0, 0.0, 0.0, 0.0, 0.0, 1.7103872618321552E9, 0.0, 2024-03-13 20:34:21.832
67.0, 2719.6515078777447, 2105.1653757081367, -33.10185450781137, 422.82373924041167, 0.01600000075995922, -0.11200000531971455, 1.0560000501573086, 0.0, 0.0, 0.0, 0.0, 0.0, 1.7103872618321552E9, 0.0, 2024-03-13 20:34:21.832
68.0, 2802.1518309502862, 2043.2326324419118, 62.820969505701214, 413.45154995145276, 0.01600000075995922, -0.11200000531971455, 1.0560000501573086, 0.0, 0.0, 0.0, 0.0, 0.0, 1.7103872618460016E9, 0.0, 2024-03-13 20:34:21.846
68.0, 3042.556340001989, 2054.134440812748, 264.9625621107407, 438.4565210551955, 0.01600000075995922, -0.11200000531971455, 1.0560000501573086, 0.0, 0.0, 0.0, 0.0, 0.0, 1.7103872618460016E9, 0.0, 2024-03-13 20:34:21.846
69.0, 2804.30040347483, 2296.89134693658, 49.751889110542834, 620.4961513984017, 0.01600000075995922, -0.11200000531971455, 1.0560000501573086, 0.0, 0.0, 0.0, 0.0, 0.0, 1.7103872618614092E9, 0.0, 2024-03-13 20:34:21.861
69.0, 2905.7881986224093, 2146.371593419928, 165.67195818712935, 488.9825694565661, 0.01600000075995922, -0.11200000531971455, 1.0560000501573086, 0.0, 0.0, 0.0, 0.0, 0.0, 1.7103872618614092E9, 0.0, 2024-03-13 20:34:21.861
70.0, 2898.831984704826, 2295.429046053905, 117.21407446125522, 685.9219612232409, 0.01600000075995922, -0.11200000531971455, 1.0560000501573086, 0.0, 0.0, 0.0, 0.0, 0.0, 1.7103872618621256E9, 0.0, 2024-03-13 20:34:21.862
70.0, 2823.6618655454367, 2365.477372223977, 36.56126196682453, 700.574889249634, 0.01600000075995922, -0.11200000531971455, 1.0560000501573086, 0.0, 0.0, 0.0, 0.0, 0.0, 1.7103872618621256E9, 0.0, 2024-03-13 20:34:21.862
71.0, 3039.5345008377917, 2364.344182537403, -167.85044991131872, 683.4461474525742, 0.01600000075995922, -0.12800000607967377, 1.0560000501573086, 0.0, 0.0, 0.0, 0.0, 0.0, 1.7103872618759253E9, 0.0, 2024-03-13 20:34:21.875
71.0, 3269.2559856660664, 2592.1732779880986, 39.457814482506365, 486.0729272910394, 0.01600000075995922, -0.12800000607967377, 1.0560000501573086, 0.0, 0.0, 0.0, 0.0, 0.0, 1.7103872618759253E9, 0.0, 2024-03-13 20:34:21.875
72.0, 3198.0838195593096, 2765.9402496293187, -67.71462859772146, 635.4781906208955, 0.01600000075995922, -0.12800000607967377, 1.0560000501573086, 0.0, 0.0, 0.0, 0.0, 0.0, 1.7103872618914E9, 0.0, 2024-03-13 20:34:21.891
72.0, 3207.717801845167, 2612.492154447362, -25.77913039457053, 432.1099108303897, 0.01600000075995922, -0.12800000607967377, 1.0560000501573086, 0.0, 0.0, 0.0, 0.0, 0.0, 1.7103872618914E9, 0.0, 2024-03-13 20:34:21.891
73.0, 3298.292568922043, 2542.215694379993, 68.4233396393247, 422.9321963391267, 0.01600000075995922, -0.12800000607967377, 1.0560000501573086, 0.0, 0.0, 0.0, 0.0, 0.0, 1.710387261892092E9, 0.0, 2024-03-13 20:34:21.892
73.0, 3064.509552741889, 2564.6513542141765, 279.32377794058993, 461.32974918419495, 0.01600000075995922, -0.12800000607967377, 1.0560000501573086, 0.0, 0.0, 0.0, 0.0, 0.0, 1.710387261892092E9, 0.0, 2024-03-13 20:34:21.892
74.0, 2827.8281140960753, 2809.15105371736, 63.05845315288752, 636.1177135133184, 0.01600000075995922, -0.12800000607967377, 1.0560000501573086, 0.0, 0.0, 0.0, 0.0, 0.0, 1.710387261905932E9, 0.0, 2024-03-13 20:34:21.905
74.0, 2914.9359939140268, 2655.242950840853, 174.40462458366528, 509.97836780780926, 0.01600000075995922, -0.12800000607967377, 1.0560000501573086, 0.0, 0.0, 0.0, 0.0, 0.0, 1.710387261905932E9, 0.0, 2024-03-13 20:34:21.905
75.0, 2898.147583012935, 2793.207860206254, 125.89812215836719, 698.8283559703268, 0.01600000075995922, -0.12800000607967377, 1.0560000501573086, 0.0, 0.0, 0.0, 0.0, 0.0, 1.71038726193829E9, 0.0, 2024-03-13 20:34:21.938
75.0, 2812.3150090798736, 2852.8854437991977, 43.50999608449638, 705.9790446856059, 0.01600000075995922, -0.12800000607967377, 1.0560000501573086, 0.0, 0.0, 0.0, 0.0, 0.0, 1.71038726193829E9, 0.0, 2024-03-13 20:34:21.938
76.0, 2572.6136012198403, 2854.6263672285713, -160.01161960419267, 690.4846391691826, 0.01600000075995922, -0.12800000607967377, 1.0560000501573086, 0.0, 0.0, 0.0, 0.0, 0.0, 1.7103872619386811E9, 0.0, 2024-03-13 20:34:21.938
76.0, 2801.370191859547, 3081.3970709918067, 50.48303955188021, 496.2192758708261, 0.01600000075995922, -0.12800000607967377, 1.0560000501573086, 0.0, 0.0, 0.0, 0.0, 0.0, 1.7103872619386811E9, 0.0, 2024-03-13 20:34:21.938
77.0, 2724.1618272243068, 3258.698248091154, -62.198276163078845, 640.5457550608553, 0.01600000075995922, -0.12800000607967377, 1.0560000501573086, 0.0, 0.0, 0.0, 0.0, 0.0, 1.7103872619395041E9, 0.0, 2024-03-13 20:34:21.939
77.0, 2710.4027352873236, 3104.210460721515, -21.964432439766824, 436.4893336785026, 0.01600000075995922, -0.12800000607967377, 1.0560000501573086, 0.0, 0.0, 0.0, 0.0, 0.0, 1.7103872619395041E9, 0.0, 2024-03-13 20:34:21.939
78.0, 2799.462842882145, 3031.364689384587, 70.19605221832171, 420.50126136792824, 0.01600000075995922, -0.12800000607967377, 1.0560000501573086, 0.0, 0.0, 0.0, 0.0, 0.0, 1.710387261940267E9, 0.0, 2024-03-13 20:34:21.940
78.0, 2560.410307664424, 3040.336709378287, 272.09829122619703, 449.80337752075866, 0.01600000075995922, -0.12800000607967377, 1.0560000501573086, 0.0, 0.0, 0.0, 0.0, 0.0, 1.710387261940267E9, 0.0, 2024-03-13 20:34:21.940
79.0, 2334.518480390776, 2797.7836278020404, 64.9545824304223, 636.4842237089761, 0.01600000075995922, -0.12800000607967377, 1.0560000501573086, 0.0, 0.0, 0.0, 0.0, 0.0, 1.7103872619507847E9, 0.0, 2024-03-13 20:34:21.950
79.0, 2431.484736491926, 2644.5674064173363, 180.33236601343378, 503.90103037981316, 0.01600000075995922, -0.12800000607967377, 1.0560000501573086, 0.0, 0.0, 0.0, 0.0, 0.0, 1.7103872619507847E9, 0.0, 2024-03-13 20:34:21.950
80.0, 2405.230638802983, 2778.4857440306805, 121.27934571309015, 689.4599065813236, 0.01600000075995922, -0.12800000607967377, 1.0560000501573086, 0.0, 0.0, 0.0, 0.0, 0.0, 1.7103872619657433E9, 0.0, 2024-03-13 20:34:21.965
80.0, 2313.350646641571, 2849.637340687681, 38.419992244802415, 699.6847930601798, 0.01600000075995922, -0.12800000607967377, 1.0560000501573086, 0.0, 0.0, 0.0, 0.0, 0.0, 1.7103872619657433E9, 0.0, 2024-03-13 20:34:21.965
81.0, 2091.6718166680075, 2855.7315076654777, -160.08641760330647, 691.6926268548705, 0.01600000075995922, -0.12800000607967377, 1.0560000501573086, 0.0, 0.0, 0.0, 0.0, 0.0, 1.7103872619814236E9, 0.0, 2024-03-13 20:34:21.981
81.0, 2308.348530450836, 3079.1587408683263, 44.54033852228895, 490.5944663374685, 0.01600000075995922, -0.12800000607967377, 1.0560000501573086, 0.0, 0.0, 0.0, 0.0, 0.0, 1.7103872619814236E9, 0.0, 2024-03-13 20:34:21.981
82.0, 2223.147999610286, 3258.191491647158, -58.07316651195288, 641.8135811458342, 0.01600000075995922, -0.12800000607967377, 1.0560000501573086, 0.0, 0.0, 0.0, 0.0, 0.0, 1.7103872619821436E9, 0.0, 2024-03-13 20:34:21.982
82.0, 2238.201096931938, 3097.132700055372, -20.431073457933962, 438.5649781539105, 0.01600000075995922, -0.12800000607967377, 1.0560000501573086, 0.0, 0.0, 0.0, 0.0, 0.0, 1.7103872619821436E9, 0.0, 2024-03-13 20:34:21.982
83.0, 2317.2307928455994, 3030.0688140499406, 66.3439552639611, 418.4817153918557, 0.01600000075995922, -0.12800000607967377, 1.0560000501573086, 0.0, 0.0, 0.0, 0.0, 0.0, 1.7103872619958875E9, 0.0, 2024-03-13 20:34:21.995
83.0, 2073.069554288406, 3043.6409109891392, 277.5996840610169, 444.4889796837233, 0.01600000075995922, -0.12800000607967377, 1.0560000501573086, 0.0, 0.0, 0.0, 0.0, 0.0, 1.7103872619958875E9, 0.0, 2024-03-13 20:34:21.995
84.0, 1841.287384584546, 2801.6562942061573, 67.80064629670233, 637.1686254008673, 0.01600000075995922, -0.12800000607967377, 1.0560000501573086, 0.0, 0.0, 0.0, 0.0, 0.0, 1.7103872620114443E9, 0.0, 2024-03-13 20:34:22.011
84.0, 1927.8567188088782, 2642.688106689602, 177.2843475495465, 498.53801384335384, 0.01600000075995922, -0.12800000607967377, 1.0560000501573086, 0.0, 0.0, 0.0, 0.0, 0.0, 1.7103872620114443E9, 0.0, 2024-03-13 20:34:22.011
85.0, 1904.7104779831134, 2778.023866386153, 116.7428470668383, 684.1043698447756, 0.01600000075995922, -0.12800000607967377, 1.0560000501573086, 0.0, 0.0, 0.0, 0.0, 0.0, 1.7103872620121925E9, 0.0, 2024-03-13 20:34:22.012
85.0, 1825.0636985767633, 2857.597717743367, 42.35810689814389, 705.5302566909231, 0.01600000075995922, -0.12800000607967377, 1.0560000501573086, 0.0, 0.0, 0.0, 0.0, 0.0, 1.7103872620121925E9, 0.0, 2024-03-13 20:34:22.012
86.0, 1591.6789817418903, 2859.970684265252, -163.7066407604143, 688.3715956942178, 0.01600000075995922, -0.12800000607967377, 1.0560000501573086, 0.0, 0.0, 0.0, 0.0, 0.0, 1.7103872620259206E9, 0.0, 2024-03-13 20:34:22.025
86.0, 1820.0054838866927, 3070.914131416008, 35.811412025708705, 476.15471260854974, 0.01600000075995922, -0.12800000607967377, 1.0560000501573086, 0.0, 0.0, 0.0, 0.0, 0.0, 1.7103872620259206E9, 0.0, 2024-03-13 20:34:22.025
87.0, 1716.823514059186, 3253.267913355492, -66.74599450919777, 633.3763668457977, 0.01600000075995922, -0.12800000607967377, 1.0560000501573086, 0.0, 0.0, 0.0, 0.0, 0.0, 1.7103872620416818E9, 0.0, 2024-03-13 20:34:22.041
87.0, 1715.5669076740742, 3101.4317150544375, -24.279430512338877, 431.87803703313693, 0.01600000075995922, -0.12800000607967377, 1.0560000501573086, 0.0, 0.0, 0.0, 0.0, 0.0, 1.7103872620416818E9, 0.0, 2024-03-13 20:34:22.041
88.0, 1811.5981887863018, 3027.1610418343917, 67.87731424579397, 419.5588065790944, 0.01600000075995922, -0.12800000607967377, 1.0560000501573086, 0.0, 0.0, 0.0, 0.0, 0.0, 1.7103872620422356E9, 0.0, 2024-03-13 20:34:22.042
88.0, 1588.2270540827885, 3036.540710923262, 267.0756055857055, 441.7812921158038, 0.01600000075995922, -0.12800000607967377, 1.0560000501573086, 0.0, 0.0, 0.0, 0.0, 0.0, 1.7103872620422356E9, 0.0, 2024-03-13 20:34:22.042
89.0, 1354.4589975024574, 2798.0491606988944, 56.64078482892364, 625.9751048334874, 0.01600000075995922, -0.12800000607967377, 1.0560000501573086, 0.0, 0.0, 0.0, 0.0, 0.0, 1.7103872620559592E9, 0.0, 2024-03-13 20:34:22.055
89.0, 1429.311225165613, 2640.30392046785, 175.00674847653136, 491.8847318221815, 0.01600000075995922, -0.12800000607967377, 1.0560000501573086, 0.0, 0.0, 0.0, 0.0, 0.0, 1.7103872620559592E9, 0.0, 2024-03-13 20:34:22.055
90.0, 1413.5699862521142, 2770.9984643193893, 112.3709040186368, 675.8354510427453, 0.01600000075995922, -0.12800000607967377, 1.0560000501573086, 0.0, 0.0, 0.0, 0.0, 0.0, 1.7103872620715663E9, 0.0, 2024-03-13 20:34:22.071
90.0, 1337.891240698751, 2853.5754553410225, 38.25169674679637, 700.0774825555272, 0.01600000075995922, -0.12800000607967377, 1.0560000501573086, 0.0, 0.0, 0.0, 0.0, 0.0, 1.7103872620715663E9, 0.0, 2024-03-13 20:34:22.071
91.0, 1107.7190979258157, 2863.5217192731798, -164.06193125620484, 691.9768592515029, 0.01600000075995922, -0.12800000607967377, 1.0560000501573086, 0.0, 0.0, 0.0, 0.0, 0.0, 1.7103872620726068E9, 0.0, 2024-03-13 20:34:22.072
91.0, 1331.3108867267147, 3078.2985638785176, 44.95172751741484, 490.4299107394181, 0.01600000075995922, -0.12800000607967377, 1.0560000501573086, 0.0, 0.0, 0.0, 0.0, 0.0, 1.7103872620726068E9, 0.0, 2024-03-13 20:34:22.072
92.0, 1238.0022527822293, 3250.461118438747, -70.74020766187459, 637.3182213990949, 0.01600000075995922, -0.12800000607967377, 1.0560000501573086, 0.0, 0.0, 0.0, 0.0, 0.0, 1.7103872620861926E9, 0.0, 2024-03-13 20:34:22.086
92.0, 1244.7415525023825, 3095.7264976720326, -25.35652169957757, 433.8826234093867, 0.01600000075995922, -0.12800000607967377, 1.0560000501573086, 0.0, 0.0, 0.0, 0.0, 0.0, 1.7103872620861926E9, 0.0, 2024-03-13 20:34:22.086
93.0, 1341.3188590081409, 3032.0360014266334, 68.31862244056538, 419.8205995759927, 0.01600000075995922, -0.12800000607967377, 1.0560000501573086, 0.0, 0.0, 0.0, 0.0, 0.0, 1.710387262101746E9, 0.0, 2024-03-13 20:34:22.101
93.0, 1574.0116943512112, 3032.896178416442, 261.3273793538101, 437.8244779626839, 0.01600000075995922, -0.12800000607967377, 1.0560000501573086, 0.0, 0.0, 0.0, 0.0, 0.0, 1.710387262101746E9, 0.0, 2024-03-13 20:34:22.101
94.0, 1351.3361810394563, 2790.275778640993, 45.81377445720136, 618.6972595197149, 0.01600000075995922, -0.12800000607967377, 1.0560000501573086, 0.0, 0.0, 0.0, 0.0, 0.0, 1.7103872621023645E9, 0.0, 2024-03-13 20:34:22.102
94.0, 1432.808031624183, 2637.224112854339, 160.6866715461947, 489.6258322489448, 0.01600000075995922, -0.12800000607967377, 1.0560000501573086, 0.0, 0.0, 0.0, 0.0, 0.0, 1.7103872621023645E9, 0.0, 2024-03-13 20:34:22.102
95.0, 1407.1111790286377, 2778.0163865862414, 115.04867238691077, 681.0189523813315, 0.01600000075995922, -0.12800000607967377, 1.0560000501573086, 0.0, 0.0, 0.0, 0.0, 0.0, 1.7103872621157615E9, 0.0, 2024-03-13 20:34:22.115
95.0, 1343.3028759346344, 2854.4449820807204, 32.395013416185975, 700.3430154523812, 0.01600000075995922, -0.12800000607967377, 1.0560000501573086, 0.0, 0.0, 0.0, 0.0, 0.0, 1.7103872621157615E9, 0.0, 2024-03-13 20:34:22.115
96.0, 1107.8537343242206, 2858.3999262838624, -165.56911093834788, 690.44350026967, 0.01600000075995922, -0.12800000607967377, 1.0560000501573086, 0.0, 0.0, 0.0, 0.0, 0.0, 1.710387262131828E9, 0.0, 2024-03-13 20:34:22.131
96.0, 1337.4742418536916, 3075.132738566026, 39.35683718370274, 482.1796914371662, 0.01600000075995922, -0.12800000607967377, 1.0560000501573086, 0.0, 0.0, 0.0, 0.0, 0.0, 1.710387262131828E9, 0.0, 2024-03-13 20:34:22.131
97.0, 1247.1089091743343, 3245.429083048366, -75.96858779992908, 630.1600528839044, 0.01600000075995922, -0.12800000607967377, 1.0560000501573086, 0.0, 0.0, 0.0, 0.0, 0.0, 1.7103872621322596E9, 0.0, 2024-03-13 20:34:22.132
97.0, 1244.8612293009646, 3097.8376711970195, -29.75090414751321, 435.0793913952075, 0.01600000075995922, -0.12800000607967377, 1.0560000501573086, 0.0, 0.0, 0.0, 0.0, 0.0, 1.7103872621322596E9, 0.0, 2024-03-13 20:34:22.132
98.0, 1338.5513330409303, 3030.8186639910564, 59.986125339288265, 415.67305052513257, 0.01600000075995922, -0.12800000607967377, 1.0560000501573086, 0.0, 0.0, 0.0, 0.0, 0.0, 1.7103872621459908E9, 0.0, 2024-03-13 20:34:22.145
98.0, 1576.8652380174026, 3031.2412726860493, 247.7627622145228, 426.30932599911466, 0.01600000075995922, -0.12800000607967377, 1.0560000501573086, 0.0, 0.0, 0.0, 0.0, 0.0, 1.7103872621459908E9, 0.0, 2024-03-13 20:34:22.145
99.0, 1821.2041218224913, 3273.2576786186546, 41.684924906119704, 615.2490717605688, 0.01600000075995922, -0.12800000607967377, 1.0560000501573086, 0.0, 0.0, 0.0, 0.0, 0.0, 1.7103872621614714E9, 0.0, 2024-03-13 20:34:22.161
99.0, 1915.4065918563865, 3115.127228692174, 163.22232371615246, 482.07497423840687, 0.01600000075995922, -0.12800000607967377, 1.0560000501573086, 0.0, 0.0, 0.0, 0.0, 0.0, 1.7103872621614714E9, 0.0, 2024-03-13 20:34:22.161
100.0, 1892.2341717309318, 3250.3208721904084, 101.53641384700313, 668.2958127320744, 0.01600000075995922, -0.12800000607967377, 1.0560000501573086, 0.0, 0.0, 0.0, 0.0, 0.0, 1.7103872621621408E9, 0.0, 2024-03-13 20:34:22.162
100.0, 1820.2205281341448, 3334.9136692881584, 29.885540545918047, 698.3571285759099, 0.01600000075995922, -0.12800000607967377, 1.0560000501573086, 0.0, 0.0, 0.0, 0.0, 0.0, 1.7103872621621408E9, 0.0, 2024-03-13 20:34:22.162
0.0, -372.912904381752, -88.90677169663832, -173.20037679793313, -296.83211958315223, 0.01600000075995922, -0.12800000607967377, 1.0560000501573086, 0.0, 0.0, 0.0, 0.0, 0.0, 1.7103872621763973E9, 0.0, 2024-03-13 20:34:22.176
1.0, -142.09188896650448, 130.04380125924945, 32.757783711887896, -503.66728663258255, 0.01600000075995922, -0.11200000531971455, 1.0560000501573086, 0.0, 0.0, 0.0, 0.0, 0.0, 1.7103872621771276E9, 0.0, 2024-03-13 20:34:22.177
1.0, -216.7346822321415, 309.6263173315674, -73.80131577560678, -351.0606689406559, 0.01600000075995922, -0.11200000531971455, 1.0560000501573086, 0.0, 0.0, 0.0, 0.0, 0.0, 1.7103872621771276E9, 0.0, 2024-03-13 20:34:22.177
2.0, -208.2151901330799, 164.69397434871644, -30.04448629403487, -549.1332503939047, 0.01600000075995922, -0.11200000531971455, 1.0560000501573086, 0.0, 0.0, 0.0, 0.0, 0.0, 1.710387262190833E9, 0.0, 2024-03-13 20:34:22.190
2.0, -130.77121180063114, 85.40435538813472, 56.75298182759434, -567.4026616774499, 0.01600000075995922, -0.11200000531971455, 1.0560000501573086, 0.0, 0.0, 0.0, 0.0, 0.0, 1.710387262190833E9, 0.0, 2024-03-13 20:34:22.190
3.0, 92.33999985596165, 82.9453711672686, 252.55170410778373, -554.7356205275282, 0.01600000075995922, -0.11200000531971455, 1.0560000501573086, 0.0, 0.0, 0.0, 0.0, 0.0, 1.7103872622064064E9, 0.0, 2024-03-13 20:34:22.206
3.0, -138.9522429537028, -148.21223524399102, 43.070557839702815, -362.88997250050306, 0.01600000075995922, -0.11200000531971455, 1.0560000501573086, 0.0, 0.0, 0.0, 0.0, 0.0, 1.7103872622064064E9, 0.0, 2024-03-13 20:34:22.206
4.0, -31.910696371924132, -297.3931045765057, 164.83983044698834, -493.73411235027015, 0.01600000075995922, -0.11200000531971455, 1.0560000501573086, 0.0, 0.0, 0.0, 0.0, 0.0, 1.7103872622072697E9, 0.0, 2024-03-13 20:34:22.207
4.0, -56.6389148789458, -168.94250069838017, 101.65422069560736, -313.3362980876118, 0.01600000075995922, -0.11200000531971455, 1.0560000501573086, 0.0, 0.0, 0.0, 0.0, 0.0, 1.7103872622072697E9, 0.0, 2024-03-13 20:34:22.207
5.0, -131.472443042323, -84.30482480116189, 31.65638317493722, -280.1409460809082, 0.01600000075995922, -0.11200000531971455, 1.0560000501573086, 0.0, 0.0, 0.0, 0.0, 0.0, 1.7103872622207303E9, 0.0, 2024-03-13 20:34:22.220
5.0, -363.6603918913752, -85.00792599283159, -168.40956495469436, -290.8856786536053, 0.01600000075995922, -0.11200000531971455, 1.0560000501573086, 0.0, 0.0, 0.0, 0.0, 0.0, 1.7103872622207303E9, 0.0, 2024-03-13 20:34:22.220
6.0, -138.57638300815597, 128.28791823005304, 32.86998071055859, -503.7271250318736, 0.01600000075995922, -0.11200000531971455, 1.0560000501573086, 0.0, 0.0, 0.0, 0.0, 0.0, 1.7103872622368827E9, 0.0, 2024-03-13 20:34:22.236
6.0, -224.68944943789393, 300.79080368625, -79.52336270781234, -356.56580167543143, 0.01600000075995922, -0.11200000531971455, 1.0560000501573086, 0.0, 0.0, 0.0, 0.0, 0.0, 1.7103872622368827E9, 0.0, 2024-03-13 20:34:22.236
7.0, -214.78993425518274, 160.85870694415644, -27.677129622083157, -551.2836928684264, 0.01600000075995922, -0.11200000531971455, 1.0560000501573086, 0.0, 0.0, 0.0, 0.0, 0.0, 1.71038726223746E9, 0.0, 2024-03-13 20:34:22.237
7.0, -135.1917735482566, 77.88154662726447, 54.546440853737295, -574.2728578960523, 0.01600000075995922, -0.11200000531971455, 1.0560000501573086, 0.0, 0.0, 0.0, 0.0, 0.0, 1.71038726223746E9, 0.0, 2024-03-13 20:34:22.237
8.0, 92.4708963544108, 75.78907260205597, 245.08686379622668, -563.2625924265012, 0.01600000075995922, -0.11200000531971455, 1.0560000501573086, 0.0, 0.0, 0.0, 0.0, 0.0, 1.7103872622507465E9, 0.0, 2024-03-13 20:34:22.250
8.0, -128.14767198171467, -150.45430526742712, 47.80153128365055, -360.23464353196323, 0.01600000075995922, -0.11200000531971455, 1.0560000501573086, 0.0, 0.0, 0.0, 0.0, 0.0, 1.7103872622507465E9, 0.0, 2024-03-13 20:34:22.250
9.0, -19.18755672266707, -299.0405305069871, 175.16569422464818, -483.1614151755348, 0.01600000075995922, -0.11200000531971455, 1.0560000501573086, 0.0, 0.0, 0.0, 0.0, 0.0, 1.7103872622664144E9, 0.0, 2024-03-13 20:34:22.266
9.0, -39.52887258166447, -172.34019980812445, 111.93146577384323, -309.45054203365, 0.01600000075995922, -0.11200000531971455, 1.0560000501573086, 0.0, 0.0, 0.0, 0.0, 0.0, 1.7103872622664144E9, 0.0, 2024-03-13 20:34:22.266
10.0, -119.8002152806148, -87.2799152159132, 34.36407074285671, -280.44387797731906, 0.01600000075995922, -0.11200000531971455, 1.0560000501573086, 0.0, 0.0, 0.0, 0.0, 0.0, 1.71038726226746E9, 0.0, 2024-03-13 20:34:22.267
10.0, -361.9175985120237, -76.32013839576393, -161.67400513449684, -283.52555554080755, 0.01600000075995922, -0.11200000531971455, 1.0560000501573086, 0.0, 0.0, 0.0, 0.0, 0.0, 1.71038726226746E9, 0.0, 2024-03-13 20:34:22.267
11.0, -140.73430528258905, 128.12710253195837, 38.54340894334018, -503.0202839402482, 0.01600000075995922, -0.12800000607967377, 1.0560000501573086, 0.0, 0.0, 0.0, 0.0, 0.0, 1.7103872622810636E9, 0.0, 2024-03-13 20:34:22.281
11.0, -234.24489382468164, 302.74303146312013, -73.78635617578402, -358.8396608484909, 0.01600000075995922, -0.12800000607967377, 1.0560000501573086, 0.0, 0.0, 0.0, 0.0, 0.0, 1.7103872622810636E9, 0.0, 2024-03-13 20:34:22.281
12.0, -212.51607508212328, 159.23185046343133, -22.80403997981921, -544.1292642531916, 0.01600000075995922, -0.12800000607967377, 1.0560000501573086, 0.0, 0.0, 0.0, 0.0, 0.0, 1.7103872622964904E9, 0.0, 2024-03-13 20:34:22.296
12.0, -145.13990743039176, 83.30066166305915, 64.81246623210609, -568.4872326646, 0.01600000075995922, -0.12800000607967377, 1.0560000501573086, 0.0, 0.0, 0.0, 0.0, 0.0, 1.7103872622964904E9, 0.0, 2024-03-13 20:34:22.296
13.0, 95.45907641900703, 83.33058086270466, 251.11184262484312, -554.159675934352, 0.01600000075995922, -0.12800000607967377, 1.0560000501573086, 0.0, 0.0, 0.0, 0.0, 0.0, 1.7103872622971535E9, 0.0, 2024-03-13 20:34:22.297
13.0, -122.71359734609723, -149.18834913242608, 45.823124207090586, -359.77837573736906, 0.01600000075995922, -0.12800000607967377, 1.0560000501573086, 0.0, 0.0, 0.0, 0.0, 0.0, 1.7103872622971535E9, 0.0, 2024-03-13 20:34:22.297
14.0, -19.808380115311593, -298.16726386733353, 167.3343437174335, -491.2695182794705, 0.01600000075995922, -0.12800000607967377, 1.0560000501573086, 0.0, 0.0, 0.0, 0.0, 0.0, 1.710387262310766E9, 0.0, 2024-03-13 20:34:22.310
14.0, -45.25091951387003, -173.8193302405998, 104.6797997597605, -309.2186682363972, 0.01600000075995922, -0.12800000607967377, 1.0560000501573086, 0.0, 0.0, 0.0, 0.0, 0.0, 1.710387262310766E9, 0.0, 2024-03-13 20:34:22.310
15.0, -139.89843764249235, -90.09045003261417, 26.988988030236214, -283.0954670459032, 0.01600000075995922, -0.12800000607967377, 1.0560000501573086, 0.0, 0.0, 0.0, 0.0, 0.0, 1.7103872623264089E9, 0.0, 2024-03-13 20:34:22.326
15.0, -361.15839882101864, -82.08519417745993, -168.97428984800354, -290.41445125918835, 0.01600000075995922, -0.12800000607967377, 1.0560000501573086, 0.0, 0.0, 0.0, 0.0, 0.0, 1.7103872623264089E9, 0.0, 2024-03-13 20:34:22.326
16.0, -145.47649842640385, 127.10423989407718, 34.72871098853648, -508.5366363748908, 0.01600000075995922, -0.12800000607967377, 1.0560000501573086, 0.0, 0.0, 0.0, 0.0, 0.0, 1.7103872623272843E9, 0.0, 2024-03-13 20:34:22.327
16.0, -233.46699463389814, 301.48829502798617, -77.83666782779619, -357.22402406763285, 0.01600000075995922, -0.12800000607967377, 1.0560000501573086, 0.0, 0.0, 0.0, 0.0, 0.0, 1.7103872623272843E9, 0.0, 2024-03-13 20:34:22.327
17.0, -213.74650216754526, 162.79784507118165, -20.68725660489872, -543.1942892642692, 0.01600000075995922, -0.12800000607967377, 1.0560000501573086, 0.0, 0.0, 0.0, 0.0, 0.0, 1.7103872623407352E9, 0.0, 2024-03-13 20:34:22.340
17.0, -135.35258924635127, 87.88764895871282, 73.59749122802168, -563.5505647230893, 0.01600000075995922, -0.12800000607967377, 1.0560000501573086, 0.0, 0.0, 0.0, 0.0, 0.0, 1.7103872623407352E9, 0.0, 2024-03-13 20:34:22.340
18.0, 84.64702564710751, 78.07976132491603, 255.491265472956, -556.0632850117981, 0.01600000075995922, -0.12800000607967377, 1.0560000501573086, 0.0, 0.0, 0.0, 0.0, 0.0, 1.710387262356541E9, 0.0, 2024-03-13 20:34:22.356
18.0, -124.73688322212547, -144.40875698905438, 54.350096106063575, -353.6187605103478, 0.01600000075995922, -0.12800000607967377, 1.0560000501573086, 0.0, 0.0, 0.0, 0.0, 0.0, 1.710387262356541E9, 0.0, 2024-03-13 20:34:22.356
19.0, -17.018414748366922, -289.5131353698671, 178.69615978281945, -480.0872174119577, 0.01600000075995922, -0.12800000607967377, 1.0560000501573086, 0.0, 0.0, 0.0, 0.0, 0.0, 1.7103872623571095E9, 0.0, 2024-03-13 20:34:22.357
19.0, -46.687041096854955, -172.51036525610834, 114.60175434220582, -306.5595993679017, 0.01600000075995922, -0.12800000607967377, 1.0560000501573086, 0.0, 0.0, 0.0, 0.0, 0.0, 1.7103872623571095E9, 0.0, 2024-03-13 20:34:22.357
20.0, -127.57546728849411, -95.55444386787713, 30.83360518468544, -281.1656786687672, 0.01600000075995922, -0.12800000607967377, 1.0560000501573086, 0.0, 0.0, 0.0, 0.0, 0.0, 1.7103872623707793E9, 0.0, 2024-03-13 20:34:22.370
20.0, -355.30171549040824, -76.63615994201973, -160.2453633514233, -283.5816540401429, 0.01600000075995922, -0.12800000607967377, 1.0560000501573086, 0.0, 0.0, 0.0, 0.0, 0.0, 1.7103872623707793E9, 0.0, 2024-03-13 20:34:22.370
21.0, -141.94603286823258, 118.169618899934, 33.43096570391208, -511.04236934520304, 0.01600000075995922, -0.12800000607967377, 1.0560000501573086, 0.0, 0.0, 0.0, 0.0, 0.0, 1.7103872623863993E9, 0.0, 2024-03-13 20:34:22.386
21.0, -242.45771412737668, 288.6566982800141, -85.69419763470069, -368.67185783199966, 0.01600000075995922, -0.12800000607967377, 1.0560000501573086, 0.0, 0.0, 0.0, 0.0, 0.0, 1.7103872623863993E9, 0.0, 2024-03-13 20:34:22.386
22.0, -233.20520163699985, 151.97083469945937, -33.1822623568587, -553.8530041379854, 0.01600000075995922, -0.12800000607967377, 1.0560000501573086, 0.0, 0.0, 0.0, 0.0, 0.0, 1.7103872623871229E9, 0.0, 2024-03-13 20:34:22.387
22.0, -133.99126566248015, 82.23666012566537, 60.91175057832152, -574.0035850992426, 0.01600000075995922, -0.12800000607967377, 1.0560000501573086, 0.0, 0.0, 0.0, 0.0, 0.0, 1.7103872623871229E9, 0.0, 2024-03-13 20:34:22.387
23.0, 97.38138499623165, 73.37870708061382, 253.34456289839, -556.728987203911, 0.01600000075995922, -0.12800000607967377, 1.0560000501573086, 0.0, 0.0, 0.0, 0.0, 0.0, 1.7103872624008656E9, 0.0, 2024-03-13 20:34:22.400
23.0, -128.469303377904, -141.89554421883076, 59.967425839509815, -347.5077639827505, 0.01600000075995922, -0.12800000607967377, 1.0560000501573086, 0.0, 0.0, 0.0, 0.0, 0.0, 1.7103872624008656E9, 0.0, 2024-03-13 20:34:22.400
24.0, -41.52971905795857, -308.02190025057644, 176.85238910466433, -486.39642863720655, 0.01600000075995922, -0.12800000607967377, 1.0560000501573086, 0.0, 0.0, 0.0, 0.0, 0.0, 1.7103872624164689E9, 0.0, 2024-03-13 20:34:22.416
24.0, -82.55642157187685, -191.5389762306586, 104.4217466628179, -318.1869483301416, 0.01600000075995922, -0.12800000607967377, 1.0560000501573086, 0.0, 0.0, 0.0, 0.0, 0.0, 1.7103872624164689E9, 0.0, 2024-03-13 20:34:22.416
25.0, -142.11245841626078, -102.18154658935964, 27.351758325938135, -287.994735987857, 0.01600000075995922, -0.12800000607967377, 1.0560000501573086, 0.0, 0.0, 0.0, 0.0, 0.0, 1.710387262417144E9, 0.0, 2024-03-13 20:34:22.417
25.0, -365.79213486611843, -81.51672938419506, -164.3143745032139, -285.2290799706243, 0.01600000075995922, -0.12800000607967377, 1.0560000501573086, 0.0, 0.0, 0.0, 0.0, 0.0, 1.710387262417144E9, 0.0, 2024-03-13 20:34:22.417
26.0, -157.13750648824498, 118.96995749045163, 36.21345127094537, -512.2410072810017, 0.01600000075995922, -0.12800000607967377, 1.0560000501573086, 0.0, 0.0, 0.0, 0.0, 0.0, 1.710387262430725E9, 0.0, 2024-03-13 20:34:22.430
26.0, -251.77754481695592, 287.4300110945478, -80.3536204979755, -361.94938766164705, 0.01600000075995922, -0.12800000607967377, 1.0560000501573086, 0.0, 0.0, 0.0, 0.0, 0.0, 1.710387262430725E9, 0.0, 2024-03-13 20:34:22.430
27.0, -215.34343944862485, 160.35195050016046, -19.96171601349488, -540.6006686449982, 0.01600000075995922, -0.12800000607967377, 1.0560000501573086, 0.0, 0.0, 0.0, 0.0, 0.0, 1.7103872624464383E9, 0.0, 2024-03-13 20:34:22.446
27.0, -130.0755904088728, 78.9268486648798, 71.33859165478498, -564.5771672609262, 0.01600000075995922, -0.12800000607967377, 1.0560000501573086, 0.0, 0.0, 0.0, 0.0, 0.0, 1.7103872624464383E9, 0.0, 2024-03-13 20:34:22.446
28.0, 95.39175821980461, 74.91206606244668, 251.0445244256407, -558.1781984367408, 0.01600000075995922, -0.12800000607967377, 1.0560000501573086, 0.0, 0.0, 0.0, 0.0, 0.0, 1.710387262447158E9, 0.0, 2024-03-13 20:34:22.447
28.0, -129.48281626589596, -147.7410078495741, 51.61622923845425, -356.39563622744754, 0.01600000075995922, -0.12800000607967377, 1.0560000501573086, 0.0, 0.0, 0.0, 0.0, 0.0, 1.710387262447158E9, 0.0, 2024-03-13 20:34:22.447
29.0, -26.686056133825332, -296.6638240851462, 180.03130406700075, -481.132519449573, 0.01600000075995922, -0.12800000607967377, 1.0560000501573086, 0.0, 0.0, 0.0, 0.0, 0.0, 1.71038726246077E9, 0.0, 2024-03-13 20:34:22.460
29.0, -64.70961898332462, -180.96627905592322, 107.9035935215652, -312.85198104334995, 0.01600000075995922, -0.12800000607967377, 1.0560000501573086, 0.0, 0.0, 0.0, 0.0, 0.0, 1.71038726246077E9, 0.0, 2024-03-13 20:34:22.460
30.0, -125.95235070772469, -98.53888403251767, 31.046779482159764, -282.1436625071801, 0.01600000075995922, -0.12800000607967377, 1.0560000501573086, 0.0, 0.0, 0.0, 0.0, 0.0, 1.7103872624766417E9, 0.0, 2024-03-13 20:34:22.476
30.0, -369.97334301657975, -75.52540965517983, -163.6561521110125, -283.80043818755075, 0.01600000075995922, -0.12800000607967377, 1.0560000501573086, 0.0, 0.0, 0.0, 0.0, 0.0, 1.7103872624766417E9, 0.0, 2024-03-13 20:34:22.476
31.0, -141.02975737908855, 124.23573662806302, 41.04914191365242, -501.672050006222, 0.01600000075995922, -0.11200000531971455, 1.0560000501573086, 0.0, 0.0, 0.0, 0.0, 0.0, 1.710387262477172E9, 0.0, 2024-03-13 20:34:22.477
31.0, -224.86148483585566, 300.79267363622785, -74.93450546218082, -356.0029467321001, 0.01600000075995922, -0.11200000531971455, 1.0560000501573086, 0.0, 0.0, 0.0, 0.0, 0.0, 1.710387262477172E9, 0.0, 2024-03-13 20:34:22.477
32.0, -206.06848755851388, 164.90714864619076, -20.586279306095093, -536.8906878889538, 0.01600000075995922, -0.11200000531971455, 1.0560000501573086, 0.0, 0.0, 0.0, 0.0, 0.0, 1.7103872624907713E9, 0.0, 2024-03-13 20:34:22.490
32.0, -121.46634071087465, 88.03724495694041, 68.48130808863789, -560.7662092060782, 0.01600000075995922, -0.11200000531971455, 1.0560000501573086, 0.0, 0.0, 0.0, 0.0, 0.0, 1.7103872624907713E9, 0.0, 2024-03-13 20:34:22.490
33.0, 96.80170050309971, 81.53542888397351, 257.5669099483639, -551.9437852106057, 0.01600000075995922, -0.11200000531971455, 1.0560000501573086, 0.0, 0.0, 0.0, 0.0, 0.0, 1.7103872625064485E9, 0.0, 2024-03-13 20:34:22.506
33.0, -124.54614832438529, -134.00435531232506, 53.62081561470404, -348.6278640194796, 0.01600000075995922, -0.11200000531971455, 1.0560000501573086, 0.0, 0.0, 0.0, 0.0, 0.0, 1.7103872625064485E9, 0.0, 2024-03-13 20:34:22.506
34.0, -24.31495956191793, -290.42193105909973, 174.47007283288985, -483.9972828156315, 0.01600000075995922, -0.11200000531971455, 1.0560000501573086, 0.0, 0.0, 0.0, 0.0, 0.0, 1.7103872625071151E9, 0.0, 2024-03-13 20:34:22.507
34.0, -56.8969679758884, -178.95795277971774, 103.62140807230026, -315.78032270865515, 0.01600000075995922, -0.11200000531971455, 1.0560000501573086, 0.0, 0.0, 0.0, 0.0, 0.0, 1.7103872625071151E9, 0.0, 2024-03-13 20:34:22.507
35.0, -138.9185838541016, -92.25585210695863, 29.55455939983949, -282.4765136032365, 0.01600000075995922, -0.11200000531971455, 1.0560000501573086, 0.0, 0.0, 0.0, 0.0, 0.0, 1.7103872625212498E9, 0.0, 2024-03-13 20:34:22.521
35.0, -355.92253888305277, -70.61492101335898, -153.29288933379576, -275.6493262341246, 0.01600000075995922, -0.11200000531971455, 1.0560000501573086, 0.0, 0.0, 0.0, 0.0, 0.0, 1.7103872625212498E9, 0.0, 2024-03-13 20:34:22.521
36.0, -143.87582124536857, 121.3148747626692, 39.57188143115491, -508.67501267325133, 0.01600000075995922, -0.11200000531971455, 1.0560000501573086, 0.0, 0.0, 0.0, 0.0, 0.0, 1.7103872625367923E9, 0.0, 2024-03-13 20:34:22.536
36.0, -231.05475916247815, 301.8510653236881, -73.62928037764505, -356.19555157981813, 0.01600000075995922, -0.11200000531971455, 1.0560000501573086, 0.0, 0.0, 0.0, 0.0, 0.0, 1.7103872625367923E9, 0.0, 2024-03-13 20:34:22.536
37.0, -216.38313163630664, 169.06591739691794, -22.145817587617785, -535.7967671519145, 0.01600000075995922, -0.11200000531971455, 1.0560000501573086, 0.0, 0.0, 0.0, 0.0, 0.0, 1.7103872625372772E9, 0.0, 2024-03-13 20:34:22.537
37.0, -121.40650231158361, 87.88764895871282, 70.80004606116563, -565.6710879979655, 0.01600000075995922, -0.11200000531971455, 1.0560000501573086, 0.0, 0.0, 0.0, 0.0, 0.0, 1.7103872625372772E9, 0.0, 2024-03-13 20:34:22.537
38.0, 101.55511334678158, 69.0142438323237, 246.99047287367284, -566.678991036024, 0.01600000075995922, -0.11200000531971455, 1.0560000501573086, 0.0, 0.0, 0.0, 0.0, 0.0, 1.7103872625508878E9, 0.0, 2024-03-13 20:34:22.550
38.0, -124.48630992509425, -143.46256230026484, 49.2264331667684, -351.9301956803538, 0.01600000075995922, -0.11200000531971455, 1.0560000501573086, 0.0, 0.0, 0.0, 0.0, 0.0, 1.7103872625508878E9, 0.0, 2024-03-13 20:34:22.550
39.0, -38.31340509606525, -291.3905651476234, 179.4142205743119, -477.18692499632016, 0.01600000075995922, -0.11200000531971455, 1.0560000501573086, 0.0, 0.0, 0.0, 0.0, 0.0, 1.7103872625665016E9, 0.0, 2024-03-13 20:34:22.566
39.0, -59.39148124633357, -179.11128867790103, 109.1639398066327, -311.70383175695315, 0.01600000075995922, -0.11200000531971455, 1.0560000501573086, 0.0, 0.0, 0.0, 0.0, 0.0, 1.7103872625665016E9, 0.0, 2024-03-13 20:34:22.566
40.0, -128.45808367803693, -93.51993829198182, 31.858337772544473, -284.64939547749236, 0.01600000075995922, -0.11200000531971455, 1.0560000501573086, 0.0, 0.0, 0.0, 0.0, 0.0, 1.7103872625671437E9, 0.0, 2024-03-13 20:34:22.567
40.0, -354.9838239941746, -69.95669862115756, -162.89321252005175, -284.69053437700495, 0.01600000075995922, -0.11200000531971455, 1.0560000501573086, 0.0, 0.0, 0.0, 0.0, 0.0, 1.7103872625671437E9, 0.0, 2024-03-13 20:34:22.567
41.0, -153.59956113016233, 119.43744498491287, 32.10330121964216, -512.1063708825968, 0.01600000075995922, -0.11200000531971455, 1.0560000501573086, 0.0, 0.0, 0.0, 0.0, 0.0, 1.71038726258073E9, 0.0, 2024-03-13 20:34:22.580
41.0, -233.39967643469572, 290.7660018550232, -78.06854162504897, -361.61653656559065, 0.01600000075995922, -0.11200000531971455, 1.0560000501573086, 0.0, 0.0, 0.0, 0.0, 0.0, 1.71038726258073E9, 0.0, 2024-03-13 20:34:22.580
42.0, -211.6521581923589, 170.24024598300457, -19.98415541322902, -535.8322962014936, 0.01600000075995922, -0.11200000531971455, 1.0560000501573086, 0.0, 0.0, 0.0, 0.0, 0.0, 1.7103872625964613E9, 0.0, 2024-03-13 20:34:22.596
42.0, -120.59120412124321, 86.13363587949425, 68.28683329094201, -563.7020306712948, 0.01600000075995922, -0.11200000531971455, 1.0560000501573086, 0.0, 0.0, 0.0, 0.0, 0.0, 1.7103872625964613E9, 0.0, 2024-03-13 20:34:22.596
43.0, 77.04006913723424, 71.5349364024587, 246.27241208218038, -562.2434696885757, 0.01600000075995922, -0.11200000531971455, 1.0560000501573086, 0.0, 0.0, 0.0, 0.0, 0.0, 1.710387262597243E9, 0.0, 2024-03-13 20:34:22.597
43.0, -145.86357807181776, -145.8149593723938, 50.97670634603128, -352.83525146963075, 0.01600000075995922, -0.11200000531971455, 1.0560000501573086, 0.0, 0.0, 0.0, 0.0, 0.0, 1.710387262597243E9, 0.0, 2024-03-13 20:34:22.597
44.0, -16.472389354836196, -292.6957902321592, 177.46199279744178, -482.2918884358369, 0.01600000075995922, -0.11200000531971455, 1.0560000501573086, 0.0, 0.0, 0.0, 0.0, 0.0, 1.7103872626107826E9, 0.0, 2024-03-13 20:34:22.610
44.0, -56.93810687540099, -192.15979962330312, 97.52163124457002, -325.8481333893724, 0.01600000075995922, -0.11200000531971455, 1.0560000501573086, 0.0, 0.0, 0.0, 0.0, 0.0, 1.7103872626107826E9, 0.0, 2024-03-13 20:34:22.610
45.0, -128.7684953743592, -99.43646002188325, 23.14437087578699, -287.51415884355083, 0.01600000075995922, -0.11200000531971455, 1.0560000501573086, 0.0, 0.0, 0.0, 0.0, 0.0, 1.7103872626264915E9, 0.0, 2024-03-13 20:34:22.626
45.0, -346.4979909947142, -76.39306644489989, -156.8009154922329, -277.9082258073613, 0.01600000075995922, -0.11200000531971455, 1.0560000501573086, 0.0, 0.0, 0.0, 0.0, 0.0, 1.7103872626264915E9, 0.0, 2024-03-13 20:34:22.626
46.0, -140.33039608737454, 114.00711024925113, 38.4985301438719, -509.40803306456655, 0.01600000075995922, -0.11200000531971455, 1.0560000501573086, 0.0, 0.0, 0.0, 0.0, 0.0, 1.7103872626271977E9, 0.0, 2024-03-13 20:34:22.627
46.0, -249.36530934553593, 282.0183758586645, -84.52734884852543, -366.9477639524266, 0.01600000075995922, -0.11200000531971455, 1.0560000501573086, 0.0, 0.0, 0.0, 0.0, 0.0, 1.7103872626271977E9, 0.0, 2024-03-13 20:34:22.627
47.0, -205.93759106006473, 164.69771424867213, -21.97004228970036, -532.0269479965791, 0.01600000075995922, -0.11200000531971455, 1.0560000501573086, 0.0, 0.0, 0.0, 0.0, 0.0, 1.7103872626407063E9, 0.0, 2024-03-13 20:34:22.640
47.0, -129.6716812136583, 72.46056164149195, 63.3277259496972, -570.1290487451479, 0.01600000075995922, -0.11200000531971455, 1.0560000501573086, 0.0, 0.0, 0.0, 0.0, 0.0, 1.7103872626407063E9, 0.0, 2024-03-13 20:34:22.640
48.0, 103.68311642156914, 63.85692179342732, 250.33394343405962, -564.2087871152908, 0.01600000075995922, -0.11200000531971455, 1.0560000501573086, 0.0, 0.0, 0.0, 0.0, 0.0, 1.7103872626567943E9, 0.0, 2024-03-13 20:34:22.656
48.0, -124.22825682815164, -147.11644455697387, 49.41716806450859, -353.6935585094616, 0.01600000075995922, -0.11200000531971455, 1.0560000501573086, 0.0, 0.0, 0.0, 0.0, 0.0, 1.7103872626567943E9, 0.0, 2024-03-13 20:34:22.656
49.0, -18.551773730199784, -289.75248896703124, 184.44064611475915, -478.7146741282195, 0.01600000075995922, -0.11200000531971455, 1.0560000501573086, 0.0, 0.0, 0.0, 0.0, 0.0, 1.7103872626571794E9, 0.0, 2024-03-13 20:34:22.657
49.0, -59.78417074168101, -185.48407820239663, 105.11362815462053, -318.05979173164815, 0.01600000075995922, -0.11200000531971455, 1.0560000501573086, 0.0, 0.0, 0.0, 0.0, 0.0, 1.7103872626571794E9, 0.0, 2024-03-13 20:34:22.657
50.0, -130.21583665721118, -94.8214234765619, 23.839992267545313, -283.4283181419596, 0.01600000075995922, -0.11200000531971455, 1.0560000501573086, 0.0, 0.0, 0.0, 0.0, 0.0, 1.7103872626710038E9, 0.0, 2024-03-13 20:34:22.671
50.0, -343.47989173047245, -65.2706039766781, -156.96921099023893, -271.7093416308053, 0.01600000075995922, -0.11200000531971455, 1.0560000501573086, 0.0, 0.0, 0.0, 0.0, 0.0, 1.7103872626710038E9, 0.0, 2024-03-13 20:34:22.671
51.0, -139.28322409978136, 119.3140282863751, 35.08400148432702, -510.4458553022705, 0.01600000075995922, -0.11200000531971455, 1.0560000501573086, 0.0, 0.0, 0.0, 0.0, 0.0, 1.7103872626864676E9, 0.0, 2024-03-13 20:34:22.686
51.0, -245.2289799945429, 295.2464020019397, -82.36942657409236, -359.74284668779, 0.01600000075995922, -0.11200000531971455, 1.0560000501573086, 0.0, 0.0, 0.0, 0.0, 0.0, 1.7103872626864676E9, 0.0, 2024-03-13 20:34:22.686
52.0, -209.5391147173941, 172.09523636102676, -22.37395148491487, -528.7676251851954, 0.01600000075995922, -0.11200000531971455, 1.0560000501573086, 0.0, 0.0, 0.0, 0.0, 0.0, 1.7103872626871915E9, 0.0, 2024-03-13 20:34:22.687
52.0, -125.5951902619563, 85.50907258689404, 69.41628307756037, -565.4822230502032, 0.01600000075995922, -0.11200000531971455, 1.0560000501573086, 0.0, 0.0, 0.0, 0.0, 0.0, 1.7103872626871915E9, 0.0, 2024-03-13 20:34:22.687
53.0, 91.28908796841279, 68.30740274069831, 248.20968025922775, -565.7234465973452, 0.01600000075995922, -0.11200000531971455, 1.0560000501573086, 0.0, 0.0, 0.0, 0.0, 0.0, 1.7103872627007124E9, 0.0, 2024-03-13 20:34:22.700
53.0, -120.56689477153122, -136.16227758675814, 54.716606301721185, -346.88694059010595, 0.01600000075995922, -0.11200000531971455, 1.0560000501573086, 0.0, 0.0, 0.0, 0.0, 0.0, 1.7103872627007124E9, 0.0, 2024-03-13 20:34:22.700
54.0, -0.4057791451923549, -280.03622888214886, 185.35692160390317, -473.8266248861328, 0.01600000075995922, -0.11200000531971455, 1.0560000501573086, 0.0, 0.0, 0.0, 0.0, 0.0, 1.710387262716498E9, 0.0, 2024-03-13 20:34:22.716
54.0, -76.25843004649505, -172.84321635216475, 110.80949578713626, -313.50459358561784, 0.01600000075995922, -0.11200000531971455, 1.0560000501573086, 0.0, 0.0, 0.0, 0.0, 0.0, 1.710387262716498E9, 0.0, 2024-03-13 20:34:22.716
55.0, -135.40307789575309, -83.53814531024545, 32.595098063815385, -277.55667521152645, 0.01600000075995922, -0.11200000531971455, 1.0560000501573086, 0.0, 0.0, 0.0, 0.0, 0.0, 1.710387262717454E9, 0.0, 2024-03-13 20:34:22.717
55.0, -344.84869511425495, -62.11786831403151, -154.83372811554, -271.6008845320903, 0.01600000075995922, -0.11200000531971455, 1.0560000501573086, 0.0, 0.0, 0.0, 0.0, 0.0, 1.710387262717454E9, 0.0, 2024-03-13 20:34:22.717
56.0, -135.24039224768057, 125.01737571880221, 37.73933045286685, -511.0330195953138, 0.01600000075995922, -0.11200000531971455, 1.0560000501573086, 0.0, 0.0, 0.0, 0.0, 0.0, 1.7103872627306976E9, 0.0, 2024-03-13 20:34:22.730
56.0, -231.5895648561418, 300.67673673760146, -80.00206990214065, -358.79291209904477, 0.01600000075995922, -0.11200000531971455, 1.0560000501573086, 0.0, 0.0, 0.0, 0.0, 0.0, 1.7103872627306976E9, 0.0, 2024-03-13 20:34:22.730
57.0, -222.071519468911, 174.0063252383843, -17.9533897372894, -533.4686794294976, 0.01600000075995922, -0.11200000531971455, 1.0560000501573086, 0.0, 0.0, 0.0, 0.0, 0.0, 1.7103872627468631E9, 0.0, 2024-03-13 20:34:22.746
57.0, -141.77773737022653, 87.59219686221331, 67.63983059860766, -570.2692949934863, 0.01600000075995922, -0.11200000531971455, 1.0560000501573086, 0.0, 0.0, 0.0, 0.0, 0.0, 1.7103872627468631E9, 0.0, 2024-03-13 20:34:22.746
58.0, 92.33625995600596, 74.11172747192904, 244.6679950011894, -567.221276529599, 0.01600000075995922, -0.11200000531971455, 1.0560000501573086, 0.0, 0.0, 0.0, 0.0, 0.0, 1.7103872627474215E9, 0.0, 2024-03-13 20:34:22.747
58.0, -126.98082319553941, -139.38981124851853, 48.702847172971815, -350.58009179634973, 0.01600000075995922, -0.11200000531971455, 1.0560000501573086, 0.0, 0.0, 0.0, 0.0, 0.0, 1.7103872627474215E9, 0.0, 2024-03-13 20:34:22.747
59.0, -24.247641362715513, -289.71135006751865, 179.09632907807827, -476.2407303075306, 0.01600000075995922, -0.11200000531971455, 1.0560000501573086, 0.0, 0.0, 0.0, 0.0, 0.0, 1.710387262760702E9, 0.0, 2024-03-13 20:34:22.760
59.0, -69.62010762514547, -190.69001894071698, 94.71670627780259, -325.1001533982344, 0.01600000075995922, -0.11200000531971455, 1.0560000501573086, 0.0, 0.0, 0.0, 0.0, 0.0, 1.710387262760702E9, 0.0, 2024-03-13 20:34:22.760
60.0, -127.20147729292512, -85.16500179097056, 27.063786029350013, -278.3738433518447, 0.01600000075995922, -0.11200000531971455, 1.0560000501573086, 0.0, 0.0, 0.0, 0.0, 0.0, 1.7103872627764487E9, 0.0, 2024-03-13 20:34:22.776
60.0, -340.44309296645224, -58.99505185103044, -153.31906863348559, -270.06939550023526, 0.01600000075995922, -0.11200000531971455, 1.0560000501573086, 0.0, 0.0, 0.0, 0.0, 0.0, 1.7103872627764487E9, 0.0, 2024-03-13 20:34:22.776
61.0, -155.9444784023799, 119.34768738597631, 37.08110806066543, -512.9235390229151, 0.01600000075995922, -0.11200000531971455, 1.0560000501573086, 0.0, 0.0, 0.0, 0.0, 0.0, 1.7103872627771568E9, 0.0, 2024-03-13 20:34:22.777
61.0, -235.39304311107844, 291.9964289404452, -86.61047312384471, -367.04874125123024, 0.01600000075995922, -0.11200000531971455, 1.0560000501573086, 0.0, 0.0, 0.0, 0.0, 0.0, 1.7103872627771568E9, 0.0, 2024-03-13 20:34:22.777
62.0, -196.3522274736315, 178.5241243848577, -13.962916484568268, -530.0410611201078, 0.01600000075995922, -0.11200000531971455, 1.0560000501573086, 0.0, 0.0, 0.0, 0.0, 0.0, 1.710387262790773E9, 0.0, 2024-03-13 20:34:22.790
62.0, -122.40505559975281, 90.39338192902505, 75.57589830458164, -560.7119806567207, 0.01600000075995922, -0.11200000531971455, 1.0560000501573086, 0.0, 0.0, 0.0, 0.0, 0.0, 1.710387262790773E9, 0.0, 2024-03-13 20:34:22.790
63.0, 86.46087712561712, 68.8272488345392, 247.33080376964062, -569.4465170032345, 0.01600000075995922, -0.11200000531971455, 1.0560000501573086, 0.0, 0.0, 0.0, 0.0, 0.0, 1.710387262806517E9, 0.0, 2024-03-13 20:34:22.806
63.0, -117.81432840414345, -135.49657539464533, 55.61418229108676, -342.9993145861663, 0.01600000075995922, -0.11200000531971455, 1.0560000501573086, 0.0, 0.0, 0.0, 0.0, 0.0, 1.710387262806517E9, 0.0, 2024-03-13 20:34:22.806
64.0, -14.333166580181569, -286.42023810651153, 186.89776038564742, -472.6092874505557, 0.01600000075995922, -0.11200000531971455, 1.0560000501573086, 0.0, 0.0, 0.0, 0.0, 0.0, 1.710387262807162E9, 0.0, 2024-03-13 20:34:22.807
64.0, -67.73519804747775, -185.7944898987189, 106.17949964199215, -318.8021618728526, 0.01600000075995922, -0.11200000531971455, 1.0560000501573086, 0.0, 0.0, 0.0, 0.0, 0.0, 1.710387262807162E9, 0.0, 2024-03-13 20:34:22.807
65.0, -141.3308193255216, -95.41980746947229, 29.719114997889847, -279.94834123319015, 0.01600000075995922, -0.11200000531971455, 1.0560000501573086, 0.0, 0.0, 0.0, 0.0, 0.0, 1.7103872628210356E9, 0.0, 2024-03-13 20:34:22.821
65.0, -342.5374369416386, -69.10774133121595, -152.51499014301226, -272.7172446688637, 0.01600000075995922, -0.11200000531971455, 1.0560000501573086, 0.0, 0.0, 0.0, 0.0, 0.0, 1.7103872628210356E9, 0.0, 2024-03-13 20:34:22.821
66.0, -137.14400132512674, 121.28869546297938, 40.36474022176117, -506.5694489981979, 0.01600000075995922, -0.11200000531971455, 1.0560000501573086, 0.0, 0.0, 0.0, 0.0, 0.0, 1.7103872628364532E9, 0.0, 2024-03-13 20:34:22.836
66.0, -261.7855170983821, 287.246755996719, -82.54520187200978, -359.01169624645263, 0.01600000075995922, -0.11200000531971455, 1.0560000501573086, 0.0, 0.0, 0.0, 0.0, 0.0, 1.7103872628364532E9, 0.0, 2024-03-13 20:34:22.836
67.0, -204.34439367894083, 174.14096163678914, -17.194190046284348, -524.3900722870603, 0.01600000075995922, -0.11200000531971455, 1.0560000501573086, 0.0, 0.0, 0.0, 0.0, 0.0, 1.7103872628371644E9, 0.0, 2024-03-13 20:34:22.837
67.0, -120.83429761836305, 87.9287878582254, 69.09091178141534, -565.7571056969464, 0.01600000075995922, -0.11200000531971455, 1.0560000501573086, 0.0, 0.0, 0.0, 0.0, 0.0, 1.7103872628371644E9, 0.0, 2024-03-13 20:34:22.837
68.0, 82.32454777462408, 62.90698720468208, 239.4882335625589, -571.2154896822758, 0.01600000075995922, -0.11200000531971455, 1.0560000501573086, 0.0, 0.0, 0.0, 0.0, 0.0, 1.7103872628508265E9, 0.0, 2024-03-13 20:34:22.850
