%OpenBCI Raw EXG Data
%Number of channels = 4
%Sample Rate = 200 Hz
%Board = OpenBCI_GUI$BoardGanglionBLE
Sample Index, EXG Channel 0, EXG Channel 1, EXG Channel 2, EXG Channel 3, Accel Channel 0, Accel Channel 1, Accel Channel 2, Other, Other, Other, Other, Other, Timestamp, Other, Timestamp (Formatted)
0.0, -530.7815613113344, -338.5600533387624, -367.82290054205805, -519.7451165420935, 0.0, 0.0, 0.0, 0.0, 0.0, 0.0, 0.0, 0.0, 1.7103870830070465E9, 0.0, 2024-03-13 20:31:23.007
1.0, -437.5682948157191, -518.3351742587984, -295.6278717974201, -673.4119958714582, 0.0, -0.144000006839633, 0.0, 0.0, 0.0, 0.0, 0.0, 0.0, 1.7103870830205338E9, 0.0, 2024-03-13 20:31:23.020
1.0, -573.8109802515246, -567.3596528279595, -419.8505187756382, -776.0928191049024, 0.0, -0.144000006839633, 0.0, 0.0, 0.0, 0.0, 0.0, 0.0, 1.7103870830205338E9, 0.0, 2024-03-13 20:31:23.020
2.0, -416.02647107094526, -659.7164822337218, -228.90057678800076, -860.992287999019, 0.01600000075995922, -0.144000006839633, 0.0, 0.0, 0.0, 0.0, 0.0, 0.0, 1.7103870830376675E9, 0.0, 2024-03-13 20:31:23.037
2.0, -575.7276789788157, -754.5005067107268, -414.84840258490294, -898.7839770512655, 0.01600000075995922, -0.144000006839633, 0.0, 0.0, 0.0, 0.0, 0.0, 0.0, 1.7103870830376675E9, 0.0, 2024-03-13 20:31:23.037
3.0, -626.0349432327785, -589.8850702610798, -480.34714045887813, -781.1491638449952, 0.01600000075995922, -0.144000006839633, 0.0, 0.0, 0.0, 0.0, 0.0, 0.0, 1.7103870830380678E9, 0.0, 2024-03-13 20:31:23.038
3.0, -740.6927960743196, -413.70025329850614, -565.557021049317, -640.0745276664384, 0.01600000075995922, -0.144000006839633, 0.0, 0.0, 0.0, 0.0, 0.0, 0.0, 1.7103870830380678E9, 0.0, 2024-03-13 20:31:23.038
4.0, -612.8835850385949, -382.55623641749844, -439.7598761897534, -536.2866940461099, 0.01600000075995922, -0.144000006839633, 0.0, 0.0, 0.0, 0.0, 0.0, 0.0, 1.7103870830505416E9, 0.0, 2024-03-13 20:31:23.050
4.0, -773.8881480810232, -278.8562904461287, -621.4647854869254, -443.8064479418099, 0.01600000075995922, -0.144000006839633, 0.0, 0.0, 0.0, 0.0, 0.0, 0.0, 1.7103870830505416E9, 0.0, 2024-03-13 20:31:23.050
5.0, -614.2168593727984, -204.47342022741213, -450.4840393126942, -425.6791528565809, 0.01600000075995922, -0.144000006839633, 0.0, 0.0, 0.0, 0.0, 0.0, 0.0, 1.710387083066046E9, 0.0, 2024-03-13 20:31:23.066
5.0, -576.6963130673394, -346.9598686392419, -365.6500186678022, -519.8760130405426, 0.01600000075995922, -0.144000006839633, 0.0, 0.0, 0.0, 0.0, 0.0, 0.0, 1.710387083066046E9, 0.0, 2024-03-13 20:31:23.066
6.0, -469.83241173345596, -528.6236390369013, -296.90691758226603, -671.7028615917079, 0.01600000075995922, -0.144000006839633, 0.0, 0.0, 0.0, 0.0, 0.0, 0.0, 1.7103870830668206E9, 0.0, 2024-03-13 20:31:23.066
6.0, -591.2164746453054, -567.06420073146, -411.6264787730761, -774.3313262257725, 0.01600000075995922, -0.144000006839633, 0.0, 0.0, 0.0, 0.0, 0.0, 0.0, 1.7103870830668206E9, 0.0, 2024-03-13 20:31:23.066
7.0, -427.1938123386353, -663.3815841902979, -227.21014200802892, -859.5187674164772, 0.01600000075995922, -0.144000006839633, 0.0, 0.0, 0.0, 0.0, 0.0, 0.0, 1.7103870830802827E9, 0.0, 2024-03-13 20:31:23.080
7.0, -560.6708417572081, -760.4170284406282, -411.5759901236743, -899.0457700481638, 0.01600000075995922, -0.144000006839633, 0.0, 0.0, 0.0, 0.0, 0.0, 0.0, 1.7103870830802827E9, 0.0, 2024-03-13 20:31:23.080
8.0, -649.2859012573026, -594.3654704079963, -476.29308890691027, -781.1042850455269, 0.01600000075995922, -0.144000006839633, 0.0, 0.0, 0.0, 0.0, 0.0, 0.0, 1.7103870830960832E9, 0.0, 2024-03-13 20:31:23.096
8.0, -772.1154355020262, -424.4562055710703, -566.5667940373532, -637.980183691252, 0.01600000075995922, -0.144000006839633, 0.0, 0.0, 0.0, 0.0, 0.0, 0.0, 1.7103870830960832E9, 0.0, 2024-03-13 20:31:23.096
9.0, -632.8509109020233, -386.59906826959923, -434.8306880481541, -541.0849856892601, 0.01600000075995922, -0.144000006839633, 0.0, 0.0, 0.0, 0.0, 0.0, 0.0, 1.7103870830967891E9, 0.0, 2024-03-13 20:31:23.096
9.0, -782.5123573788442, -278.97970714466646, -620.698105996009, -441.513889268972, 0.01600000075995922, -0.144000006839633, 0.0, 0.0, 0.0, 0.0, 0.0, 0.0, 1.7103870830967891E9, 0.0, 2024-03-13 20:31:23.096
10.0, -608.2442391435616, -200.41562877548859, -443.1575752994977, -421.3034699084237, 0.01600000075995922, -0.144000006839633, 1.0560000501573086, 0.0, 0.0, 0.0, 0.0, 0.0, 1.7103870831105735E9, 0.0, 2024-03-13 20:31:23.110
10.0, -541.4701953846961, -347.7676870296709, -367.22825644910336, -524.4162515867501, 0.01600000075995922, -0.144000006839633, 1.0560000501573086, 0.0, 0.0, 0.0, 0.0, 0.0, 1.7103870831105735E9, 0.0, 2024-03-13 20:31:23.110
11.0, -445.9942894158885, -536.0136813493446, -302.15773712005466, -683.5546045512892, 0.01600000075995922, -0.12800000607967377, 1.0560000501573086, 0.0, 0.0, 0.0, 0.0, 0.0, 1.7103870831260383E9, 0.0, 2024-03-13 20:31:23.126
11.0, -579.028140689712, -575.4602761319838, -421.7316884533502, -787.0769052747637, 0.01600000075995922, -0.12800000607967377, 1.0560000501573086, 0.0, 0.0, 0.0, 0.0, 0.0, 1.7103870831260383E9, 0.0, 2024-03-13 20:31:23.126
12.0, -406.47102668415755, -662.704662298318, -225.43368952907622, -861.2017223965377, 0.01600000075995922, -0.12800000607967377, 1.0560000501573086, 0.0, 0.0, 0.0, 0.0, 0.0, 1.710387083126785E9, 0.0, 2024-03-13 20:31:23.126
12.0, -577.7995835542679, -768.801884141285, -415.3121501794085, -906.4358123606071, 0.01600000075995922, -0.12800000607967377, 1.0560000501573086, 0.0, 0.0, 0.0, 0.0, 0.0, 1.710387083126785E9, 0.0, 2024-03-13 20:31:23.126
13.0, -639.9548508678563, -601.3927424247377, -478.2527964836918, -785.8801372889429, 0.01600000075995922, -0.12800000607967377, 1.0560000501573086, 0.0, 0.0, 0.0, 0.0, 0.0, 1.710387083140388E9, 0.0, 2024-03-13 20:31:23.140
13.0, -745.0236002230085, -423.5997684812173, -561.1888179010712, -638.2232771883719, 0.01600000075995922, -0.12800000607967377, 1.0560000501573086, 0.0, 0.0, 0.0, 0.0, 0.0, 1.710387083140388E9, 0.0, 2024-03-13 20:31:23.140
14.0, -625.6291640875861, -388.1623464510776, -436.2481101313606, -545.415789837949, 0.01600000075995922, -0.12800000607967377, 1.0560000501573086, 0.0, 0.0, 0.0, 0.0, 0.0, 1.7103870831564295E9, 0.0, 2024-03-13 20:31:23.156
14.0, -775.9675324563868, -278.153189254459, -616.8347893417813, -439.0979138975963, 0.01600000075995922, -0.12800000607967377, 1.0560000501573086, 0.0, 0.0, 0.0, 0.0, 0.0, 1.7103870831564295E9, 0.0, 2024-03-13 20:31:23.156
15.0, -620.9673787928186, -199.99302008049563, -442.080484112259, -413.62545529939234, 0.01600000075995922, -0.12800000607967377, 1.0560000501573086, 0.0, 0.0, 0.0, 0.0, 0.0, 1.710387083156908E9, 0.0, 2024-03-13 20:31:23.156
15.0, -556.9384216014296, -348.20899522444233, -365.7285565668717, -523.1222462020814, 0.01600000075995922, -0.12800000607967377, 1.0560000501573086, 0.0, 0.0, 0.0, 0.0, 0.0, 1.710387083156908E9, 0.0, 2024-03-13 20:31:23.156
16.0, -453.59750602580607, -538.6166517185047, -298.34677906520665, -680.1213763919659, 0.01600000075995922, -0.12800000607967377, 1.0560000501573086, 0.0, 0.0, 0.0, 0.0, 0.0, 1.7103870831706216E9, 0.0, 2024-03-13 20:31:23.170
16.0, -582.8727578441612, -572.5468940665014, -413.7283025481738, -779.7691407613456, 0.01600000075995922, -0.12800000607967377, 1.0560000501573086, 0.0, 0.0, 0.0, 0.0, 0.0, 1.7103870831706216E9, 0.0, 2024-03-13 20:31:23.170
17.0, -412.73909900989383, -657.1172517645173, -217.08997272793204, -853.8715184833854, 0.01600000075995922, -0.12800000607967377, 1.0560000501573086, 0.0, 0.0, 0.0, 0.0, 0.0, 1.7103870831864069E9, 0.0, 2024-03-13 20:31:23.186
17.0, -575.3200298836455, -760.431988040451, -407.8248704681173, -899.0345503482968, 0.01600000075995922, -0.12800000607967377, 1.0560000501573086, 0.0, 0.0, 0.0, 0.0, 0.0, 1.7103870831864069E9, 0.0, 2024-03-13 20:31:23.186
18.0, -637.0452087023295, -602.944800906349, -478.2527964836918, -787.5630922690034, 0.01600000075995922, -0.12800000607967377, 1.0560000501573086, 0.0, 0.0, 0.0, 0.0, 0.0, 1.7103870831868694E9, 0.0, 2024-03-13 20:31:23.186
18.0, -748.4231692827307, -425.95964535325766, -560.6577521073632, -635.556728519965, 0.01600000075995922, -0.12800000607967377, 1.0560000501573086, 0.0, 0.0, 0.0, 0.0, 0.0, 1.7103870831868694E9, 0.0, 2024-03-13 20:31:23.186
19.0, -626.0480328826234, -394.85302747180685, -439.801015089266, -542.5435466719791, 0.01600000075995922, -0.12800000607967377, 1.0560000501573086, 0.0, 0.0, 0.0, 0.0, 0.0, 1.7103870832006927E9, 0.0, 2024-03-13 20:31:23.200
19.0, -777.5981288370676, -286.61284295422956, -627.306509217713, -447.9502570927143, 0.01600000075995922, -0.12800000607967377, 1.0560000501573086, 0.0, 0.0, 0.0, 0.0, 0.0, 1.7103870832006927E9, 0.0, 2024-03-13 20:31:23.200
20.0, -617.4593526343815, -204.38740252843127, -444.35808318527415, -421.0902956109494, 0.01600000075995922, -0.12800000607967377, 1.0560000501573086, 0.0, 0.0, 0.0, 0.0, 0.0, 1.710387083216235E9, 0.0, 2024-03-13 20:31:23.216
20.0, -550.722707875073, -357.12491671880707, -367.63590554427356, -527.4717498505488, 0.01600000075995922, -0.12800000607967377, 1.0560000501573086, 0.0, 0.0, 0.0, 0.0, 0.0, 1.710387083216235E9, 0.0, 2024-03-13 20:31:23.216
21.0, -448.48880268633366, -543.5682792598382, -302.0231007216498, -685.2861782307737, 0.01600000075995922, -0.12800000607967377, 1.0560000501573086, 0.0, 0.0, 0.0, 0.0, 0.0, 1.710387083217008E9, 0.0, 2024-03-13 20:31:23.217
21.0, -575.9464631262235, -575.639791329857, -415.72166922455654, -777.8580518839881, 0.01600000075995922, -0.12800000607967377, 1.0560000501573086, 0.0, 0.0, 0.0, 0.0, 0.0, 1.710387083217008E9, 0.0, 2024-03-13 20:31:23.217
22.0, -416.9016076605767, -657.2144891633652, -220.0706729926169, -853.5461471872404, 0.01600000075995922, -0.12800000607967377, 1.0560000501573086, 0.0, 0.0, 0.0, 0.0, 0.0, 1.7103870832303348E9, 0.0, 2024-03-13 20:31:23.230
22.0, -598.2418767120689, -762.4365744167008, -413.0420309063047, -900.6913260286674, 0.01600000075995922, -0.12800000607967377, 1.0560000501573086, 0.0, 0.0, 0.0, 0.0, 0.0, 1.7103870832303348E9, 0.0, 2024-03-13 20:31:23.230
23.0, -639.898752368521, -595.6781752924435, -472.4634313522838, -779.7728806613013, 0.01600000075995922, -0.12800000607967377, 1.0560000501573086, 0.0, 0.0, 0.0, 0.0, 0.0, 1.7103870832460277E9, 0.0, 2024-03-13 20:31:23.246
23.0, -719.5997603242286, -423.4913113825023, -556.233450459782, -637.2359436000697, 0.01600000075995922, -0.12800000607967377, 1.0560000501573086, 0.0, 0.0, 0.0, 0.0, 0.0, 1.7103870832460277E9, 0.0, 2024-03-13 20:31:23.246
24.0, -625.4833079893142, -398.5069097285159, -444.5918269325048, -552.0017536599189, 0.01600000075995922, -0.12800000607967377, 1.0560000501573086, 0.0, 0.0, 0.0, 0.0, 0.0, 1.7103870832467852E9, 0.0, 2024-03-13 20:31:23.246
24.0, -793.1561126527376, -284.7802919759415, -631.1586061720736, -450.3213536646217, 0.01600000075995922, -0.12800000607967377, 1.0560000501573086, 0.0, 0.0, 0.0, 0.0, 0.0, 1.7103870832467852E9, 0.0, 2024-03-13 20:31:23.246
25.0, -628.7351510007866, -192.27386657195166, -443.6101031941362, -415.66370077524334, 0.01600000075995922, -0.12800000607967377, 1.0560000501573086, 0.0, 0.0, 0.0, 0.0, 0.0, 1.7103870832603538E9, 0.0, 2024-03-13 20:31:23.260
25.0, -557.0693180998787, -346.8439317406155, -359.62877973914146, -518.3576136585325, 0.01600000075995922, -0.12800000607967377, 1.0560000501573086, 0.0, 0.0, 0.0, 0.0, 0.0, 1.7103870832603538E9, 0.0, 2024-03-13 20:31:23.260
26.0, -440.4293182818219, -536.563446642831, -292.8902650298551, -676.0000066407956, 0.01600000075995922, -0.12800000607967377, 1.0560000501573086, 0.0, 0.0, 0.0, 0.0, 0.0, 1.7103870832760284E9, 0.0, 2024-03-13 20:31:23.276
26.0, -598.2998451613821, -569.0239083082415, -412.7035699603148, -780.1580903567374, 0.01600000075995922, -0.12800000607967377, 1.0560000501573086, 0.0, 0.0, 0.0, 0.0, 0.0, 1.7103870832760284E9, 0.0, 2024-03-13 20:31:23.276
27.0, -429.11612091585994, -655.1014456884004, -222.61006506253034, -861.149363797158, 0.01600000075995922, -0.12800000607967377, 1.0560000501573086, 0.0, 0.0, 0.0, 0.0, 0.0, 1.7103870832767806E9, 0.0, 2024-03-13 20:31:23.276
27.0, -584.4416458755732, -768.8430230407976, -415.558983576484, -913.1451928811148, 0.01600000075995922, -0.12800000607967377, 1.0560000501573086, 0.0, 0.0, 0.0, 0.0, 0.0, 1.7103870832767806E9, 0.0, 2024-03-13 20:31:23.276
28.0, -624.6960590486415, -598.1988678625785, -473.82475493615493, -780.5694793518633, 0.01600000075995922, -0.12800000607967377, 1.0560000501573086, 0.0, 0.0, 0.0, 0.0, 0.0, 1.7103870832904315E9, 0.0, 2024-03-13 20:31:23.290
28.0, -723.429417878855, -405.3041778979823, -549.2697567422874, -619.3554819119163, 0.01600000075995922, -0.12800000607967377, 1.0560000501573086, 0.0, 0.0, 0.0, 0.0, 0.0, 1.7103870832904315E9, 0.0, 2024-03-13 20:31:23.290
29.0, -603.4066785508767, -378.7228389629163, -428.8730274187401, -531.7838544994593, 0.01600000075995922, -0.12800000607967377, 1.0560000501573086, 0.0, 0.0, 0.0, 0.0, 0.0, 1.7103870833062527E9, 0.0, 2024-03-13 20:31:23.306
29.0, -760.2113339430653, -275.4903804860078, -617.7024461315013, -439.41580539382994, 0.01600000075995922, -0.12800000607967377, 1.0560000501573086, 0.0, 0.0, 0.0, 0.0, 0.0, 1.7103870833062527E9, 0.0, 2024-03-13 20:31:23.306
30.0, -606.5425846637227, -193.2200612607412, -438.20220785820857, -412.5296646123752, 0.01600000075995922, -0.12800000607967377, 1.0560000501573086, 0.0, 0.0, 0.0, 0.0, 0.0, 1.7103870833070028E9, 0.0, 2024-03-13 20:31:23.307
30.0, -555.4050626195967, -340.0260941213928, -362.613219903782, -520.9755436275154, 0.01600000075995922, -0.12800000607967377, 1.0560000501573086, 0.0, 0.0, 0.0, 0.0, 0.0, 1.7103870833070028E9, 0.0, 2024-03-13 20:31:23.307
31.0, -460.49014164414257, -533.7136428765953, -295.01452820468694, -678.359883512836, 0.01600000075995922, -0.144000006839633, 1.0560000501573086, 0.0, 0.0, 0.0, 0.0, 0.0, 1.7103870833203812E9, 0.0, 2024-03-13 20:31:23.320
31.0, -592.1103107347153, -570.3141737929545, -410.1305187908001, -775.8272862080485, 0.01600000075995922, -0.144000006839633, 1.0560000501573086, 0.0, 0.0, 0.0, 0.0, 0.0, 1.7103870833203812E9, 0.0, 2024-03-13 20:31:23.320
32.0, -414.40335449017584, -651.6607377291657, -218.8851247066632, -853.2282556910068, 0.01600000075995922, -0.144000006839633, 1.0560000501573086, 0.0, 0.0, 0.0, 0.0, 0.0, 1.7103870833364065E9, 0.0, 2024-03-13 20:31:23.336
32.0, -594.5393757559359, -768.8093639411964, -415.0391374826431, -906.3236153619364, 0.01600000075995922, -0.144000006839633, 1.0560000501573086, 0.0, 0.0, 0.0, 0.0, 0.0, 1.7103870833364065E9, 0.0, 2024-03-13 20:31:23.336
33.0, -651.4812225312926, -606.0189986699261, -481.3943124464713, -793.8910029940307, 0.01600000075995922, -0.144000006839633, 1.0560000501573086, 0.0, 0.0, 0.0, 0.0, 0.0, 1.710387083337169E9, 0.0, 2024-03-13 20:31:23.337
33.0, -756.4564743875526, -424.6506803687662, -564.0722807669081, -639.8351740692742, 0.01600000075995922, -0.144000006839633, 1.0560000501573086, 0.0, 0.0, 0.0, 0.0, 0.0, 1.710387083337169E9, 0.0, 2024-03-13 20:31:23.337
34.0, -627.3756973668933, -398.6565057267435, -442.96497045177966, -553.8754435377195, 0.01600000075995922, -0.144000006839633, 1.0560000501573086, 0.0, 0.0, 0.0, 0.0, 0.0, 1.710387083350665E9, 0.0, 2024-03-13 20:31:23.350
34.0, -783.9073400623165, -293.2249860758893, -632.7518035531975, -453.0402609324083, 0.01600000075995922, -0.144000006839633, 1.0560000501573086, 0.0, 0.0, 0.0, 0.0, 0.0, 1.710387083350665E9, 0.0, 2024-03-13 20:31:23.350
35.0, -624.1238543554209, -197.94729480473325, -451.03006470622495, -420.9070405131206, 0.01600000075995922, -0.144000006839633, 1.0560000501573086, 0.0, 0.0, 0.0, 0.0, 0.0, 1.7103870833660352E9, 0.0, 2024-03-13 20:31:23.366
35.0, -556.3101184088737, -343.7809536769055, -364.0530813867226, -521.8955590166152, 0.01600000075995922, -0.144000006839633, 1.0560000501573086, 0.0, 0.0, 0.0, 0.0, 0.0, 1.7103870833660352E9, 0.0, 2024-03-13 20:31:23.366
36.0, -453.9640162214637, -539.8769980035722, -300.5421003391966, -684.3848623414524, 0.01600000075995922, -0.144000006839633, 1.0560000501573086, 0.0, 0.0, 0.0, 0.0, 0.0, 1.7103870833667428E9, 0.0, 2024-03-13 20:31:23.366
36.0, -575.8043469279073, -569.0613073077984, -416.2527350182645, -778.5574131757021, 0.01600000075995922, -0.144000006839633, 1.0560000501573086, 0.0, 0.0, 0.0, 0.0, 0.0, 1.7103870833667428E9, 0.0, 2024-03-13 20:31:23.366
37.0, -419.1904264334589, -659.7688408331014, -222.89803735911846, -858.0228074342012, 0.01600000075995922, -0.144000006839633, 1.0560000501573086, 0.0, 0.0, 0.0, 0.0, 0.0, 1.710387083380336E9, 0.0, 2024-03-13 20:31:23.380
37.0, -592.7741429768503, -776.8838079455309, -421.65876040421426, -913.5827611759305, 0.01600000075995922, -0.144000006839633, 1.0560000501573086, 0.0, 0.0, 0.0, 0.0, 0.0, 1.710387083380336E9, 0.0, 2024-03-13 20:31:23.380
38.0, -648.0367746721022, -611.1052626096644, -487.83068027021363, -795.7946120714769, 0.01600000075995922, -0.144000006839633, 1.0560000501573086, 0.0, 0.0, 0.0, 0.0, 0.0, 1.7103870833960574E9, 0.0, 2024-03-13 20:31:23.396
38.0, -742.1700565568171, -416.0489104706794, -556.5550818559714, -631.6186138666235, 0.01600000075995922, -0.144000006839633, 1.0560000501573086, 0.0, 0.0, 0.0, 0.0, 0.0, 1.7103870833960574E9, 0.0, 2024-03-13 20:31:23.396
39.0, -614.6375981178135, -390.07343532843515, -433.58904126286507, -541.2869402868673, 0.01600000075995922, -0.144000006839633, 1.0560000501573086, 0.0, 0.0, 0.0, 0.0, 0.0, 1.7103870833968613E9, 0.0, 2024-03-13 20:31:23.396
39.0, -766.2774516711943, -272.61439742008224, -621.6106415851973, -442.7218769546598, 0.01600000075995922, -0.144000006839633, 1.0560000501573086, 0.0, 0.0, 0.0, 0.0, 0.0, 1.7103870833968613E9, 0.0, 2024-03-13 20:31:23.396
40.0, -613.3978212825023, -188.42924941750243, -440.27785233361647, -412.3015307150781, 0.01600000075995922, -0.144000006839633, 1.0560000501573086, 0.0, 0.0, 0.0, 0.0, 0.0, 1.7103870834103355E9, 0.0, 2024-03-13 20:31:23.410
40.0, -551.3397913677618, -350.2173215006478, -369.38617872353643, -534.2521884702146, 0.01600000075995922, -0.144000006839633, 1.0560000501573086, 0.0, 0.0, 0.0, 0.0, 0.0, 1.7103870834103355E9, 0.0, 2024-03-13 20:31:23.410
41.0, -449.8089873706922, -543.9385293554515, -305.374051081948, -692.6500412435271, 0.01600000075995922, -0.144000006839633, 1.0560000501573086, 0.0, 0.0, 0.0, 0.0, 0.0, 1.710387083426052E9, 0.0, 2024-03-13 20:31:23.426
41.0, -570.7405223879032, -569.6596913007088, -421.32403935818, -780.4385828534141, 0.01600000075995922, -0.144000006839633, 1.0560000501573086, 0.0, 0.0, 0.0, 0.0, 0.0, 1.710387083426052E9, 0.0, 2024-03-13 20:31:23.426
42.0, -403.13877582363784, -657.5436003594659, -229.09505158569664, -861.9908412871882, 0.01600000075995922, -0.144000006839633, 1.0560000501573086, 0.0, 0.0, 0.0, 0.0, 0.0, 1.710387083426956E9, 0.0, 2024-03-13 20:31:23.426
42.0, -583.4094334878027, -766.6477017668076, -414.2387988921255, -903.903900090605, 0.01600000075995922, -0.144000006839633, 1.0560000501573086, 0.0, 0.0, 0.0, 0.0, 0.0, 1.710387083426956E9, 0.0, 2024-03-13 20:31:23.426
43.0, -637.8904260923155, -590.4161360547878, -478.56320818001404, -777.4803219884634, 0.01600000075995922, -0.144000006839633, 1.0560000501573086, 0.0, 0.0, 0.0, 0.0, 0.0, 1.7103870834403923E9, 0.0, 2024-03-13 20:31:23.440
43.0, -747.248840696644, -412.2229928160086, -557.7107109422795, -631.854227563832, 0.01600000075995922, -0.144000006839633, 1.0560000501573086, 0.0, 0.0, 0.0, 0.0, 0.0, 1.7103870834403923E9, 0.0, 2024-03-13 20:31:23.440
44.0, -615.4341968083754, -396.07597475731745, -437.19430482015014, -545.7972596334293, 0.01600000075995922, -0.144000006839633, 1.0560000501573086, 0.0, 0.0, 0.0, 0.0, 0.0, 1.7103870834561124E9, 0.0, 2024-03-13 20:31:23.456
44.0, -760.7910184361972, -276.49641357408836, -621.0795757914893, -443.3688796469942, 0.01600000075995922, -0.144000006839633, 1.0560000501573086, 0.0, 0.0, 0.0, 0.0, 0.0, 1.7103870834561124E9, 0.0, 2024-03-13 20:31:23.456
45.0, -598.2213072623126, -182.2210154910572, -432.2333275289275, -405.4462940962985, 0.01600000075995922, -0.144000006839633, 1.0560000501573086, 0.0, 0.0, 0.0, 0.0, 0.0, 1.7103870834567597E9, 0.0, 2024-03-13 20:31:23.456
45.0, -537.3039468340576, -351.90027648070827, -362.86005330085754, -523.8664862932637, 0.01600000075995922, -0.144000006839633, 1.0560000501573086, 0.0, 0.0, 0.0, 0.0, 0.0, 1.7103870834567597E9, 0.0, 2024-03-13 20:31:23.456
46.0, -438.14797930885106, -539.3234928101301, -297.68107687309384, -688.2332193958573, 0.01600000075995922, -0.144000006839633, 1.0560000501573086, 0.0, 0.0, 0.0, 0.0, 0.0, 1.7103870834705813E9, 0.0, 2024-03-13 20:31:23.470
46.0, -556.1287332610227, -556.7906955531798, -411.33850647648796, -772.4052777485922, 0.01600000075995922, -0.144000006839633, 1.0560000501573086, 0.0, 0.0, 0.0, 0.0, 0.0, 1.7103870834705813E9, 0.0, 2024-03-13 20:31:23.470
47.0, -400.1131967594847, -658.4486561487429, -217.6584375211969, -857.9330498352647, 0.01600000075995922, -0.144000006839633, 1.0560000501573086, 0.0, 0.0, 0.0, 0.0, 0.0, 1.7103870834860258E9, 0.0, 2024-03-13 20:31:23.486
47.0, -589.4082330167294, -783.6380672655068, -419.2689643325284, -917.0795676345006, 0.01600000075995922, -0.144000006839633, 1.0560000501573086, 0.0, 0.0, 0.0, 0.0, 0.0, 1.7103870834860258E9, 0.0, 2024-03-13 20:31:23.486
48.0, -631.9252856629901, -601.9836466177367, -478.81378147704527, -786.8973900768906, 0.01600000075995922, -0.144000006839633, 1.0560000501573086, 0.0, 0.0, 0.0, 0.0, 0.0, 1.7103870834867394E9, 0.0, 2024-03-13 20:31:23.486
48.0, -743.871711036656, -421.99161150027066, -558.5895874318667, -638.9562975796871, 0.01600000075995922, -0.144000006839633, 1.0560000501573086, 0.0, 0.0, 0.0, 0.0, 0.0, 1.7103870834867394E9, 0.0, 2024-03-13 20:31:23.486
49.0, -629.7729732384905, -420.516220967751, -450.9608765570447, -569.126755557023, 0.01600000075995922, -0.144000006839633, 1.0560000501573086, 0.0, 0.0, 0.0, 0.0, 0.0, 1.7103870835003548E9, 0.0, 2024-03-13 20:31:23.500
49.0, -778.7836771230213, -292.87343548005447, -632.4900105562992, -451.222669553943, 0.01600000075995922, -0.144000006839633, 1.0560000501573086, 0.0, 0.0, 0.0, 0.0, 0.0, 1.7103870835003548E9, 0.0, 2024-03-13 20:31:23.500
50.0, -607.0512110576965, -188.7060020142235, -438.40042255586013, -410.70085353404284, 0.01600000075995922, -0.144000006839633, 1.0560000501573086, 0.0, 0.0, 0.0, 0.0, 0.0, 1.7103870835160604E9, 0.0, 2024-03-13 20:31:23.516
50.0, -560.1734350631014, -358.40022260369733, -374.46122296340764, -536.0847394485027, 0.01600000075995922, -0.144000006839633, 1.0560000501573086, 0.0, 0.0, 0.0, 0.0, 0.0, 1.7103870835160604E9, 0.0, 2024-03-13 20:31:23.516
51.0, -464.5105340965092, -541.9002838796005, -299.7642011484131, -683.9061551471241, 0.01600000075995922, -0.144000006839633, 1.0560000501573086, 0.0, 0.0, 0.0, 0.0, 0.0, 1.7103870835167656E9, 0.0, 2024-03-13 20:31:23.516
51.0, -572.9582830616273, -553.6790987900458, -406.9890028280206, -767.0235617123544, 0.01600000075995922, -0.144000006839633, 1.0560000501573086, 0.0, 0.0, 0.0, 0.0, 0.0, 1.7103870835167656E9, 0.0, 2024-03-13 20:31:23.516
52.0, -412.14819481689483, -652.9547431138344, -222.9915348580107, -858.6959894262254, 0.0, -0.144000006839633, 1.0560000501573086, 0.0, 0.0, 0.0, 0.0, 0.0, 1.7103870835303144E9, 0.0, 2024-03-13 20:31:23.530
52.0, -590.7246778011322, -769.8004374294542, -425.67167305666953, -915.6584056513384, 0.0, -0.144000006839633, 1.0560000501573086, 0.0, 0.0, 0.0, 0.0, 0.0, 1.7103870835303144E9, 0.0, 2024-03-13 20:31:23.530
53.0, -633.4249855452217, -591.0070402477868, -481.56260794447735, -784.12986410968, 0.0, -0.144000006839633, 1.0560000501573086, 0.0, 0.0, 0.0, 0.0, 0.0, 1.7103870835460377E9, 0.0, 2024-03-13 20:31:23.546
53.0, -753.6552893207408, -415.51410477701575, -560.9457244039513, -639.7080174707808, 0.0, -0.144000006839633, 1.0560000501573086, 0.0, 0.0, 0.0, 0.0, 0.0, 1.7103870835460377E9, 0.0, 2024-03-13 20:31:23.546
54.0, -637.6679020449519, -409.7004302958958, -447.44911049865186, -564.2910649143159, 0.0, -0.144000006839633, 1.0560000501573086, 0.0, 0.0, 0.0, 0.0, 0.0, 1.7103870835467267E9, 0.0, 2024-03-13 20:31:23.546
54.0, -784.4645851557143, -294.6685874587856, -634.3599605341442, -457.19902968313545, 0.0, -0.144000006839633, 1.0560000501573086, 0.0, 0.0, 0.0, 0.0, 0.0, 1.7103870835467267E9, 0.0, 2024-03-13 20:31:23.546
55.0, -618.5289640217088, -191.8512578769587, -441.224047022406, -416.7931505618617, 0.0, -0.144000006839633, 1.0560000501573086, 0.0, 0.0, 0.0, 0.0, 0.0, 1.7103870835603256E9, 0.0, 2024-03-13 20:31:23.560
55.0, -557.802338491194, -362.1476023592986, -367.8416000418365, -541.3467786861584, 0.0, -0.144000006839633, 1.0560000501573086, 0.0, 0.0, 0.0, 0.0, 0.0, 1.7103870835603256E9, 0.0, 2024-03-13 20:31:23.560
56.0, -449.6893105721101, -549.1556897936389, -308.1901957485825, -698.6750200721435, 0.0, -0.144000006839633, 1.0560000501573086, 0.0, 0.0, 0.0, 0.0, 0.0, 1.7103870835760362E9, 0.0, 2024-03-13 20:31:23.576
56.0, -560.0593681144528, -559.0234158267267, -410.59052648535, -773.5609068349004, 0.0, -0.144000006839633, 1.0560000501573086, 0.0, 0.0, 0.0, 0.0, 0.0, 1.7103870835760362E9, 0.0, 2024-03-13 20:31:23.576
57.0, -404.234566510655, -655.5726730828173, -220.4371831882745, -864.0403064629063, 0.0, -0.144000006839633, 1.0560000501573086, 0.0, 0.0, 0.0, 0.0, 0.0, 1.7103870835767646E9, 0.0, 2024-03-13 20:31:23.576
57.0, -584.7258782722056, -776.9361665449105, -424.1981524741277, -928.0786134041846, 0.0, -0.144000006839633, 1.0560000501573086, 0.0, 0.0, 0.0, 0.0, 0.0, 1.7103870835767646E9, 0.0, 2024-03-13 20:31:23.576
58.0, -623.7835234594531, -582.8989371438511, -473.9743509343825, -777.4317032890394, 0.0, -0.144000006839633, 1.0560000501573086, 0.0, 0.0, 0.0, 0.0, 0.0, 1.7103870835907109E9, 0.0, 2024-03-13 20:31:23.590
58.0, -735.225062339101, -405.03116520121694, -554.677652078215, -629.610287590418, 0.0, -0.144000006839633, 1.0560000501573086, 0.0, 0.0, 0.0, 0.0, 0.0, 1.7103870835907109E9, 0.0, 2024-03-13 20:31:23.590
59.0, -630.7715265266597, -408.8907419554889, -446.34957991167903, -566.8865554835647, 0.0, -0.144000006839633, 1.0560000501573086, 0.0, 0.0, 0.0, 0.0, 0.0, 1.7103870836063545E9, 0.0, 2024-03-13 20:31:23.606
59.0, -782.4973977790214, -281.4012923659757, -626.1097412318923, -446.66747140791267, 0.0, -0.144000006839633, 1.0560000501573086, 0.0, 0.0, 0.0, 0.0, 0.0, 1.7103870836063545E9, 0.0, 2024-03-13 20:31:23.606
60.0, -612.7994372895919, -181.39636755082756, -433.4188758148812, -401.94948763772845, 0.0, -0.144000006839633, 1.0560000501573086, 0.0, 0.0, 0.0, 0.0, 0.0, 1.7103870836068501E9, 0.0, 2024-03-13 20:31:23.606
60.0, -551.8259783620015, -347.7246781801805, -364.5093491813168, -526.491896062158, 0.0, -0.144000006839633, 1.0560000501573086, 0.0, 0.0, 0.0, 0.0, 0.0, 1.7103870836068501E9, 0.0, 2024-03-13 20:31:23.606
61.0, -461.1072251368314, -535.6415613037534, -307.1392838610336, -687.5675172037445, 0.0, -0.144000006839633, 1.0560000501573086, 0.0, 0.0, 0.0, 0.0, 0.0, 1.710387083620438E9, 0.0, 2024-03-13 20:31:23.620
61.0, -571.3725654804148, -549.6231772881001, -404.56928755668923, -760.299221592024, 0.0, -0.144000006839633, 1.0560000501573086, 0.0, 0.0, 0.0, 0.0, 0.0, 1.710387083620438E9, 0.0, 2024-03-13 20:31:23.620
62.0, -408.25121906306595, -648.1882406203076, -213.34259297233075, -849.0694869402796, 0.01600000075995922, -0.144000006839633, 1.0560000501573086, 0.0, 0.0, 0.0, 0.0, 0.0, 1.7103870836363304E9, 0.0, 2024-03-13 20:31:23.636
62.0, -596.4392449334264, -775.6141119105741, -417.0212844591588, -914.6972513627261, 0.01600000075995922, -0.144000006839633, 1.0560000501573086, 0.0, 0.0, 0.0, 0.0, 0.0, 1.7103870836363304E9, 0.0, 2024-03-13 20:31:23.636
63.0, -645.9985291962512, -594.2738428590819, -477.2879022951238, -776.6575439982116, 0.01600000075995922, -0.144000006839633, 1.0560000501573086, 0.0, 0.0, 0.0, 0.0, 0.0, 1.7103870836370215E9, 0.0, 2024-03-13 20:31:23.637
63.0, -735.6401912341826, -406.4317577346228, -554.7898490768857, -625.0176904448308, 0.01600000075995922, -0.144000006839633, 1.0560000501573086, 0.0, 0.0, 0.0, 0.0, 0.0, 1.7103870836370215E9, 0.0, 2024-03-13 20:31:23.637
64.0, -618.0409070774913, -412.5539739620872, -446.2448627129197, -560.6633619572967, 0.01600000075995922, -0.144000006839633, 1.0560000501573086, 0.0, 0.0, 0.0, 0.0, 0.0, 1.71038708365034E9, 0.0, 2024-03-13 20:31:23.650
64.0, -771.9994986033998, -286.9718733499758, -622.6465938729234, -439.19141139648855, 0.01600000075995922, -0.144000006839633, 1.0560000501573086, 0.0, 0.0, 0.0, 0.0, 0.0, 1.71038708365034E9, 0.0, 2024-03-13 20:31:23.650
65.0, -608.6444084388204, -178.9897419293411, -428.886117068585, -400.6704418528825, 0.01600000075995922, -0.144000006839633, 1.0560000501573086, 0.0, 0.0, 0.0, 0.0, 0.0, 1.7103870836665719E9, 0.0, 2024-03-13 20:31:23.666
65.0, -567.6607147743925, -349.61145770782605, -364.217636984773, -521.6936044190079, 0.01600000075995922, -0.144000006839633, 1.0560000501573086, 0.0, 0.0, 0.0, 0.0, 0.0, 1.7103870836665719E9, 0.0, 2024-03-13 20:31:23.666
66.0, -474.4885871782899, -539.6787833059207, -302.61400491464883, -682.6420689621009, 0.01600000075995922, -0.144000006839633, 1.0560000501573086, 0.0, 0.0, 0.0, 0.0, 0.0, 1.7103870836669488E9, 0.0, 2024-03-13 20:31:23.666
66.0, -574.7908340399154, -545.7018921845593, -400.3132814071141, -755.2204374521971, 0.01600000075995922, -0.144000006839633, 1.0560000501573086, 0.0, 0.0, 0.0, 0.0, 0.0, 1.7103870836669488E9, 0.0, 2024-03-13 20:31:23.666
67.0, -406.5196453835815, -658.471095548477, -215.51547484658659, -855.3973976653069, 0.01600000075995922, -0.144000006839633, 1.0560000501573086, 0.0, 0.0, 0.0, 0.0, 0.0, 1.7103870836815157E9, 0.0, 2024-03-13 20:31:23.681
67.0, -600.8298874814063, -788.0249699135311, -430.22313130274415, -930.1729573793709, 0.01600000075995922, -0.144000006839633, 1.0560000501573086, 0.0, 0.0, 0.0, 0.0, 0.0, 1.7103870836815157E9, 0.0, 2024-03-13 20:31:23.681
68.0, -640.2316034645773, -586.5528194005601, -472.41107275290415, -772.165924151428, 0.01600000075995922, -0.144000006839633, 1.0560000501573086, 0.0, 0.0, 0.0, 0.0, 0.0, 1.7103870836960845E9, 0.0, 2024-03-13 20:31:23.696
68.0, -741.2163820681162, -401.3324041450396, -548.2899029538967, -615.9372133524157, 0.01600000075995922, -0.144000006839633, 1.0560000501573086, 0.0, 0.0, 0.0, 0.0, 0.0, 1.7103870836960845E9, 0.0, 2024-03-13 20:31:23.696
69.0, -639.50045302324, -404.1597685115412, -441.26331597194076, -554.6645624283701, 0.01600000075995922, -0.144000006839633, 1.0560000501573086, 0.0, 0.0, 0.0, 0.0, 0.0, 1.7103870836968026E9, 0.0, 2024-03-13 20:31:23.696
69.0, -751.1944351498969, -274.14962635189295, -622.9420459694229, -438.8398608006537, 0.01600000075995922, -0.144000006839633, 1.0560000501573086, 0.0, 0.0, 0.0, 0.0, 0.0, 1.7103870836968026E9, 0.0, 2024-03-13 20:31:23.696
70.0, -604.7511725849472, -171.32481697015464, -429.69019555905834, -395.24384701717645, 0.01600000075995922, -0.144000006839633, 1.0560000501573086, 0.0, 0.0, 0.0, 0.0, 0.0, 1.710387083710313E9, 0.0, 2024-03-13 20:31:23.710
70.0, -531.5445009022951, -348.2333045741543, -368.71673663146794, -528.2234697416425, 0.01600000075995922, -0.144000006839633, 1.0560000501573086, 0.0, 0.0, 0.0, 0.0, 0.0, 1.710387083710313E9, 0.0, 2024-03-13 20:31:23.710
71.0, -455.5198146030307, -542.0031311283819, -305.08233888540417, -689.1307953852229, 0.01600000075995922, -0.144000006839633, 1.0560000501573086, 0.0, 0.0, 0.0, 0.0, 0.0, 1.7103870837260869E9, 0.0, 2024-03-13 20:31:23.726
71.0, -562.1050933902152, -549.1444700937718, -402.07851418619975, -757.946824519895, 0.01600000075995922, -0.144000006839633, 1.0560000501573086, 0.0, 0.0, 0.0, 0.0, 0.0, 1.7103870837260869E9, 0.0, 2024-03-13 20:31:23.726
72.0, -402.61144992988557, -649.811357201077, -212.37769878376275, -855.1505642682314, 0.01600000075995922, -0.144000006839633, 1.0560000501573086, 0.0, 0.0, 0.0, 0.0, 0.0, 1.710387083726766E9, 0.0, 2024-03-13 20:31:23.726
72.0, -589.6812457134947, -781.4072169419378, -421.2660709088668, -920.1874244976789, 0.01600000075995922, -0.144000006839633, 1.0560000501573086, 0.0, 0.0, 0.0, 0.0, 0.0, 1.710387083726766E9, 0.0, 2024-03-13 20:31:23.726
73.0, -625.2981829415075, -591.3716804934666, -472.7663632486947, -773.6805836334825, 0.01600000075995922, -0.144000006839633, 1.0560000501573086, 0.0, 0.0, 0.0, 0.0, 0.0, 1.71038708374033E9, 0.0, 2024-03-13 20:31:23.740
73.0, -735.6925498335622, -401.51752919284627, -548.6003146502189, -621.0047777923755, 0.01600000075995922, -0.144000006839633, 1.0560000501573086, 0.0, 0.0, 0.0, 0.0, 0.0, 1.71038708374033E9, 0.0, 2024-03-13 20:31:23.740
74.0, -620.6363976467401, -400.5694645540789, -438.7725426014513, -556.5681715058163, 0.01600000075995922, -0.144000006839633, 1.0560000501573086, 0.0, 0.0, 0.0, 0.0, 0.0, 1.7103870837563908E9, 0.0, 2024-03-13 20:31:23.756
74.0, -799.7271168748848, -280.1334662809968, -626.1994988308288, -444.9620770281181, 0.01600000075995922, -0.144000006839633, 1.0560000501573086, 0.0, 0.0, 0.0, 0.0, 0.0, 1.7103870837563908E9, 0.0, 2024-03-13 20:31:23.756
75.0, -619.2919036126696, -176.29140411131084, -429.5630389605649, -396.86696359794587, 0.01600000075995922, -0.144000006839633, 1.0560000501573086, 0.0, 0.0, 0.0, 0.0, 0.0, 1.7103870837569387E9, 0.0, 2024-03-13 20:31:23.756
75.0, -570.3646624423563, -350.78017644397914, -362.85257350094616, -526.5255551617593, 0.01600000075995922, -0.144000006839633, 1.0560000501573086, 0.0, 0.0, 0.0, 0.0, 0.0, 1.7103870837569387E9, 0.0, 2024-03-13 20:31:23.756
76.0, -461.8514652280137, -549.1949587431736, -296.4693492874503, -688.8166437889449, 0.01600000075995922, -0.144000006839633, 1.0560000501573086, 0.0, 0.0, 0.0, 0.0, 0.0, 1.710387083770656E9, 0.0, 2024-03-13 20:31:23.770
76.0, -567.1352588306181, -555.4574212189764, -402.45624408172444, -756.5817610360682, 0.01600000075995922, -0.144000006839633, 1.0560000501573086, 0.0, 0.0, 0.0, 0.0, 0.0, 1.710387083770656E9, 0.0, 2024-03-13 20:31:23.770
77.0, -424.4936045706272, -646.3669093418866, -210.0627007111907, -846.7395292678848, 0.01600000075995922, -0.144000006839633, 1.0560000501573086, 0.0, 0.0, 0.0, 0.0, 0.0, 1.710387083786569E9, 0.0, 2024-03-13 20:31:23.786
77.0, -608.975389584899, -780.909810247831, -418.4910651417449, -916.0510951466858, 0.01600000075995922, -0.144000006839633, 1.0560000501573086, 0.0, 0.0, 0.0, 0.0, 0.0, 1.710387083786569E9, 0.0, 2024-03-13 20:31:23.786
78.0, -647.8684791740961, -580.2305185254663, -471.6855321615003, -767.8575594024733, 0.01600000075995922, -0.144000006839633, 1.0560000501573086, 0.0, 0.0, 0.0, 0.0, 0.0, 1.7103870837870016E9, 0.0, 2024-03-13 20:31:23.787
78.0, -747.7125882911496, -401.45769079355523, -547.7663169601001, -615.2116727610119, 0.01600000075995922, -0.144000006839633, 1.0560000501573086, 0.0, 0.0, 0.0, 0.0, 0.0, 1.7103870837870016E9, 0.0, 2024-03-13 20:31:23.787
79.0, -640.2633926142007, -407.8080409183167, -441.74576306622475, -559.586270770058, 0.01600000075995922, -0.144000006839633, 1.0560000501573086, 0.0, 0.0, 0.0, 0.0, 0.0, 1.7103870838002927E9, 0.0, 2024-03-13 20:31:23.800
79.0, -755.2559665017761, -283.92011498613283, -626.5323499268852, -448.4401839869097, 0.01600000075995922, -0.144000006839633, 1.0560000501573086, 0.0, 0.0, 0.0, 0.0, 0.0, 1.7103870838002927E9, 0.0, 2024-03-13 20:31:23.800
80.0, -617.1788601377048, -174.71503627998754, -430.69248874718323, -395.4009228153154, 0.01600000075995922, -0.144000006839633, 1.0560000501573086, 0.0, 0.0, 0.0, 0.0, 0.0, 1.7103870838171945E9, 0.0, 2024-03-13 20:31:23.817
80.0, -562.0658244406804, -345.9613153510727, -359.8382141366601, -524.6668248837814, 0.01600000075995922, -0.144000006839633, 1.0560000501573086, 0.0, 0.0, 0.0, 0.0, 0.0, 1.7103870838171945E9, 0.0, 2024-03-13 20:31:23.817
81.0, -476.6801685523242, -543.4448625613004, -293.6195455212146, -682.7280866610818, 0.01600000075995922, -0.144000006839633, 1.0560000501573086, 0.0, 0.0, 0.0, 0.0, 0.0, 1.7103870838172705E9, 0.0, 2024-03-13 20:31:23.817
81.0, -578.2726808986627, -535.7930272519588, -393.162592691835, -743.6117879897356, 0.01600000075995922, -0.144000006839633, 1.0560000501573086, 0.0, 0.0, 0.0, 0.0, 0.0, 1.7103870838172705E9, 0.0, 2024-03-13 20:31:23.817
82.0, -411.8639624202624, -636.6282098572701, -203.14762569312006, -836.6791983870789, 0.01600000075995922, -0.144000006839633, 1.0560000501573086, 0.0, 0.0, 0.0, 0.0, 0.0, 1.710387083830288E9, 0.0, 2024-03-13 20:31:23.830
82.0, -590.0477559091523, -770.3483327729627, -415.8955745724961, -911.4697177009657, 0.01600000075995922, -0.144000006839633, 1.0560000501573086, 0.0, 0.0, 0.0, 0.0, 0.0, 1.710387083830288E9, 0.0, 2024-03-13 20:31:23.830
83.0, -636.158852412831, -575.6678405795246, -472.81872184807435, -767.3526729084551, 0.01600000075995922, -0.144000006839633, 1.0560000501573086, 0.0, 0.0, 0.0, 0.0, 0.0, 1.710387083846099E9, 0.0, 2024-03-13 20:31:23.846
83.0, -725.7369361515157, -384.17561309831217, -538.6035620686598, -606.9016150594689, 0.01600000075995922, -0.144000006839633, 1.0560000501573086, 0.0, 0.0, 0.0, 0.0, 0.0, 1.710387083846099E9, 0.0, 2024-03-13 20:31:23.846
84.0, -631.9645546125248, -392.81104209600016, -432.8709804713726, -548.5947048002854, 0.01600000075995922, -0.144000006839633, 1.0560000501573086, 0.0, 0.0, 0.0, 0.0, 0.0, 1.710387083846796E9, 0.0, 2024-03-13 20:31:23.846
84.0, -785.6763127413578, -272.54333932092413, -614.6058089681901, -435.8741201357916, 0.01600000075995922, -0.144000006839633, 1.0560000501573086, 0.0, 0.0, 0.0, 0.0, 0.0, 1.710387083846796E9, 0.0, 2024-03-13 20:31:23.846
85.0, -576.5710264188237, -160.40991894947365, -414.78295433567837, -380.209449195303, 0.01600000075995922, -0.144000006839633, 1.0560000501573086, 0.0, 0.0, 0.0, 0.0, 0.0, 1.7103870838602996E9, 0.0, 2024-03-13 20:31:23.860
85.0, -545.4681484373286, -341.05830650916323, -354.460238000378, -515.9341584872454, 0.01600000075995922, -0.144000006839633, 1.0560000501573086, 0.0, 0.0, 0.0, 0.0, 0.0, 1.7103870838602996E9, 0.0, 2024-03-13 20:31:23.860
86.0, -472.54009930137545, -542.8240391686559, -302.49058821611106, -689.7852778774686, 0.01600000075995922, -0.144000006839633, 1.0560000501573086, 0.0, 0.0, 0.0, 0.0, 0.0, 1.7103870838761024E9, 0.0, 2024-03-13 20:31:23.876
86.0, -581.1785831642337, -534.6673173652962, -398.1254399330355, -748.3839003331959, 0.01600000075995922, -0.144000006839633, 1.0560000501573086, 0.0, 0.0, 0.0, 0.0, 0.0, 1.7103870838761024E9, 0.0, 2024-03-13 20:31:23.876
87.0, -409.7957977447659, -637.5145661467686, -210.15993811003864, -844.6040463931859, 0.01600000075995922, -0.144000006839633, 1.0560000501573086, 0.0, 0.0, 0.0, 0.0, 0.0, 1.7103870838769066E9, 0.0, 2024-03-13 20:31:23.876
87.0, -599.8350740931928, -780.0683327578008, -421.3446088079363, -922.6781978681684, 0.01600000075995922, -0.144000006839633, 1.0560000501573086, 0.0, 0.0, 0.0, 0.0, 0.0, 1.7103870838769066E9, 0.0, 2024-03-13 20:31:23.876
88.0, -627.572042114567, -573.0611303104088, -473.1253936444409, -769.1291253874078, 0.01600000075995922, -0.144000006839633, 1.0560000501573086, 0.0, 0.0, 0.0, 0.0, 0.0, 1.7103870838903613E9, 0.0, 2024-03-13 20:31:23.890
88.0, -724.6336656645872, -380.14774084603414, -537.021584387403, -602.35389671335, 0.01600000075995922, -0.144000006839633, 1.0560000501573086, 0.0, 0.0, 0.0, 0.0, 0.0, 1.7103870838903613E9, 0.0, 2024-03-13 20:31:23.890
89.0, -605.826393822208, -378.2086027190089, -427.66877963300794, -543.2279483638704, 0.01600000075995922, -0.144000006839633, 1.0560000501573086, 0.0, 0.0, 0.0, 0.0, 0.0, 1.7103870839060833E9, 0.0, 2024-03-13 20:31:23.906
89.0, -750.2033616616391, -266.3481950443238, -615.234112160746, -434.2061247555539, 0.01600000075995922, -0.144000006839633, 1.0560000501573086, 0.0, 0.0, 0.0, 0.0, 0.0, 1.7103870839060833E9, 0.0, 2024-03-13 20:31:23.906
90.0, -581.9303030553274, -156.45123484637588, -417.68511670129374, -379.30813330598176, 0.01600000075995922, -0.144000006839633, 1.0560000501573086, 0.0, 0.0, 0.0, 0.0, 0.0, 1.7103870839072254E9, 0.0, 2024-03-13 20:31:23.907
90.0, -540.531480495818, -332.7912576571107, -351.1766058392823, -517.8976059639826, 0.01600000075995922, -0.144000006839633, 1.0560000501573086, 0.0, 0.0, 0.0, 0.0, 0.0, 1.7103870839072254E9, 0.0, 2024-03-13 20:31:23.907
91.0, -460.0376137495041, -547.007117269095, -303.552719803527, -693.1025691381656, 0.01600000075995922, -0.12800000607967377, 1.0560000501573086, 0.0, 0.0, 0.0, 0.0, 0.0, 1.7103870839203284E9, 0.0, 2024-03-13 20:31:23.920
91.0, -548.2599837542512, -534.8487025131471, -395.7693029609509, -750.0705952132121, 0.01600000075995922, -0.12800000607967377, 1.0560000501573086, 0.0, 0.0, 0.0, 0.0, 0.0, 1.7103870839203284E9, 0.0, 2024-03-13 20:31:23.920
92.0, -381.8587450757623, -638.0026230909862, -205.78799506183714, -842.5059625180438, 0.01600000075995922, -0.12800000607967377, 1.0560000501573086, 0.0, 0.0, 0.0, 0.0, 0.0, 1.7103870839364653E9, 0.0, 2024-03-13 20:31:23.936
92.0, -582.9382060933858, -774.8605220695026, -414.9381601838395, -918.2164972210303, 0.01600000075995922, -0.12800000607967377, 1.0560000501573086, 0.0, 0.0, 0.0, 0.0, 0.0, 1.7103870839364653E9, 0.0, 2024-03-13 20:31:23.936
93.0, -637.8006684933789, -584.9970210189931, -475.9751974106766, -773.6095255343243, 0.01600000075995922, -0.12800000607967377, 1.0560000501573086, 0.0, 0.0, 0.0, 0.0, 0.0, 1.7103870839368875E9, 0.0, 2024-03-13 20:31:23.936
93.0, -743.2359280441888, -390.3034391757101, -537.1337813860737, -611.7634850018658, 0.01600000075995922, -0.12800000607967377, 1.0560000501573086, 0.0, 0.0, 0.0, 0.0, 0.0, 1.7103870839368875E9, 0.0, 2024-03-13 20:31:23.936
94.0, -629.4027231428772, -401.5231390427798, -440.56769458018243, -558.3184446850792, 0.01600000075995922, -0.12800000607967377, 1.0560000501573086, 0.0, 0.0, 0.0, 0.0, 0.0, 1.7103870839506893E9, 0.0, 2024-03-13 20:31:23.950
94.0, -790.5269629838876, -283.2450630441308, -627.3177289175801, -446.3570597115904, 0.01600000075995922, -0.12800000607967377, 1.0560000501573086, 0.0, 0.0, 0.0, 0.0, 0.0, 1.7103870839506893E9, 0.0, 2024-03-13 20:31:23.950
95.0, -592.005593535956, -153.27231988403946, -413.56748685007915, -378.27966081816703, 0.01600000075995922, -0.12800000607967377, 1.0560000501573086, 0.0, 0.0, 0.0, 0.0, 0.0, 1.7103870839662724E9, 0.0, 2024-03-13 20:31:23.966
95.0, -529.7530888235196, -335.5662634242326, -355.8290413841605, -520.7287102304399, 0.01600000075995922, -0.12800000607967377, 1.0560000501573086, 0.0, 0.0, 0.0, 0.0, 0.0, 1.7103870839662724E9, 0.0, 2024-03-13 20:31:23.966
96.0, -464.54045329615474, -537.1936197853647, -306.929849463515, -691.4869323573075, 0.01600000075995922, -0.12800000607967377, 1.0560000501573086, 0.0, 0.0, 0.0, 0.0, 0.0, 1.7103870839668777E9, 0.0, 2024-03-13 20:31:23.966
96.0, -566.4807763383724, -528.072003793437, -398.2077177320607, -745.1788060711697, 0.01600000075995922, -0.12800000607967377, 1.0560000501573086, 0.0, 0.0, 0.0, 0.0, 0.0, 1.7103870839668777E9, 0.0, 2024-03-13 20:31:23.966
97.0, -380.30668659415096, -627.0260167210363, -205.60100006405264, -836.4959432892501, 0.01600000075995922, -0.12800000607967377, 1.0560000501573086, 0.0, 0.0, 0.0, 0.0, 0.0, 1.7103870839803953E9, 0.0, 2024-03-13 20:31:23.980
97.0, -586.5247701508924, -777.7215455356054, -424.3402686724439, -925.5317415343598, 0.01600000075995922, -0.12800000607967377, 1.0560000501573086, 0.0, 0.0, 0.0, 0.0, 0.0, 1.7103870839803953E9, 0.0, 2024-03-13 20:31:23.980
98.0, -626.6819459251128, -582.5212072483264, -478.4285717816092, -774.6641773218289, 0.01600000075995922, -0.12800000607967377, 1.0560000501573086, 0.0, 0.0, 0.0, 0.0, 0.0, 1.7103870839960403E9, 0.0, 2024-03-13 20:31:23.996
98.0, -713.7916956930421, -387.9622618034482, -543.7646240075119, -614.7329655666836, 0.01600000075995922, -0.12800000607967377, 1.0560000501573086, 0.0, 0.0, 0.0, 0.0, 0.0, 1.7103870839960403E9, 0.0, 2024-03-13 20:31:23.996
99.0, -603.6460321480408, -394.1966750295833, -440.3133813831955, -560.4240083601326, 0.01600000075995922, -0.12800000607967377, 1.0560000501573086, 0.0, 0.0, 0.0, 0.0, 0.0, 1.710387083996786E9, 0.0, 2024-03-13 20:31:23.996
99.0, -769.7331192302518, -278.8095416966826, -629.1353202960454, -452.5765133379027, 0.01600000075995922, -0.12800000607967377, 1.0560000501573086, 0.0, 0.0, 0.0, 0.0, 0.0, 1.710387083996786E9, 0.0, 2024-03-13 20:31:23.996
100.0, -592.656336128246, -160.68480159621686, -428.79261956969276, -389.83969158120453, 0.01600000075995922, -0.12800000607967377, 1.0560000501573086, 0.0, 0.0, 0.0, 0.0, 0.0, 1.7103870840110755E9, 0.0, 2024-03-13 20:31:24.011
100.0, -534.7383754644543, -335.2745512276888, -359.5427620401606, -523.6607917957008, 0.01600000075995922, -0.12800000607967377, 1.0560000501573086, 0.0, 0.0, 0.0, 0.0, 0.0, 1.7103870840110755E9, 0.0, 2024-03-13 20:31:24.011
0.0, -472.7532735988498, -57.26908802147955, -317.00700989412144, -210.52270840574056, 0.01600000075995922, -0.12800000607967377, 1.0560000501573086, 0.0, 0.0, 0.0, 0.0, 0.0, 1.710387084011776E9, 0.0, 2024-03-13 20:31:24.011
1.0, -558.4063323340379, -47.728603234514594, -403.83439721539617, -260.71029586112127, 0.01600000075995922, -0.12800000607967377, 1.0560000501573086, 0.0, 0.0, 0.0, 0.0, 0.0, 1.7103870840254083E9, 0.0, 2024-03-13 20:31:24.025
1.0, -380.31790629401803, -143.19328950345516, -210.28522475855425, -351.42904908629134, 0.01600000075995922, -0.12800000607967377, 1.0560000501573086, 0.0, 0.0, 0.0, 0.0, 0.0, 1.7103870840254083E9, 0.0, 2024-03-13 20:31:24.025
2.0, -585.1971056666225, -301.11804493237287, -428.7365210703574, -444.50393928354606, 0.01600000075995922, -0.12800000607967377, 1.0560000501573086, 0.0, 0.0, 0.0, 0.0, 0.0, 1.7103870840410323E9, 0.0, 2024-03-13 20:31:24.041
2.0, -626.3042160295881, -100.96981900371611, -487.29026472661644, -293.84206956857815, 0.01600000075995922, -0.12800000607967377, 1.0560000501573086, 0.0, 0.0, 0.0, 0.0, 0.0, 1.7103870840410323E9, 0.0, 2024-03-13 20:31:24.041
3.0, -712.6435464066453, 102.17219683947042, -544.2526809517294, -121.95813755504787, 0.01600000075995922, -0.12800000607967377, 1.0560000501573086, 0.0, 0.0, 0.0, 0.0, 0.0, 1.710387084041757E9, 0.0, 2024-03-13 20:31:24.041
3.0, -605.5085023259744, 94.29222763283178, -440.5284256306477, -69.7173450239934, 0.01600000075995922, -0.12800000607967377, 1.0560000501573086, 0.0, 0.0, 0.0, 0.0, 0.0, 1.710387084041757E9, 0.0, 2024-03-13 20:31:24.041
4.0, -768.7869245414622, 203.23551334207878, -635.2781059732661, 37.50932660559192, 0.01600000075995922, -0.12800000607967377, 1.0560000501573086, 0.0, 0.0, 0.0, 0.0, 0.0, 1.710387084055421E9, 0.0, 2024-03-13 20:31:24.055
4.0, -594.8329579024576, 322.6916578267701, -432.0856014806777, 96.62966510513797, 0.01600000075995922, -0.12800000607967377, 1.0560000501573086, 0.0, 0.0, 0.0, 0.0, 0.0, 1.710387084055421E9, 0.0, 2024-03-13 20:31:24.055
5.0, -530.3065940169618, 155.4283722084947, -355.823431534227, -27.796806420665234, 0.01600000075995922, -0.12800000607967377, 1.0560000501573086, 0.0, 0.0, 0.0, 0.0, 0.0, 1.7103870840712676E9, 0.0, 2024-03-13 20:31:24.071
5.0, -453.34319282881916, -63.817652843892574, -306.7297648158856, -209.59521321672946, 0.01600000075995922, -0.12800000607967377, 1.0560000501573086, 0.0, 0.0, 0.0, 0.0, 0.0, 1.7103870840712676E9, 0.0, 2024-03-13 20:31:24.071
6.0, -566.3797990395688, -50.58214690070599, -407.9819462662563, -259.00864138128236, 0.01600000075995922, -0.12800000607967377, 1.0560000501573086, 0.0, 0.0, 0.0, 0.0, 0.0, 1.710387084072055E9, 0.0, 2024-03-13 20:31:24.072
6.0, -402.5179524309933, -145.71772197354585, -208.23575958283618, -348.1790760247968, 0.01600000075995922, -0.12800000607967377, 1.0560000501573086, 0.0, 0.0, 0.0, 0.0, 0.0, 1.710387084072055E9, 0.0, 2024-03-13 20:31:24.072
7.0, -590.2197913071141, -293.70930312015116, -423.76245412928984, -437.1924348701723, 0.01600000075995922, -0.12800000607967377, 1.0560000501573086, 0.0, 0.0, 0.0, 0.0, 0.0, 1.7103870840857086E9, 0.0, 2024-03-13 20:31:24.085
7.0, -623.0804222677834, -93.51245849207044, -478.6697953287512, -282.5251323026605, 0.01600000075995922, -0.12800000607967377, 1.0560000501573086, 0.0, 0.0, 0.0, 0.0, 0.0, 1.7103870840857086E9, 0.0, 2024-03-13 20:31:24.085
8.0, -728.9495102134533, 105.23517490318045, -540.639937594533, -110.32704869285226, 0.01600000075995922, -0.12800000607967377, 1.0560000501573086, 0.0, 0.0, 0.0, 0.0, 0.0, 1.7103870841009967E9, 0.0, 2024-03-13 20:31:24.100
8.0, -639.2124807266518, 83.5026162606664, -441.4858400193043, -70.30076941708103, 0.01600000075995922, -0.12800000607967377, 1.0560000501573086, 0.0, 0.0, 0.0, 0.0, 0.0, 1.7103870841009967E9, 0.0, 2024-03-13 20:31:24.100
9.0, -794.6707721347921, 185.52334715193138, -642.4624537881464, 26.932889530900866, 0.01600000075995922, -0.12800000607967377, 1.0560000501573086, 0.0, 0.0, 0.0, 0.0, 0.0, 1.7103870841017227E9, 0.0, 2024-03-13 20:31:24.101
9.0, -599.6536889453419, 312.1301803519018, -434.1425464563072, 91.27412836859003, 0.01600000075995922, -0.12800000607967377, 1.0560000501573086, 0.0, 0.0, 0.0, 0.0, 0.0, 1.7103870841017227E9, 0.0, 2024-03-13 20:31:24.101
10.0, -541.0849856892601, 136.51195823261514, -368.43811408476904, -44.44310112344101, 0.01600000075995922, -0.12800000607967377, 1.0560000501573086, 0.0, 0.0, 0.0, 0.0, 0.0, 1.7103870841153955E9, 0.0, 2024-03-13 20:31:24.115
10.0, -467.322938863188, -76.05086559895426, -314.4227390247397, -222.49038826394826, 0.01600000075995922, -0.12800000607967377, 1.0560000501573086, 0.0, 0.0, 0.0, 0.0, 0.0, 1.7103870841153955E9, 0.0, 2024-03-13 20:31:24.115
11.0, -559.6031003198586, -57.50470171868801, -402.7909651277587, -266.49592109257355, 0.01600000075995922, -0.144000006839633, 1.0560000501573086, 0.0, 0.0, 0.0, 0.0, 0.0, 1.7103870841310444E9, 0.0, 2024-03-13 20:31:24.131
11.0, -396.7061478998512, -151.85863770078868, -206.83703699940816, -354.42470895079896, 0.01600000075995922, -0.144000006839633, 1.0560000501573086, 0.0, 0.0, 0.0, 0.0, 0.0, 1.7103870841310444E9, 0.0, 2024-03-13 20:31:24.131
12.0, -612.9583830377087, -306.72789486590773, -429.19652876490727, -448.25131903914735, 0.01600000075995922, -0.144000006839633, 1.0560000501573086, 0.0, 0.0, 0.0, 0.0, 0.0, 1.7103870841317458E9, 0.0, 2024-03-13 20:31:24.131
12.0, -651.5074018309824, -100.5285108089447, -481.1867479989305, -286.16779485950246, 0.01600000075995922, -0.144000006839633, 1.0560000501573086, 0.0, 0.0, 0.0, 0.0, 0.0, 1.7103870841317458E9, 0.0, 2024-03-13 20:31:24.131
13.0, -694.5349508211948, 112.51302021695301, -540.8119729924947, -114.32500174548477, 0.01600000075995922, -0.144000006839633, 1.0560000501573086, 0.0, 0.0, 0.0, 0.0, 0.0, 1.710387084145513E9, 0.0, 2024-03-13 20:31:24.145
13.0, -607.3522730041295, 93.61156584089622, -444.72833328088745, -70.99265090888366, 0.01600000075995922, -0.144000006839633, 1.0560000501573086, 0.0, 0.0, 0.0, 0.0, 0.0, 1.710387084145513E9, 0.0, 2024-03-13 20:31:24.145
14.0, -800.8565666615032, 193.3659173590131, -639.018005928956, 30.44465558929369, 0.01600000075995922, -0.144000006839633, 1.0560000501573086, 0.0, 0.0, 0.0, 0.0, 0.0, 1.7103870841610088E9, 0.0, 2024-03-13 20:31:24.161
14.0, -613.7418920784257, 319.2472099675797, -429.1385603155941, 100.67623685719445, 0.01600000075995922, -0.144000006839633, 1.0560000501573086, 0.0, 0.0, 0.0, 0.0, 0.0, 1.7103870841610088E9, 0.0, 2024-03-13 20:31:24.161
15.0, -543.3401453625411, 140.29673698777333, -364.3354438333772, -38.55275869322941, 0.01600000075995922, -0.144000006839633, 1.0560000501573086, 0.0, 0.0, 0.0, 0.0, 0.0, 1.7103870841617093E9, 0.0, 2024-03-13 20:31:24.161
15.0, -462.2890335228294, -76.37623689509928, -321.3939125421457, -227.2550208074972, 0.01600000075995922, -0.144000006839633, 1.0560000501573086, 0.0, 0.0, 0.0, 0.0, 0.0, 1.7103870841617093E9, 0.0, 2024-03-13 20:31:24.161
16.0, -562.6660783835687, -59.08667939994484, -408.92440105509013, -271.6270638317801, 0.01600000075995922, -0.144000006839633, 1.0560000501573086, 0.0, 0.0, 0.0, 0.0, 0.0, 1.7103870841755683E9, 0.0, 2024-03-13 20:31:24.175
16.0, -391.84053805749863, -139.950796241872, -199.7013078839518, -345.05251966184005, 0.01600000075995922, -0.144000006839633, 1.0560000501573086, 0.0, 0.0, 0.0, 0.0, 0.0, 1.7103870841755683E9, 0.0, 2024-03-13 20:31:24.175
17.0, -594.501976756379, -304.783146888949, -420.39280426921323, -442.3011382096447, 0.01600000075995922, -0.144000006839633, 1.0560000501573086, 0.0, 0.0, 0.0, 0.0, 0.0, 1.7103870841911762E9, 0.0, 2024-03-13 20:31:24.191
17.0, -632.5760282552801, -102.15536728966981, -473.59475108888, -288.2583989347331, 0.01600000075995922, -0.144000006839633, 1.0560000501573086, 0.0, 0.0, 0.0, 0.0, 0.0, 1.7103870841911762E9, 0.0, 2024-03-13 20:31:24.191
18.0, -719.027555631008, 110.5159136406146, -529.2594220293686, -105.66339344810694, 0.01600000075995922, -0.144000006839633, 1.0560000501573086, 0.0, 0.0, 0.0, 0.0, 0.0, 1.7103870841917825E9, 0.0, 2024-03-13 20:31:24.191
18.0, -616.5898258946836, 85.82509413314983, -439.72060724021867, -66.57582906121388, 0.01600000075995922, -0.144000006839633, 1.0560000501573086, 0.0, 0.0, 0.0, 0.0, 0.0, 1.7103870841917825E9, 0.0, 2024-03-13 20:31:24.191
19.0, -792.1725189643912, 187.1763829323463, -635.906409165822, 29.689195798244327, 0.01600000075995922, -0.144000006839633, 1.0560000501573086, 0.0, 0.0, 0.0, 0.0, 0.0, 1.7103870842056577E9, 0.0, 2024-03-13 20:31:24.205
19.0, -602.9373211064376, 330.2462557372637, -417.48129215370864, 109.59589825151488, 0.01600000075995922, -0.144000006839633, 1.0560000501573086, 0.0, 0.0, 0.0, 0.0, 0.0, 1.7103870842056577E9, 0.0, 2024-03-13 20:31:24.205
20.0, -548.202015304938, 156.03797590127215, -347.9696416272782, -26.248487839009613, 0.01600000075995922, -0.144000006839633, 1.0560000501573086, 0.0, 0.0, 0.0, 0.0, 0.0, 1.7103870842210448E9, 0.0, 2024-03-13 20:31:24.221
20.0, -480.73048020433635, -81.76543273124844, -315.9860172062181, -224.90636363532394, 0.01600000075995922, -0.144000006839633, 1.0560000501573086, 0.0, 0.0, 0.0, 0.0, 0.0, 1.7103870842210448E9, 0.0, 2024-03-13 20:31:24.221
21.0, -576.5635466189124, -69.68929577432573, -410.43532063718885, -272.1169907259755, 0.01600000075995922, -0.12800000607967377, 1.0560000501573086, 0.0, 0.0, 0.0, 0.0, 0.0, 1.7103870842217464E9, 0.0, 2024-03-13 20:31:24.221
21.0, -400.47222715523094, -157.83499782998115, -212.7086799298413, -358.84527069842443, 0.01600000075995922, -0.12800000607967377, 1.0560000501573086, 0.0, 0.0, 0.0, 0.0, 0.0, 1.7103870842217464E9, 0.0, 2024-03-13 20:31:24.221
22.0, -588.4021999286488, -317.01635964401066, -434.1967750056647, -457.4851320297457, 0.01600000075995922, -0.12800000607967377, 1.0560000501573086, 0.0, 0.0, 0.0, 0.0, 0.0, 1.7103870842358015E9, 0.0, 2024-03-13 20:31:24.235
22.0, -657.2144891633652, -118.04246230144054, -490.1213689930737, -302.2456247690134, 0.01600000075995922, -0.12800000607967377, 1.0560000501573086, 0.0, 0.0, 0.0, 0.0, 0.0, 1.7103870842358015E9, 0.0, 2024-03-13 20:31:24.235
23.0, -721.222876904998, 96.52868780633435, -543.859991456382, -119.26914948690683, 0.01600000075995922, -0.12800000607967377, 1.0560000501573086, 0.0, 0.0, 0.0, 0.0, 0.0, 1.7103870842516425E9, 0.0, 2024-03-13 20:31:24.251
23.0, -625.3150124913082, 74.80734886368737, -440.3376907329075, -76.14997294778004, 0.01600000075995922, -0.12800000607967377, 1.0560000501573086, 0.0, 0.0, 0.0, 0.0, 0.0, 1.7103870842516425E9, 0.0, 2024-03-13 20:31:24.251
24.0, -790.4783442844637, 180.15285081556067, -643.045878181234, 18.095505935605615, 0.01600000075995922, -0.12800000607967377, 1.0560000501573086, 0.0, 0.0, 0.0, 0.0, 0.0, 1.7103870842518551E9, 0.0, 2024-03-13 20:31:24.251
24.0, -618.6000221208669, 311.2737432620488, -432.97195777017623, 90.67948427563533, 0.01600000075995922, -0.12800000607967377, 1.0560000501573086, 0.0, 0.0, 0.0, 0.0, 0.0, 1.7103870842518551E9, 0.0, 2024-03-13 20:31:24.251
25.0, -549.492280789651, 143.6065484485589, -357.5250860140659, -37.804778702091426, 0.01600000075995922, -0.12800000607967377, 1.0560000501573086, 0.0, 0.0, 0.0, 0.0, 0.0, 1.7103870842656405E9, 0.0, 2024-03-13 20:31:24.265
25.0, -480.17323511093855, -83.25391291361302, -318.85452047223225, -227.43453600537032, 0.01600000075995922, -0.12800000607967377, 1.0560000501573086, 0.0, 0.0, 0.0, 0.0, 0.0, 1.7103870842656405E9, 0.0, 2024-03-13 20:31:24.265
26.0, -572.0681868721731, -60.90801067836583, -412.4174676137045, -271.6719426312484, 0.01600000075995922, -0.12800000607967377, 1.0560000501573086, 0.0, 0.0, 0.0, 0.0, 0.0, 1.7103870842810376E9, 0.0, 2024-03-13 20:31:24.281
26.0, -407.29006477445364, -153.82582507748157, -210.25156565895304, -358.46754080289975, 0.01600000075995922, -0.12800000607967377, 1.0560000501573086, 0.0, 0.0, 0.0, 0.0, 0.0, 1.7103870842810376E9, 0.0, 2024-03-13 20:31:24.281
27.0, -601.4544507740065, -317.8952361335978, -438.0750512597151, -458.3041701200418, 0.01600000075995922, -0.12800000607967377, 1.0560000501573086, 0.0, 0.0, 0.0, 0.0, 0.0, 1.710387084281972E9, 0.0, 2024-03-13 20:31:24.281
27.0, -648.328486868646, -118.9101190911606, -487.8886487195268, -300.3831545910798, 0.01600000075995922, -0.12800000607967377, 1.0560000501573086, 0.0, 0.0, 0.0, 0.0, 0.0, 1.710387084281972E9, 0.0, 2024-03-13 20:31:24.281
28.0, -712.8829000038095, 97.57585979392752, -547.188502416946, -119.5758212832734, 0.01600000075995922, -0.12800000607967377, 1.0560000501573086, 0.0, 0.0, 0.0, 0.0, 0.0, 1.7103870842954123E9, 0.0, 2024-03-13 20:31:24.295
28.0, -632.686355303973, 77.17470553563908, -446.2355129630305, -83.16228536469862, 0.01600000075995922, -0.12800000607967377, 1.0560000501573086, 0.0, 0.0, 0.0, 0.0, 0.0, 1.7103870842954123E9, 0.0, 2024-03-13 20:31:24.295
29.0, -803.3847390315495, 176.11001896345988, -646.2846315428615, 13.203716793563217, 0.01600000075995922, -0.12800000607967377, 1.0560000501573086, 0.0, 0.0, 0.0, 0.0, 0.0, 1.7103870843111107E9, 0.0, 2024-03-13 20:31:24.311
29.0, -613.4352202820592, 315.9373985067941, -432.77374307252467, 94.12393213482574, 0.01600000075995922, -0.12800000607967377, 1.0560000501573086, 0.0, 0.0, 0.0, 0.0, 0.0, 1.7103870843111107E9, 0.0, 2024-03-13 20:31:24.311
30.0, -549.7391141867265, 141.28781047603115, -356.45921452669427, -38.664955691900104, 0.01600000075995922, -0.12800000607967377, 1.0560000501573086, 0.0, 0.0, 0.0, 0.0, 0.0, 1.7103870843117068E9, 0.0, 2024-03-13 20:31:24.311
30.0, -477.69368144031614, -87.80911105964333, -322.89361242437735, -234.3309115236625, 0.01600000075995922, -0.12800000607967377, 1.0560000501573086, 0.0, 0.0, 0.0, 0.0, 0.0, 1.7103870843117068E9, 0.0, 2024-03-13 20:31:24.311
31.0, -576.8627386153676, -69.89499027188867, -412.47356611303985, -274.342231199611, 0.01600000075995922, -0.12800000607967377, 1.0560000501573086, 0.0, 0.0, 0.0, 0.0, 0.0, 1.7103870843253703E9, 0.0, 2024-03-13 20:31:24.325
31.0, -402.2187604345381, -152.1503498973325, -210.4497803566046, -355.6700956360437, 0.01600000075995922, -0.12800000607967377, 1.0560000501573086, 0.0, 0.0, 0.0, 0.0, 0.0, 1.7103870843253703E9, 0.0, 2024-03-13 20:31:24.325
32.0, -598.410172210075, -308.0293800504878, -428.56074577244, -454.4221539660357, 0.01600000075995922, -0.12800000607967377, 1.0560000501573086, 0.0, 0.0, 0.0, 0.0, 0.0, 1.7103870843410065E9, 0.0, 2024-03-13 20:31:24.341
32.0, -644.0313418195583, -113.25165045820177, -489.1602147044614, -298.62914151186123, 0.01600000075995922, -0.12800000607967377, 1.0560000501573086, 0.0, 0.0, 0.0, 0.0, 0.0, 1.7103870843410065E9, 0.0, 2024-03-13 20:31:24.341
33.0, -717.4567976496182, 108.32433226658031, -538.6054320186377, -110.40184669196606, 0.01600000075995922, -0.12800000607967377, 1.0560000501573086, 0.0, 0.0, 0.0, 0.0, 0.0, 1.7103870843417249E9, 0.0, 2024-03-13 20:31:24.341
33.0, -624.9859012952074, 78.3901730212383, -446.8638161555864, -77.52251623151824, 0.01600000075995922, -0.12800000607967377, 1.0560000501573086, 0.0, 0.0, 0.0, 0.0, 0.0, 1.7103870843417249E9, 0.0, 2024-03-13 20:31:24.341
34.0, -792.2286174637266, 191.58572498010471, -644.2089870674536, 23.49966137157753, 0.01600000075995922, -0.12800000607967377, 1.0560000501573086, 0.0, 0.0, 0.0, 0.0, 0.0, 1.7103870843556411E9, 0.0, 2024-03-13 20:31:24.355
34.0, -598.8159513552673, 323.48825651733205, -434.15376615617424, 106.44316258886829, 0.01600000075995922, -0.12800000607967377, 1.0560000501573086, 0.0, 0.0, 0.0, 0.0, 0.0, 1.7103870843556411E9, 0.0, 2024-03-13 20:31:24.355
35.0, -542.9586755670607, 149.54550957819447, -356.2535200291313, -31.835898372810334, 0.01600000075995922, -0.12800000607967377, 1.0560000501573086, 0.0, 0.0, 0.0, 0.0, 0.0, 1.7103870843716197E9, 0.0, 2024-03-13 20:31:24.371
35.0, -474.2567133810371, -78.20130807347596, -321.44627114152536, -227.41209660563618, 0.01600000075995922, -0.12800000607967377, 1.0560000501573086, 0.0, 0.0, 0.0, 0.0, 0.0, 1.7103870843716197E9, 0.0, 2024-03-13 20:31:24.371
36.0, -573.1751972590573, -59.51676789484918, -411.1982602281496, -269.6710961549543, 0.01600000075995922, -0.12800000607967377, 1.0560000501573086, 0.0, 0.0, 0.0, 0.0, 0.0, 1.7103870843720484E9, 0.0, 2024-03-13 20:31:24.372
36.0, -401.231426846236, -146.38342416565865, -208.53121167933568, -349.01307371491566, 0.01600000075995922, -0.12800000607967377, 1.0560000501573086, 0.0, 0.0, 0.0, 0.0, 0.0, 1.7103870843720484E9, 0.0, 2024-03-13 20:31:24.372
37.0, -601.4357512742281, -315.5577986612916, -439.8963825381361, -453.65547447511926, 0.01600000075995922, -0.12800000607967377, 1.0560000501573086, 0.0, 0.0, 0.0, 0.0, 0.0, 1.710387084385685E9, 0.0, 2024-03-13 20:31:24.385
37.0, -638.0662013902329, -105.48387825023383, -492.686940362677, -294.6087490594946, 0.01600000075995922, -0.12800000607967377, 1.0560000501573086, 0.0, 0.0, 0.0, 0.0, 0.0, 1.710387084385685E9, 0.0, 2024-03-13 20:31:24.385
38.0, -730.8381596910767, 107.0303268819116, -544.8959437441081, -112.07358197215945, 0.01600000075995922, -0.12800000607967377, 1.0560000501573086, 0.0, 0.0, 0.0, 0.0, 0.0, 1.7103870844013486E9, 0.0, 2024-03-13 20:31:24.401
38.0, -625.8572979848832, 83.3530202624388, -441.70649411669, -74.16782597126439, 0.01600000075995922, -0.12800000607967377, 1.0560000501573086, 0.0, 0.0, 0.0, 0.0, 0.0, 1.7103870844013486E9, 0.0, 2024-03-13 20:31:24.401
39.0, -792.8120418568142, 188.0702190217562, -646.3781290417537, 24.528133859392256, 0.01600000075995922, -0.12800000607967377, 1.0560000501573086, 0.0, 0.0, 0.0, 0.0, 0.0, 1.7103870844018612E9, 0.0, 2024-03-13 20:31:24.401
39.0, -605.1363822803833, 334.8762518824078, -428.5775753222406, 108.78807986108586, 0.01600000075995922, -0.12800000607967377, 1.0560000501573086, 0.0, 0.0, 0.0, 0.0, 0.0, 1.7103870844018612E9, 0.0, 2024-03-13 20:31:24.401
40.0, -555.4910803185776, 151.56505555426702, -362.39817565632984, -35.9236090243794, 0.01600000075995922, -0.12800000607967377, 1.0560000501573086, 0.0, 0.0, 0.0, 0.0, 0.0, 1.710387084415376E9, 0.0, 2024-03-13 20:31:24.415
40.0, -488.88720200769603, -84.84711029473692, -320.0213692584075, -227.5579527039081, 0.01600000075995922, -0.12800000607967377, 1.0560000501573086, 0.0, 0.0, 0.0, 0.0, 0.0, 1.710387084415376E9, 0.0, 2024-03-13 20:31:24.415
41.0, -582.5324269481935, -65.14531732816249, -413.894728096202, -266.1181911970489, 0.01600000075995922, -0.12800000607967377, 1.0560000501573086, 0.0, 0.0, 0.0, 0.0, 0.0, 1.710387084431177E9, 0.0, 2024-03-13 20:31:24.431
41.0, -389.91448958031833, -139.12053845170885, -204.85115012293682, -346.1782295485027, 0.01600000075995922, -0.12800000607967377, 1.0560000501573086, 0.0, 0.0, 0.0, 0.0, 0.0, 1.710387084431177E9, 0.0, 2024-03-13 20:31:24.431
42.0, -591.0014303978533, -309.66745623108, -432.53625942533836, -454.65402776328847, 0.01600000075995922, -0.12800000607967377, 1.0560000501573086, 0.0, 0.0, 0.0, 0.0, 0.0, 1.7103870844320033E9, 0.0, 2024-03-13 20:31:24.432
42.0, -637.8380674929358, -109.63142730109394, -483.0791373765096, -292.3835085858591, 0.01600000075995922, -0.12800000607967377, 1.0560000501573086, 0.0, 0.0, 0.0, 0.0, 0.0, 1.7103870844320033E9, 0.0, 2024-03-13 20:31:24.432
43.0, -718.5899873361923, 118.16026915004477, -536.9262169385329, -105.95136574469507, 0.01600000075995922, -0.12800000607967377, 1.0560000501573086, 0.0, 0.0, 0.0, 0.0, 0.0, 1.7103870844454796E9, 0.0, 2024-03-13 20:31:24.445
43.0, -625.9433156838641, 84.53482864843681, -443.0715576005168, -73.7227778765373, 0.01600000075995922, -0.12800000607967377, 1.0560000501573086, 0.0, 0.0, 0.0, 0.0, 0.0, 1.7103870844454796E9, 0.0, 2024-03-13 20:31:24.445
44.0, -787.146093423944, 185.0296803577803, -639.9417612180114, 24.513174259569496, 0.01600000075995922, -0.12800000607967377, 1.0560000501573086, 0.0, 0.0, 0.0, 0.0, 0.0, 1.710387084461246E9, 0.0, 2024-03-13 20:31:24.461
44.0, -596.7515265797265, 335.3549590767361, -423.6932659801096, 111.62292402749881, 0.01600000075995922, -0.12800000607967377, 1.0560000501573086, 0.0, 0.0, 0.0, 0.0, 0.0, 1.710387084461246E9, 0.0, 2024-03-13 20:31:24.461
45.0, -547.6298106117174, 150.96293166140094, -351.12237728992477, -24.947002654429525, 0.01600000075995922, -0.12800000607967377, 1.0560000501573086, 0.0, 0.0, 0.0, 0.0, 0.0, 1.7103870844620245E9, 0.0, 2024-03-13 20:31:24.462
45.0, -487.80263102054596, -84.92564819380641, -322.34010723093525, -229.76449367776513, 0.01600000075995922, -0.12800000607967377, 1.0560000501573086, 0.0, 0.0, 0.0, 0.0, 0.0, 1.7103870844620245E9, 0.0, 2024-03-13 20:31:24.462
46.0, -579.7574211810715, -63.742854844778776, -412.0846165176481, -266.997067686636, 0.01600000075995922, -0.12800000607967377, 1.0560000501573086, 0.0, 0.0, 0.0, 0.0, 0.0, 1.7103870844755075E9, 0.0, 2024-03-13 20:31:24.475
46.0, -402.46185393165797, -146.23008826747537, -203.98723323317245, -345.08243886148557, 0.01600000075995922, -0.12800000607967377, 1.0560000501573086, 0.0, 0.0, 0.0, 0.0, 0.0, 1.7103870844755075E9, 0.0, 2024-03-13 20:31:24.475
47.0, -606.8286870103329, -317.60726383700967, -434.8475175979547, -452.3876483901404, 0.01600000075995922, -0.12800000607967377, 1.0560000501573086, 0.0, 0.0, 0.0, 0.0, 0.0, 1.7103870844912143E9, 0.0, 2024-03-13 20:31:24.491
47.0, -650.7930809394456, -114.06320874858648, -492.59344286378473, -302.0548898712732, 0.01600000075995922, -0.12800000607967377, 1.0560000501573086, 0.0, 0.0, 0.0, 0.0, 0.0, 1.7103870844912143E9, 0.0, 2024-03-13 20:31:24.491
48.0, -722.9245313848369, 112.7037551146932, -537.057113436982, -105.05378975532949, 0.01600000075995922, -0.12800000607967377, 1.0560000501573086, 0.0, 0.0, 0.0, 0.0, 0.0, 1.7103870844917948E9, 0.0, 2024-03-13 20:31:24.491
48.0, -625.2963129915297, 83.69335115840659, -443.419368296396, -78.08350122487172, 0.01600000075995922, -0.12800000607967377, 1.0560000501573086, 0.0, 0.0, 0.0, 0.0, 0.0, 1.7103870844917948E9, 0.0, 2024-03-13 20:31:24.491
49.0, -795.0896409298293, 182.3967907889746, -647.3953818297014, 20.904170802328736, 0.01600000075995922, -0.12800000607967377, 1.0560000501573086, 0.0, 0.0, 0.0, 0.0, 0.0, 1.7103870845053544E9, 0.0, 2024-03-13 20:31:24.505
49.0, -599.6836081449874, 333.1820772024803, -426.21395855024457, 107.23228147951886, 0.01600000075995922, -0.12800000607967377, 1.0560000501573086, 0.0, 0.0, 0.0, 0.0, 0.0, 1.7103870845053544E9, 0.0, 2024-03-13 20:31:24.505
50.0, -534.30828696955, 165.20073079271242, -346.87385094026104, -21.420276996213943, 0.01600000075995922, -0.12800000607967377, 1.0560000501573086, 0.0, 0.0, 0.0, 0.0, 0.0, 1.710387084521332E9, 0.0, 2024-03-13 20:31:24.521
50.0, -475.46096116676927, 406.26720213657245, -321.5771676399745, -228.1039780974388, 0.01600000075995922, -0.12800000607967377, 1.0560000501573086, 0.0, 0.0, 0.0, 0.0, 0.0, 1.710387084521332E9, 0.0, 2024-03-13 20:31:24.521
51.0, -572.7488486641087, 430.87200394505635, -413.3823618022725, -269.2671869597398, 0.01600000075995922, -0.12800000607967377, 1.0560000501573086, 0.0, 0.0, 0.0, 0.0, 0.0, 1.7103870845218568E9, 0.0, 2024-03-13 20:31:24.521
51.0, -392.27436645235866, 354.376090251375, -205.73002661252394, -348.75128071801737, 0.01600000075995922, -0.12800000607967377, 1.0560000501573086, 0.0, 0.0, 0.0, 0.0, 0.0, 1.7103870845218568E9, 0.0, 2024-03-13 20:31:24.521
52.0, -611.024854760617, 167.75134256249294, -436.5155129781924, -465.26412393758073, 0.01600000075995922, -0.12800000607967377, 1.0560000501573086, 0.0, 0.0, 0.0, 0.0, 0.0, 1.7103870845359964E9, 0.0, 2024-03-13 20:31:24.535
52.0, -641.7387831467204, 367.944447290618, -494.03704424668103, -307.7582373037003, 0.01600000075995922, -0.12800000607967377, 1.0560000501573086, 0.0, 0.0, 0.0, 0.0, 0.0, 1.7103870845359964E9, 0.0, 2024-03-13 20:31:24.535
53.0, -695.0136580155231, 599.6256396956742, -537.9883485259488, -111.74821067601442, 0.01600000075995922, -0.12800000607967377, 1.0560000501573086, 0.0, 0.0, 0.0, 0.0, 0.0, 1.7103870845512204E9, 0.0, 2024-03-13 20:31:24.551
53.0, -618.1269247764722, 571.11638233345, -443.61758299404755, -78.60708721866831, 0.01600000075995922, -0.12800000607967377, 1.0560000501573086, 0.0, 0.0, 0.0, 0.0, 0.0, 1.7103870845512204E9, 0.0, 2024-03-13 20:31:24.551
54.0, -781.9850314850919, 666.8578211991116, -647.7170132258907, 18.70136972842738, 0.01600000075995922, -0.12800000607967377, 1.0560000501573086, 0.0, 0.0, 0.0, 0.0, 0.0, 1.7103870845518796E9, 0.0, 2024-03-13 20:31:24.551
54.0, -605.1438620802946, 816.9699256205931, -428.58505512215197, 106.34218529006466, 0.01600000075995922, -0.12800000607967377, 1.0560000501573086, 0.0, 0.0, 0.0, 0.0, 0.0, 1.7103870845518796E9, 0.0, 2024-03-13 20:31:24.551
55.0, -558.2997451853007, 627.644970163703, -364.87772932695225, -41.870049953926355, 0.01600000075995922, -0.12800000607967377, 1.0560000501573086, 0.0, 0.0, 0.0, 0.0, 0.0, 1.71038708456573E9, 0.0, 2024-03-13 20:31:24.565
55.0, -494.5980292400345, 872.2718262653798, -334.53218108648434, -246.8184374757111, 0.01600000075995922, -0.12800000607967377, 1.0560000501573086, 0.0, 0.0, 0.0, 0.0, 0.0, 1.71038708456573E9, 0.0, 2024-03-13 20:31:24.565
56.0, -572.1355050713755, 908.5151967359707, -415.824516473338, -276.3056786763482, 0.01600000075995922, -0.12800000607967377, 1.0560000501573086, 0.0, 0.0, 0.0, 0.0, 0.0, 1.710387084581306E9, 0.0, 2024-03-13 20:31:24.581
56.0, -420.73874501511455, 838.0180825712159, -212.22249293560162, -353.5159132615663, 0.01600000075995922, -0.12800000607967377, 1.0560000501573086, 0.0, 0.0, 0.0, 0.0, 0.0, 1.710387084581306E9, 0.0, 2024-03-13 20:31:24.581
57.0, -622.3305723266676, 667.5160435913131, -434.42116900300607, -462.51903737010434, 0.01600000075995922, -0.12800000607967377, 1.0560000501573086, 0.0, 0.0, 0.0, 0.0, 0.0, 1.7103870845819263E9, 0.0, 2024-03-13 20:31:24.581
57.0, -659.0806992412545, 867.9372822167352, -489.9755128948018, -298.969472407829, 0.01600000075995922, -0.12800000607967377, 1.0560000501573086, 0.0, 0.0, 0.0, 0.0, 0.0, 1.7103870845819263E9, 0.0, 2024-03-13 20:31:24.581
58.0, -733.029741065111, 1094.4948116824962, -531.4285640036687, -99.95256621576846, 0.01600000075995922, -0.12800000607967377, 1.0560000501573086, 0.0, 0.0, 0.0, 0.0, 0.0, 1.7103870845954173E9, 0.0, 2024-03-13 20:31:24.595
58.0, -639.1489024274051, 1058.9582823035307, -442.8247242034413, -76.90169283887371, 0.01600000075995922, -0.12800000607967377, 1.0560000501573086, 0.0, 0.0, 0.0, 0.0, 0.0, 1.7103870845954173E9, 0.0, 2024-03-13 20:31:24.595
59.0, -802.9845697362907, 1153.9517411780544, -650.6004760917276, 14.875452073756605, 0.01600000075995922, -0.12800000607967377, 1.0560000501573086, 0.0, 0.0, 0.0, 0.0, 0.0, 1.7103870846110303E9, 0.0, 2024-03-13 20:31:24.611
59.0, -613.6072556800209, 1314.494426575955, -425.0807688636705, 112.21008832054213, 0.01600000075995922, -0.12800000607967377, 1.0560000501573086, 0.0, 0.0, 0.0, 0.0, 0.0, 1.7103870846110303E9, 0.0, 2024-03-13 20:31:24.611
60.0, -557.2563130976632, 1133.8535188161768, -358.1907882061787, -31.308572479058057, 0.01600000075995922, -0.12800000607967377, 1.0560000501573086, 0.0, 0.0, 0.0, 0.0, 0.0, 1.7103870846117504E9, 0.0, 2024-03-13 20:31:24.611
60.0, -497.0925425104797, 1373.1472775810398, -333.3354131006636, -243.68440131284297, 0.01600000075995922, -0.12800000607967377, 1.0560000501573086, 0.0, 0.0, 0.0, 0.0, 0.0, 1.7103870846117504E9, 0.0, 2024-03-13 20:31:24.611
61.0, -578.0183677016757, 1402.958020127844, -419.81498972605914, -274.31605189992115, 0.01600000075995922, -0.144000006839633, 1.0560000501573086, 0.0, 0.0, 0.0, 0.0, 0.0, 1.7103870846254015E9, 0.0, 2024-03-13 20:31:24.625
61.0, -382.7750205649063, 1331.2566581773572, -205.632789213676, -347.6966289305128, 0.01600000075995922, -0.144000006839633, 1.0560000501573086, 0.0, 0.0, 0.0, 0.0, 0.0, 1.7103870846254015E9, 0.0, 2024-03-13 20:31:24.625
62.0, -609.8991448739544, 1147.6275703529827, -436.09664418315515, -462.7583909672685, 0.01600000075995922, -0.144000006839633, 1.0560000501573086, 0.0, 0.0, 0.0, 0.0, 0.0, 1.7103870846410575E9, 0.0, 2024-03-13 20:31:24.641
62.0, -647.2813148810528, 1349.2231375644915, -500.4584524706006, -306.51285061845556, 0.01600000075995922, -0.144000006839633, 1.0560000501573086, 0.0, 0.0, 0.0, 0.0, 0.0, 1.7103870846410575E9, 0.0, 2024-03-13 20:31:24.641
63.0, -717.4493178497069, 1582.0300398562104, -539.8956975033507, -111.20592518243939, 0.01600000075995922, -0.144000006839633, 1.0560000501573086, 0.0, 0.0, 0.0, 0.0, 0.0, 1.7103870846418595E9, 0.0, 2024-03-13 20:31:24.641
63.0, -628.3854703549296, 1549.362013743259, -444.24962608655915, -80.23768359934911, 0.01600000075995922, -0.144000006839633, 1.0560000501573086, 0.0, 0.0, 0.0, 0.0, 0.0, 1.7103870846418595E9, 0.0, 2024-03-13 20:31:24.641
64.0, -804.6189060169272, 1648.417003969662, -646.4043083414435, 16.71174295200035, 0.01600000075995922, -0.144000006839633, 1.0560000501573086, 0.0, 0.0, 0.0, 0.0, 0.0, 1.7103870846554956E9, 0.0, 2024-03-13 20:31:24.655
64.0, -596.0783445877023, 1805.4703627089038, -423.6409073807299, 112.5541591164656, 0.01600000075995922, -0.144000006839633, 1.0560000501573086, 0.0, 0.0, 0.0, 0.0, 0.0, 1.7103870846554956E9, 0.0, 2024-03-13 20:31:24.655
65.0, -538.7288487171754, 1626.2057381328195, -348.9719348154031, -25.97547514224425, 0.01600000075995922, -0.144000006839633, 1.0560000501573086, 0.0, 0.0, 0.0, 0.0, 0.0, 1.7103870846713347E9, 0.0, 2024-03-13 20:31:24.671
65.0, -485.43153444863856, 1866.75984318275, -324.56160780461505, -237.28169258870184, 0.01600000075995922, -0.144000006839633, 1.0560000501573086, 0.0, 0.0, 0.0, 0.0, 0.0, 1.7103870846713347E9, 0.0, 2024-03-13 20:31:24.671
66.0, -560.6988910068758, 1895.067145947367, -413.31878350302577, -271.05485913855955, 0.01600000075995922, -0.144000006839633, 1.0560000501573086, 0.0, 0.0, 0.0, 0.0, 0.0, 1.7103870846720576E9, 0.0, 2024-03-13 20:31:24.672
66.0, -378.3207997176796, 1825.355410773307, -199.83220438240096, -336.9518963578157, 0.01600000075995922, -0.144000006839633, 1.0560000501573086, 0.0, 0.0, 0.0, 0.0, 0.0, 1.7103870846720576E9, 0.0, 2024-03-13 20:31:24.672
67.0, -618.2428616750985, 1647.1678773844615, -430.5915114483796, -455.5590835525654, 0.01600000075995922, -0.144000006839633, 1.0560000501573086, 0.0, 0.0, 0.0, 0.0, 0.0, 1.7103870846856413E9, 0.0, 2024-03-13 20:31:24.685
67.0, -638.4850701852702, 1844.5784965455532, -488.28881801478565, -293.3521426743828, 0.01600000075995922, -0.144000006839633, 1.0560000501573086, 0.0, 0.0, 0.0, 0.0, 0.0, 1.7103870846856413E9, 0.0, 2024-03-13 20:31:24.685
68.0, -705.0964282960631, 2082.11637228122, -528.096313143149, -93.35912259388715, 0.01600000075995922, -0.144000006839633, 1.0560000501573086, 0.0, 0.0, 0.0, 0.0, 0.0, 1.7103870847014618E9, 0.0, 2024-03-13 20:31:24.701
68.0, -620.6924961460754, 2050.622674754355, -432.8578908215277, -63.81204299395904, 0.01600000075995922, -0.144000006839633, 1.0560000501573086, 0.0, 0.0, 0.0, 0.0, 0.0, 1.7103870847014618E9, 0.0, 2024-03-13 20:31:24.701
69.0, -798.5752276885323, 2141.595741176512, -639.1825615270063, 25.97921504219994, 0.01600000075995922, -0.144000006839633, 1.0560000501573086, 0.0, 0.0, 0.0, 0.0, 0.0, 1.71038708470203E9, 0.0, 2024-03-13 20:31:24.702
69.0, -587.4877943894826, 2307.1012738156132, -414.4931120891124, 128.2692187302746, 0.01600000075995922, -0.144000006839633, 1.0560000501573086, 0.0, 0.0, 0.0, 0.0, 0.0, 1.71038708470203E9, 0.0, 2024-03-13 20:31:24.702
70.0, -529.5885332254693, 2126.3332094573416, -338.2907805419527, -11.539461313281208, 0.01600000075995922, -0.144000006839633, 1.0560000501573086, 0.0, 0.0, 0.0, 0.0, 0.0, 1.7103870847154124E9, 0.0, 2024-03-13 20:31:24.715
70.0, -477.8657168382779, 2360.798757379409, -318.9068790716119, -226.39484381768852, 0.01600000075995922, -0.144000006839633, 1.0560000501573086, 0.0, 0.0, 0.0, 0.0, 0.0, 1.7103870847154124E9, 0.0, 2024-03-13 20:31:24.715
71.0, -573.1153588597663, 2397.644251742866, -401.69891434069723, -253.3613924481906, 0.01600000075995922, -0.12800000607967377, 1.0560000501573086, 0.0, 0.0, 0.0, 0.0, 0.0, 1.7103870847313557E9, 0.0, 2024-03-13 20:31:24.731
71.0, -384.7347281416878, 2322.700396530796, -197.5620851092972, -333.49622879875824, 0.01600000075995922, -0.12800000607967377, 1.0560000501573086, 0.0, 0.0, 0.0, 0.0, 0.0, 1.7103870847313557E9, 0.0, 2024-03-13 20:31:24.731
72.0, -597.8566670166329, 2140.5897080884315, -430.4493952500634, -453.7227926743217, 0.01600000075995922, -0.12800000607967377, 1.0560000501573086, 0.0, 0.0, 0.0, 0.0, 0.0, 1.7103870847318528E9, 0.0, 2024-03-13 20:31:24.731
72.0, -657.0948123647831, 2345.0874376655556, -487.5632774233818, -293.0529506779276, 0.01600000075995922, -0.12800000607967377, 1.0560000501573086, 0.0, 0.0, 0.0, 0.0, 0.0, 1.7103870847318528E9, 0.0, 2024-03-13 20:31:24.731
73.0, -710.006916937884, 2587.670438441448, -528.2384293414652, -89.66036153770983, 0.01600000075995922, -0.12800000607967377, 1.0560000501573086, 0.0, 0.0, 0.0, 0.0, 0.0, 1.7103870847455876E9, 0.0, 2024-03-13 20:31:24.745
73.0, -632.3796835076064, 2544.3549171546474, -445.36785617331043, -73.17301258305088, 0.01600000075995922, -0.12800000607967377, 1.0560000501573086, 0.0, 0.0, 0.0, 0.0, 0.0, 1.7103870847455876E9, 0.0, 2024-03-13 20:31:24.745
74.0, -814.9859086940996, 2631.4310078229755, -654.8377827415243, 16.016121560242027, 0.01600000075995922, -0.12800000607967377, 1.0560000501573086, 0.0, 0.0, 0.0, 0.0, 0.0, 1.7103870847611196E9, 0.0, 2024-03-13 20:31:24.761
74.0, -604.5267785876058, 2787.8186643701047, -424.3103494727984, 118.97182744042948, 0.01600000075995922, -0.12800000607967377, 1.0560000501573086, 0.0, 0.0, 0.0, 0.0, 0.0, 1.7103870847611196E9, 0.0, 2024-03-13 20:31:24.761
75.0, -539.2973135104403, 2612.9297227421775, -347.3001995352097, -19.15389762306586, 0.01600000075995922, -0.12800000607967377, 1.0560000501573086, 0.0, 0.0, 0.0, 0.0, 0.0, 1.7103870847619512E9, 0.0, 2024-03-13 20:31:24.761
75.0, -487.25660562701523, 2856.715101353824, -318.76102297334, -228.80707928910851, 0.01600000075995922, -0.12800000607967377, 1.0560000501573086, 0.0, 0.0, 0.0, 0.0, 0.0, 1.7103870847619512E9, 0.0, 2024-03-13 20:31:24.761
76.0, -583.0298336423002, 2894.200118609704, -400.06831796001643, -253.22675604978576, 0.01600000075995922, -0.12800000607967377, 1.0560000501573086, 0.0, 0.0, 0.0, 0.0, 0.0, 1.7103870847754304E9, 0.0, 2024-03-13 20:31:24.775
76.0, -401.87468963861465, 2819.2861825972795, -191.2528738840483, -326.16228498565033, 0.01600000075995922, -0.12800000607967377, 1.0560000501573086, 0.0, 0.0, 0.0, 0.0, 0.0, 1.7103870847754304E9, 0.0, 2024-03-13 20:31:24.775
77.0, -616.9451163904741, 2629.0337319513783, -425.72216170607135, -448.4196145371534, 0.01600000075995922, -0.12800000607967377, 1.0560000501573086, 0.0, 0.0, 0.0, 0.0, 0.0, 1.710387084791459E9, 0.0, 2024-03-13 20:31:24.791
77.0, -623.278636965435, 2831.7699686493725, -490.07275029364973, -293.7971907691099, 0.01600000075995922, -0.12800000607967377, 1.0560000501573086, 0.0, 0.0, 0.0, 0.0, 0.0, 1.710387084791459E9, 0.0, 2024-03-13 20:31:24.791
78.0, -676.1496026390232, 3070.0969632756896, -523.0137891033664, -90.22134653106332, 0.01600000075995922, -0.12800000607967377, 1.0560000501573086, 0.0, 0.0, 0.0, 0.0, 0.0, 1.7103870847918136E9, 0.0, 2024-03-13 20:31:24.791
78.0, -606.5668940134346, 3029.68734425446, -435.1878484939225, -67.6828394480981, 0.01600000075995922, -0.12800000607967377, 1.0560000501573086, 0.0, 0.0, 0.0, 0.0, 0.0, 1.7103870847918136E9, 0.0, 2024-03-13 20:31:24.791
79.0, -817.6524573625065, 3109.979256403167, -644.5904568629339, 12.455736802425236, 0.01600000075995922, -0.12800000607967377, 1.0560000501573086, 0.0, 0.0, 0.0, 0.0, 0.0, 1.7103870848056228E9, 0.0, 2024-03-13 20:31:24.805
79.0, -613.7306723785587, 3280.5224342825823, -415.10271578188986, 120.81185821862891, 0.01600000075995922, -0.12800000607967377, 1.0560000501573086, 0.0, 0.0, 0.0, 0.0, 0.0, 1.7103870848056228E9, 0.0, 2024-03-13 20:31:24.805
80.0, -547.1024847179651, 3099.8067285236903, -340.8787913112901, -20.990188501309603, 0.01600000075995922, -0.12800000607967377, 1.0560000501573086, 0.0, 0.0, 0.0, 0.0, 0.0, 1.7103870848210423E9, 0.0, 2024-03-13 20:31:24.821
80.0, -490.14380839280784, 3333.928205649834, -325.30958779575303, -239.71636745985597, 0.01600000075995922, -0.12800000607967377, 1.0560000501573086, 0.0, 0.0, 0.0, 0.0, 0.0, 1.7103870848210423E9, 0.0, 2024-03-13 20:31:24.821
81.0, -576.2830541222356, 3379.8616569056176, -404.09245031233877, -261.33859905367717, 0.01600000075995922, -0.144000006839633, 1.0560000501573086, 0.0, 0.0, 0.0, 0.0, 0.0, 1.7103870848217604E9, 0.0, 2024-03-13 20:31:24.821
81.0, -396.50045340228826, 3308.8970552464016, -192.08313167421147, -334.9547897814773, 0.01600000075995922, -0.144000006839633, 1.0560000501573086, 0.0, 0.0, 0.0, 0.0, 0.0, 1.7103870848217604E9, 0.0, 2024-03-13 20:31:24.821
82.0, -602.3108878638595, 3115.211376441177, -433.3814768153243, -461.95805237675086, 0.01600000075995922, -0.144000006839633, 1.0560000501573086, 0.0, 0.0, 0.0, 0.0, 0.0, 1.7103870848357172E9, 0.0, 2024-03-13 20:31:24.835
82.0, -653.5830463063903, 3316.8443426522426, -497.9414998004213, -303.77524385089055, 0.01600000075995922, -0.144000006839633, 1.0560000501573086, 0.0, 0.0, 0.0, 0.0, 0.0, 1.7103870848357172E9, 0.0, 2024-03-13 20:31:24.835
83.0, -719.9139119205065, 3552.0971395149827, -531.6118191014975, -100.35647541098297, 0.01600000075995922, -0.144000006839633, 1.0560000501573086, 0.0, 0.0, 0.0, 0.0, 0.0, 1.7103870848510892E9, 0.0, 2024-03-13 20:31:24.851
83.0, -639.7024076208472, 3510.917101102881, -439.6271097413264, -78.44253162061796, 0.01600000075995922, -0.144000006839633, 1.0560000501573086, 0.0, 0.0, 0.0, 0.0, 0.0, 1.7103870848510892E9, 0.0, 2024-03-13 20:31:24.851
84.0, -823.2623072960414, 3596.257878191769, -656.2439851248637, 6.513035772833973, 0.01600000075995922, -0.144000006839633, 1.0560000501573086, 0.0, 0.0, 0.0, 0.0, 0.0, 1.7103870848521018E9, 0.0, 2024-03-13 20:31:24.852
84.0, -597.480807071086, 3761.0715293390676, -426.07558225188404, 109.31166585488245, 0.01600000075995922, -0.144000006839633, 1.0560000501573086, 0.0, 0.0, 0.0, 0.0, 0.0, 1.7103870848521018E9, 0.0, 2024-03-13 20:31:24.852
85.0, -539.035520513542, 3580.303464980796, -350.86806409293786, -29.390003801789135, 0.01600000075995922, -0.144000006839633, 1.0560000501573086, 0.0, 0.0, 0.0, 0.0, 0.0, 1.710387084865652E9, 0.0, 2024-03-13 20:31:24.865
85.0, -493.4199607539922, 3814.9148690011352, -325.93041118839756, -241.82941093482077, 0.01600000075995922, -0.144000006839633, 1.0560000501573086, 0.0, 0.0, 0.0, 0.0, 0.0, 1.710387084865652E9, 0.0, 2024-03-13 20:31:24.865
86.0, -574.2261091466062, 3858.6193398833275, -407.9632467664778, -262.56528623914346, 0.01600000075995922, -0.144000006839633, 1.0560000501573086, 0.0, 0.0, 0.0, 0.0, 0.0, 1.7103870848813324E9, 0.0, 2024-03-13 20:31:24.881
86.0, -386.1521502248943, 3789.0796401072294, -194.2971524479799, -335.5531737743877, 0.01600000075995922, -0.144000006839633, 1.0560000501573086, 0.0, 0.0, 0.0, 0.0, 0.0, 1.7103870848813324E9, 0.0, 2024-03-13 20:31:24.881
87.0, -600.3474403871223, 3591.7400790452957, -437.2971520689316, -465.0247703404166, 0.01600000075995922, -0.144000006839633, 1.0560000501573086, 0.0, 0.0, 0.0, 0.0, 0.0, 1.7103870848817904E9, 0.0, 2024-03-13 20:31:24.881
87.0, -647.4907492785715, 3799.648597382009, -494.81494343746454, -302.32416266808286, 0.01600000075995922, -0.144000006839633, 1.0560000501573086, 0.0, 0.0, 0.0, 0.0, 0.0, 1.7103870848817904E9, 0.0, 2024-03-13 20:31:24.881
88.0, -712.9277788032778, 4041.11336807115, -524.2629156885669, -92.3007309064269, 0.01600000075995922, -0.144000006839633, 1.0560000501573086, 0.0, 0.0, 0.0, 0.0, 0.0, 1.7103870848954027E9, 0.0, 2024-03-13 20:31:24.895
88.0, -625.3486715909094, 3992.1879968508147, -438.92026864970103, -76.93535193847492, 0.01600000075995922, -0.144000006839633, 1.0560000501573086, 0.0, 0.0, 0.0, 0.0, 0.0, 1.7103870848954027E9, 0.0, 2024-03-13 20:31:24.895
89.0, -811.5601603346877, 4076.5750994510017, -656.9919651160017, 1.80824162857607, 0.01600000075995922, -0.144000006839633, 1.0560000501573086, 0.0, 0.0, 0.0, 0.0, 0.0, 1.7103870849112952E9, 0.0, 2024-03-13 20:31:24.911
89.0, -600.1997143388726, 4246.407696338836, -424.6843394683674, 108.54124646401033, 0.01600000075995922, -0.144000006839633, 1.0560000501573086, 0.0, 0.0, 0.0, 0.0, 0.0, 1.7103870849112952E9, 0.0, 2024-03-13 20:31:24.911
90.0, -543.5907186595723, 4067.610559257213, -353.57201176090166, -34.91757593629882, 0.01600000075995922, -0.144000006839633, 1.0560000501573086, 0.0, 0.0, 0.0, 0.0, 0.0, 1.710387084912007E9, 0.0, 2024-03-13 20:31:24.912
90.0, -491.9688795711845, 4299.839647005778, -332.5500341099687, -253.46797959692776, 0.01600000075995922, -0.144000006839633, 1.0560000501573086, 0.0, 0.0, 0.0, 0.0, 0.0, 1.710387084912007E9, 0.0, 2024-03-13 20:31:24.912
91.0, -582.7456012456678, 4334.949827789795, -425.7539508556947, -278.8637702460401, 0.01600000075995922, -0.144000006839633, 1.0560000501573086, 0.0, 0.0, 0.0, 0.0, 0.0, 1.7103870849254096E9, 0.0, 2024-03-13 20:31:24.925
91.0, -388.2277947003022, 4274.408327307086, -205.24383961828426, -341.1518040080555, 0.01600000075995922, -0.144000006839633, 1.0560000501573086, 0.0, 0.0, 0.0, 0.0, 0.0, 1.7103870849254096E9, 0.0, 2024-03-13 20:31:24.925
92.0, -606.2153434175998, 4083.277000171598, -442.90700200246647, -466.18039942672476, 0.01600000075995922, -0.144000006839633, 1.0560000501573086, 0.0, 0.0, 0.0, 0.0, 0.0, 1.7103870849410543E9, 0.0, 2024-03-13 20:31:24.941
92.0, -651.6831771288998, 4290.123386920895, -501.6402608565986, -306.3557748203166, 0.01600000075995922, -0.144000006839633, 1.0560000501573086, 0.0, 0.0, 0.0, 0.0, 0.0, 1.7103870849410543E9, 0.0, 2024-03-13 20:31:24.941
93.0, -692.5640235445462, 4046.756877104286, -529.8952050218359, -94.1557212844491, 0.01600000075995922, -0.144000006839633, 1.0560000501573086, 0.0, 0.0, 0.0, 0.0, 0.0, 1.7103870849418173E9, 0.0, 2024-03-13 20:31:24.941
93.0, -610.2693949695677, 4003.0112673225813, -442.2300801104866, -77.84414762770757, 0.01600000075995922, -0.144000006839633, 1.0560000501573086, 0.0, 0.0, 0.0, 0.0, 0.0, 1.7103870849418173E9, 0.0, 2024-03-13 20:31:24.941
94.0, -823.3483249950223, 4080.154183708597, -659.8417688822374, 1.0153828379698098, 0.01600000075995922, -0.144000006839633, 1.0560000501573086, 0.0, 0.0, 0.0, 0.0, 0.0, 1.7103870849553304E9, 0.0, 2024-03-13 20:31:24.955
94.0, -611.9729193993844, 4244.2684735641815, -435.33183464221656, 111.4434088296257, 0.01600000075995922, -0.144000006839633, 1.0560000501573086, 0.0, 0.0, 0.0, 0.0, 0.0, 1.7103870849553304E9, 0.0, 2024-03-13 20:31:24.955
95.0, -558.8943892782554, 4081.384610794019, -343.7809536769055, -20.148711011279374, 0.01600000075995922, -0.144000006839633, 1.0560000501573086, 0.0, 0.0, 0.0, 0.0, 0.0, 1.7103870849711254E9, 0.0, 2024-03-13 20:31:24.971
95.0, -514.0043701101094, 4301.889112181496, -328.2940279603936, -250.21800653543323, 0.01600000075995922, -0.144000006839633, 1.0560000501573086, 0.0, 0.0, 0.0, 0.0, 0.0, 1.7103870849711254E9, 0.0, 2024-03-13 20:31:24.971
96.0, -594.3804300078191, 4347.848742736969, -409.5676638474688, -263.2235086313449, 0.01600000075995922, -0.144000006839633, 1.0560000501573086, 0.0, 0.0, 0.0, 0.0, 0.0, 1.7103870849718869E9, 0.0, 2024-03-13 20:31:24.971
96.0, -400.32263115700334, 4283.122294203844, -189.73073460208252, -331.3981449236162, 0.01600000075995922, -0.144000006839633, 1.0560000501573086, 0.0, 0.0, 0.0, 0.0, 0.0, 1.7103870849718869E9, 0.0, 2024-03-13 20:31:24.971
97.0, -623.6395373111591, 4084.361571158748, -429.5293798609637, -465.44737903540954, 0.01600000075995922, -0.144000006839633, 1.0560000501573086, 0.0, 0.0, 0.0, 0.0, 0.0, 1.710387084985551E9, 0.0, 2024-03-13 20:31:24.985
97.0, -669.941368712578, 4281.955445417669, -492.5971827637404, -304.92339313728735, 0.01600000075995922, -0.144000006839633, 1.0560000501573086, 0.0, 0.0, 0.0, 0.0, 0.0, 1.710387084985551E9, 0.0, 2024-03-13 20:31:24.985
98.0, -725.5312416539527, 4038.6225947006606, -526.6302723605186, -94.7129663778469, 0.01600000075995922, -0.144000006839633, 1.0560000501573086, 0.0, 0.0, 0.0, 0.0, 0.0, 1.7103870850010085E9, 0.0, 2024-03-13 20:31:25.001
98.0, -621.7321883337572, 4004.27909340756, -437.02413937216625, -75.13646005978808, 0.01600000075995922, -0.144000006839633, 1.0560000501573086, 0.0, 0.0, 0.0, 0.0, 0.0, 1.7103870850010085E9, 0.0, 2024-03-13 20:31:25.001
99.0, -817.99652815843, 4084.144656961318, -654.142161349766, 5.4135051858611405, 0.01600000075995922, -0.144000006839633, 1.0560000501573086, 0.0, 0.0, 0.0, 0.0, 0.0, 1.7103870850017517E9, 0.0, 2024-03-13 20:31:25.001
99.0, -599.9641006416641, 4261.872182655614, -419.41108053084463, 120.19851462589577, 0.01600000075995922, -0.144000006839633, 1.0560000501573086, 0.0, 0.0, 0.0, 0.0, 0.0, 1.7103870850017517E9, 0.0, 2024-03-13 20:31:25.001
100.0, -521.1924578249454, 4082.9478889754973, -347.53581323241815, -27.647210422437638, 0.01600000075995922, -0.144000006839633, 1.0560000501573086, 0.0, 0.0, 0.0, 0.0, 0.0, 1.7103870850160317E9, 0.0, 2024-03-13 20:31:25.016
100.0, -483.7784986682236, 4305.281201441307, -335.175443878863, -254.17856058850884, 0.01600000075995922, -0.144000006839633, 1.0560000501573086, 0.0, 0.0, 0.0, 0.0, 0.0, 1.7103870850160317E9, 0.0, 2024-03-13 20:31:25.016
0.0, -96.1191687611863, 426.1522502009757, 66.43371286289766, 217.8491724189371, 0.01600000075995922, -0.144000006839633, 1.0560000501573086, 0.0, 0.0, 0.0, 0.0, 0.0, 1.7103870850167627E9, 0.0, 2024-03-13 20:31:25.016
1.0, 85.3202076391317, 358.87518989806995, 285.22347012069076, 145.69154267385602, 0.01600000075995922, -0.144000006839633, 1.0560000501573086, 0.0, 0.0, 0.0, 0.0, 0.0, 1.71038708503034E9, 0.0, 2024-03-13 20:31:25.030
1.0, -136.58301633177325, 151.99888394912705, 526.2357129151933, 4.686094644479454, 0.01600000075995922, -0.144000006839633, 1.0560000501573086, 0.0, 0.0, 0.0, 0.0, 0.0, 1.71038708503034E9, 0.0, 2024-03-13 20:31:25.030
2.0, -179.76203127019107, 360.0382987842895, 467.3752974625677, 169.88495548721403, 0.01600000075995922, -0.144000006839633, 1.0560000501573086, 0.0, 0.0, 0.0, 0.0, 0.0, 1.7103870850461023E9, 0.0, 2024-03-13 20:31:25.046
2.0, -235.16864911373705, 125.31469776527956, 447.19105740170926, 393.1775522916578, 0.01600000075995922, -0.144000006839633, 1.0560000501573086, 0.0, 0.0, 0.0, 0.0, 0.0, 1.7103870850461023E9, 0.0, 2024-03-13 20:31:25.046
3.0, -146.39277391554788, 82.23853007564321, 543.4990911106579, 411.55355072394013, 0.01600000075995922, -0.144000006839633, 1.0560000501573086, 0.0, 0.0, 0.0, 0.0, 0.0, 1.710387085046824E9, 0.0, 2024-03-13 20:31:25.046
3.0, -335.8729352205992, 157.9827238782309, 317.2220541415736, 489.5192451002076, 0.01600000075995922, -0.144000006839633, 1.0560000501573086, 0.0, 0.0, 0.0, 0.0, 0.0, 1.710387085046824E9, 0.0, 2024-03-13 20:31:25.046
4.0, -127.13041919376701, 329.2851014486514, 546.706055322662, 600.1903645889834, 0.01600000075995922, -0.144000006839633, 1.0560000501573086, 0.0, 0.0, 0.0, 0.0, 0.0, 1.7103870850603564E9, 0.0, 2024-03-13 20:31:25.060
4.0, -49.462046863976866, 152.5000305431895, 622.5156973744743, 458.26864107046276, 0.01600000075995922, -0.144000006839633, 1.0560000501573086, 0.0, 0.0, 0.0, 0.0, 0.0, 1.7103870850603564E9, 0.0, 2024-03-13 20:31:25.060
5.0, 23.55575987091288, 374.8333430089988, 641.9818766438402, 233.45016508409753, 0.01600000075995922, -0.144000006839633, 1.0560000501573086, 0.0, 0.0, 0.0, 0.0, 0.0, 1.7103870850760899E9, 0.0, 2024-03-13 20:31:25.076
5.0, -69.17692948039621, 426.7356745940633, 559.0626847762614, 217.0338742285967, 0.01600000075995922, -0.144000006839633, 1.0560000501573086, 0.0, 0.0, 0.0, 0.0, 0.0, 1.7103870850760899E9, 0.0, 2024-03-13 20:31:25.076
6.0, 115.7405538787134, 359.1182833951898, 779.0454701199196, 150.42251611780375, 0.01600000075995922, -0.144000006839633, 1.0560000501573086, 0.0, 0.0, 0.0, 0.0, 0.0, 1.7103870850768433E9, 0.0, 2024-03-13 20:31:25.076
6.0, 354.14982630405575, 157.354420685675, 536.2549048964866, 11.548811063170433, 0.01600000075995922, -0.144000006839633, 1.0560000501573086, 0.0, 0.0, 0.0, 0.0, 0.0, 1.7103870850768433E9, 0.0, 2024-03-13 20:31:25.076
7.0, 320.316821354907, 358.54607870196924, 469.64541673567146, 169.077137096785, 0.01600000075995922, -0.144000006839633, 1.0560000501573086, 0.0, 0.0, 0.0, 0.0, 0.0, 1.710387085090358E9, 0.0, 2024-03-13 20:31:25.090
7.0, 282.977660197299, 122.0011464045383, 444.8349204296246, 390.473604623694, 0.01600000075995922, -0.144000006839633, 1.0560000501573086, 0.0, 0.0, 0.0, 0.0, 0.0, 1.710387085090358E9, 0.0, 2024-03-13 20:31:25.090
8.0, 375.56075355038047, 77.14478633599356, 531.3668556543998, 399.9673406612128, 0.01600000075995922, -0.144000006839633, 1.0560000501573086, 0.0, 0.0, 0.0, 0.0, 0.0, 1.7103870851060555E9, 0.0, 2024-03-13 20:31:25.106
8.0, 173.41355109540746, 148.09816829534248, 310.09380482602865, 478.68475492857397, 0.01600000075995922, -0.144000006839633, 1.0560000501573086, 0.0, 0.0, 0.0, 0.0, 0.0, 1.7103870851060555E9, 0.0, 2024-03-13 20:31:25.106
9.0, 388.3156823492609, 341.16676360787824, 67.70901874778792, 612.3936581443995, 0.01600000075995922, -0.144000006839633, 1.0560000501573086, 0.0, 0.0, 0.0, 0.0, 0.0, 1.7103870851067815E9, 0.0, 2024-03-13 20:31:25.106
9.0, 449.1769442781806, 160.89984584366903, 141.8095265198499, 466.30942597519606, 0.01600000075995922, -0.144000006839633, 1.0560000501573086, 0.0, 0.0, 0.0, 0.0, 0.0, 1.7103870851067815E9, 0.0, 2024-03-13 20:31:25.106
10.0, 478.09011083561927, 371.5684103476815, 140.5454403348267, 225.3832008796744, 0.01600000075995922, -0.144000006839633, 1.0560000501573086, 0.0, 0.0, 0.0, 0.0, 0.0, 1.710387085120588E9, 0.0, 2024-03-13 20:31:25.120
10.0, 385.0245703882538, 426.2233083001338, 65.67077327193692, 220.16043059155345, 0.01600000075995922, -0.144000006839633, 1.0560000501573086, 0.0, 0.0, 0.0, 0.0, 0.0, 1.710387085120588E9, 0.0, 2024-03-13 20:31:25.120
11.0, 577.5714496569708, 361.7549128639512, 284.78964172583073, 153.26484008412808, 0.01600000075995922, -0.144000006839633, 1.0560000501573086, 0.0, 0.0, 0.0, 0.0, 0.0, 1.7103870851365142E9, 0.0, 2024-03-13 20:31:25.136
11.0, 367.1646781498566, 156.5391224953346, 40.12164672464132, 13.149488244205713, 0.01600000075995922, -0.144000006839633, 1.0560000501573086, 0.0, 0.0, 0.0, 0.0, 0.0, 1.7103870851365142E9, 0.0, 2024-03-13 20:31:25.136
12.0, 306.2360980217345, 363.8978755385615, -13.401931491214782, 180.48757186159492, 0.01600000075995922, -0.144000006839633, 1.0560000501573086, 0.0, 0.0, 0.0, 0.0, 0.0, 1.7103870851369743E9, 0.0, 2024-03-13 20:31:25.136
12.0, 260.15679066767916, 130.60665620258078, -28.462508612778038, 408.03991471556947, 0.01600000075995922, -0.144000006839633, 1.0560000501573086, 0.0, 0.0, 0.0, 0.0, 0.0, 1.7103870851369743E9, 0.0, 2024-03-13 20:31:25.136
13.0, 364.96561697591096, 74.20896487077698, 56.173297334462404, 416.47525906562805, 0.01600000075995922, -0.144000006839633, 1.0560000501573086, 0.0, 0.0, 0.0, 0.0, 0.0, 1.7103870851503408E9, 0.0, 2024-03-13 20:31:25.150
13.0, 175.64627136895433, 155.97439760202542, -165.34658689098433, 495.29739053174853, 0.01600000075995922, -0.144000006839633, 1.0560000501573086, 0.0, 0.0, 0.0, 0.0, 0.0, 1.7103870851503408E9, 0.0, 2024-03-13 20:31:25.150
14.0, 403.30146147171035, 347.86492442851886, 74.64279326563701, 617.9249701788649, 0.01600000075995922, -0.144000006839633, 1.0560000501573086, 0.0, 0.0, 0.0, 0.0, 0.0, 1.7103870851663854E9, 0.0, 2024-03-13 20:31:25.166
14.0, 469.35370453912765, 172.94232370099053, 152.63653689157218, 480.72674030438066, 0.01600000075995922, -0.144000006839633, 1.0560000501573086, 0.0, 0.0, 0.0, 0.0, 0.0, 1.7103870851663854E9, 0.0, 2024-03-13 20:31:25.166
15.0, 479.47013391926885, 386.9094799659215, 157.98833372816443, 243.020569070708, 0.01600000075995922, -0.144000006839633, 1.0560000501573086, 0.0, 0.0, 0.0, 0.0, 0.0, 1.7103870851669796E9, 0.0, 2024-03-13 20:31:25.166
15.0, 418.67993008950725, 433.1533429180272, 73.4235858800821, 226.56313931569457, 0.01600000075995922, -0.144000006839633, 1.0560000501573086, 0.0, 0.0, 0.0, 0.0, 0.0, 1.7103870851669796E9, 0.0, 2024-03-13 20:31:25.166
16.0, 624.3388986028731, 377.92624027235433, 301.7351284250617, 169.18185429554433, 0.01600000075995922, -0.144000006839633, 1.0560000501573086, 0.0, 0.0, 0.0, 0.0, 0.0, 1.7103870851803377E9, 0.0, 2024-03-13 20:31:25.180
16.0, 868.5375361596234, 173.6977834920399, 542.8745278180577, 24.473905310034752, 0.01600000075995922, -0.144000006839633, 1.0560000501573086, 0.0, 0.0, 0.0, 0.0, 0.0, 1.7103870851803377E9, 0.0, 2024-03-13 20:31:25.180
17.0, 821.8617147626355, 374.59024951187894, 476.05934515967965, 187.09597508329898, 0.01600000075995922, -0.144000006839633, 1.0560000501573086, 0.0, 0.0, 0.0, 0.0, 0.0, 1.7103870851961267E9, 0.0, 2024-03-13 20:31:25.196
17.0, 782.6937425266951, 148.13182739494368, 461.1184448366985, 414.49498203909025, 0.01600000075995922, -0.144000006839633, 1.0560000501573086, 0.0, 0.0, 0.0, 0.0, 0.0, 1.7103870851961267E9, 0.0, 2024-03-13 20:31:25.196
18.0, 875.7106642746367, 96.78300100332126, 547.9308725581504, 422.58999549318105, 0.01600000075995922, -0.144000006839633, 1.0560000501573086, 0.0, 0.0, 0.0, 0.0, 0.0, 1.7103870851967888E9, 0.0, 2024-03-13 20:31:25.196
18.0, 686.6830308642238, 173.24151569744572, 322.50279287900776, 497.36555520724505, 0.01600000075995922, -0.144000006839633, 1.0560000501573086, 0.0, 0.0, 0.0, 0.0, 0.0, 1.7103870851967888E9, 0.0, 2024-03-13 20:31:25.196
19.0, 898.5820224536583, 357.0762980193831, 556.7514266036451, 617.2181290872395, 0.01600000075995922, -0.144000006839633, 1.0560000501573086, 0.0, 0.0, 0.0, 0.0, 0.0, 1.7103870852103803E9, 0.0, 2024-03-13 20:31:25.210
19.0, 962.8578130421229, 172.78150800289586, 631.7756896647625, 468.13449715357274, 0.01600000075995922, -0.144000006839633, 1.0560000501573086, 0.0, 0.0, 0.0, 0.0, 0.0, 1.7103870852103803E9, 0.0, 2024-03-13 20:31:25.210
20.0, 992.6984747885726, 384.17935299826786, 632.7742429529317, 228.3863405440934, 0.01600000075995922, -0.144000006839633, 1.0560000501573086, 0.0, 0.0, 0.0, 0.0, 0.0, 1.7103870852261055E9, 0.0, 2024-03-13 20:31:25.226
20.0, 910.3402679143474, 444.0364517890848, 558.6325962813571, 224.57351253926754, 0.01600000075995922, -0.144000006839633, 1.0560000501573086, 0.0, 0.0, 0.0, 0.0, 0.0, 1.7103870852261055E9, 0.0, 2024-03-13 20:31:25.226
21.0, 1099.057489628438, 381.681099827867, 786.0203835372813, 164.92210824601352, 0.01600000075995922, -0.144000006839633, 1.0560000501573086, 0.0, 0.0, 0.0, 0.0, 0.0, 1.710387085226824E9, 0.0, 2024-03-13 20:31:25.226
21.0, 877.4983364534564, 168.0954133584164, 1027.451495126821, 17.592489391565323, 0.01600000075995922, -0.144000006839633, 1.0560000501573086, 0.0, 0.0, 0.0, 0.0, 0.0, 1.710387085226824E9, 0.0, 2024-03-13 20:31:25.226
22.0, 823.9934577373788, 367.76119219278917, 964.2864548251964, 179.91162726841867, 0.01600000075995922, -0.144000006839633, 1.0560000501573086, 0.0, 0.0, 0.0, 0.0, 0.0, 1.7103870852410915E9, 0.0, 2024-03-13 20:31:25.241
22.0, 767.2516956096515, 137.34969582268968, 943.2046387749724, 405.9193914406933, 0.01600000075995922, -0.144000006839633, 1.0560000501573086, 0.0, 0.0, 0.0, 0.0, 0.0, 1.7103870852410915E9, 0.0, 2024-03-13 20:31:25.241
23.0, 873.9641309953295, 89.13116569397971, 1026.4828610382974, 410.9439470311627, 0.01600000075995922, -0.144000006839633, 1.0560000501573086, 0.0, 0.0, 0.0, 0.0, 0.0, 1.71038708525612E9, 0.0, 2024-03-13 20:31:25.256
23.0, 652.6125422678888, 157.80694858031347, 804.7498025153764, 487.43238092493266, 0.01600000075995922, -0.144000006839633, 1.0560000501573086, 0.0, 0.0, 0.0, 0.0, 0.0, 1.71038708525612E9, 0.0, 2024-03-13 20:31:25.256
24.0, 868.0307797156274, 345.05251966184005, 1046.605392749887, 614.8657320151106, 0.01600000075995922, -0.144000006839633, 1.0560000501573086, 0.0, 0.0, 0.0, 0.0, 0.0, 1.7103870852568033E9, 0.0, 2024-03-13 20:31:25.256
24.0, 946.4620916363783, 167.48580966563895, 1123.0882167937234, 474.5933043770492, 0.01600000075995922, -0.144000006839633, 1.0560000501573086, 0.0, 0.0, 0.0, 0.0, 0.0, 1.7103870852568033E9, 0.0, 2024-03-13 20:31:25.256
25.0, 981.6620300193317, 388.3942202483304, 1132.7147192796692, 242.19031128054485, 0.01600000075995922, -0.144000006839633, 1.0560000501573086, 0.0, 0.0, 0.0, 0.0, 0.0, 1.7103870852704513E9, 0.0, 2024-03-13 20:31:25.270
25.0, 894.8533421978354, 433.9312421088107, 1055.300660146866, 231.57460525631905, 0.01600000075995922, -0.144000006839633, 1.0560000501573086, 0.0, 0.0, 0.0, 0.0, 0.0, 1.7103870852704513E9, 0.0, 2024-03-13 20:31:25.270
26.0, 1110.381906694267, 383.9512191009708, 1284.1283088857308, 173.43786044511944, 0.01600000075995922, -0.144000006839633, 1.0560000501573086, 0.0, 0.0, 0.0, 0.0, 0.0, 1.7103870852861164E9, 0.0, 2024-03-13 20:31:25.286
26.0, 873.4368051015772, 161.04944184189662, 1519.3736259485595, 26.340115387924016, 0.01600000075995922, -0.144000006839633, 1.0560000501573086, 0.0, 0.0, 0.0, 0.0, 0.0, 1.7103870852861164E9, 0.0, 2024-03-13 20:31:25.286
27.0, 816.9138271212578, 374.0068251187913, 1457.2594975344837, 192.06630212441087, 0.01600000075995922, -0.144000006839633, 1.0560000501573086, 0.0, 0.0, 0.0, 0.0, 0.0, 1.710387085301428E9, 0.0, 2024-03-13 20:31:25.301
27.0, 775.5767129110172, 147.61572120105848, 1436.7910250769928, 417.0268943090923, 0.01600000075995922, -0.144000006839633, 1.0560000501573086, 0.0, 0.0, 0.0, 0.0, 0.0, 1.710387085301428E9, 0.0, 2024-03-13 20:31:25.301
28.0, 862.946385725867, 88.84693329734728, 1519.6129795457236, 419.87856802530587, 0.01600000075995922, -0.144000006839633, 1.0560000501573086, 0.0, 0.0, 0.0, 0.0, 0.0, 1.7103870853019705E9, 0.0, 2024-03-13 20:31:25.301
28.0, 666.4726115036756, 161.6553056347184, 1291.3724950999022, 491.7594451736659, 0.01600000075995922, -0.144000006839633, 1.0560000501573086, 0.0, 0.0, 0.0, 0.0, 0.0, 1.7103870853019705E9, 0.0, 2024-03-13 20:31:25.301
29.0, 881.8384903520346, 355.5279794377275, 1534.8586817150936, 619.4471094608307, 0.01600000075995922, -0.144000006839633, 1.0560000501573086, 0.0, 0.0, 0.0, 0.0, 0.0, 1.7103870853160565E9, 0.0, 2024-03-13 20:31:25.316
29.0, 953.4183055539615, 170.5113887297921, 1616.8728177933954, 476.4221154553816, 0.01600000075995922, -0.144000006839633, 1.0560000501573086, 0.0, 0.0, 0.0, 0.0, 0.0, 1.7103870853160565E9, 0.0, 2024-03-13 20:31:25.316
30.0, 975.6220915908925, 369.4254476730712, 1609.2172425840981, 716.1384829152375, 0.01600000075995922, -0.144000006839633, 1.0560000501573086, 0.0, 0.0, 0.0, 0.0, 0.0, 1.7103870853167672E9, 0.0, 2024-03-13 20:31:25.316
30.0, 900.0705026360229, 431.5489258370362, 1541.3997667375952, 717.4324882999063, 0.01600000075995922, -0.144000006839633, 1.0560000501573086, 0.0, 0.0, 0.0, 0.0, 0.0, 1.7103870853167672E9, 0.0, 2024-03-13 20:31:25.316
31.0, 1092.80811680248, 372.66046113474295, 1768.2826674995013, 662.6130347494036, 0.01600000075995922, -0.12800000607967377, 1.0560000501573086, 0.0, 0.0, 0.0, 0.0, 0.0, 1.7103870853309472E9, 0.0, 2024-03-13 20:31:25.330
31.0, 863.4737116196193, 149.9755980730988, 2002.985699068755, 505.18568601459265, 0.01600000075995922, -0.12800000607967377, 1.0560000501573086, 0.0, 0.0, 0.0, 0.0, 0.0, 1.7103870853309472E9, 0.0, 2024-03-13 20:31:25.330
32.0, 845.7222764799371, 361.0069328728132, 1940.389123560395, 673.5410224199295, 0.01600000075995922, -0.12800000607967377, 1.0560000501573086, 0.0, 0.0, 0.0, 0.0, 0.0, 1.7103870853461444E9, 0.0, 2024-03-13 20:31:25.346
32.0, 791.1646159263328, 145.81682932237163, 1937.2999661969952, 910.1738423663191, 0.01600000075995922, -0.12800000607967377, 1.0560000501573086, 0.0, 0.0, 0.0, 0.0, 0.0, 1.7103870853461444E9, 0.0, 2024-03-13 20:31:25.346
33.0, 842.0515646734275, 84.77418224560097, 2017.5039906967431, 912.3261547908187, 0.01600000075995922, -0.12800000607967377, 1.0560000501573086, 0.0, 0.0, 0.0, 0.0, 0.0, 1.7103870853469262E9, 0.0, 2024-03-13 20:31:25.346
33.0, 663.4470324395224, 152.82540183933452, 1792.502259612549, 988.2648233911023, 0.01600000075995922, -0.12800000607967377, 1.0560000501573086, 0.0, 0.0, 0.0, 0.0, 0.0, 1.7103870853469262E9, 0.0, 2024-03-13 20:31:25.346
34.0, 877.9901332976297, 349.61519760778174, 2034.0923169502057, 1118.3123645503074, 0.01600000075995922, -0.12800000607967377, 1.0560000501573086, 0.0, 0.0, 0.0, 0.0, 0.0, 1.7103870853606658E9, 0.0, 2024-03-13 20:31:25.360
34.0, 940.0780824120156, 171.3977450192906, 2116.1288924282417, 975.8072166386992, 0.01600000075995922, -0.12800000607967377, 1.0560000501573086, 0.0, 0.0, 0.0, 0.0, 0.0, 1.7103870853606658E9, 0.0, 2024-03-13 20:31:25.360
35.0, 986.4378822627477, 376.6434545875527, 2121.985575758852, 734.4845621478744, 0.01600000075995922, -0.12800000607967377, 1.0560000501573086, 0.0, 0.0, 0.0, 0.0, 0.0, 1.7103870853760388E9, 0.0, 2024-03-13 20:31:25.376
35.0, 910.9797908067703, 433.20570151740685, 2040.566083773505, 729.5123651567847, 0.01600000075995922, -0.12800000607967377, 1.0560000501573086, 0.0, 0.0, 0.0, 0.0, 0.0, 1.7103870853760388E9, 0.0, 2024-03-13 20:31:25.376
36.0, 1099.0462699285708, 386.8646011664532, 2273.3542865654454, 677.1350662773475, 0.01600000075995922, -0.12800000607967377, 1.0560000501573086, 0.0, 0.0, 0.0, 0.0, 0.0, 1.7103870853767552E9, 0.0, 2024-03-13 20:31:25.376
36.0, 860.4369128555991, 164.29567500343546, 2515.365082648117, 516.3455474823713, 0.01600000075995922, -0.12800000607967377, 1.0560000501573086, 0.0, 0.0, 0.0, 0.0, 0.0, 1.7103870853767552E9, 0.0, 2024-03-13 20:31:25.376
37.0, 811.0608836906031, 362.7497262521647, 2437.307760722935, 676.5479019843042, 0.01600000075995922, -0.12800000607967377, 1.0560000501573086, 0.0, 0.0, 0.0, 0.0, 0.0, 1.710387085390563E9, 0.0, 2024-03-13 20:31:25.390
37.0, 770.2062165746465, 133.53873776784167, 2416.4503386700526, 896.7775207250379, 0.01600000075995922, -0.12800000607967377, 1.0560000501573086, 0.0, 0.0, 0.0, 0.0, 0.0, 1.710387085390563E9, 0.0, 2024-03-13 20:31:25.390
38.0, 857.628247988876, 79.13441311242059, 2497.4023431609385, 896.7102025258355, 0.01600000075995922, -0.12800000607967377, 1.0560000501573086, 0.0, 0.0, 0.0, 0.0, 0.0, 1.7103870854060886E9, 0.0, 2024-03-13 20:31:25.406
38.0, 657.8484022058547, 149.94941877340898, 2269.618126509711, 966.6575513971038, 0.01600000075995922, -0.12800000607967377, 1.0560000501573086, 0.0, 0.0, 0.0, 0.0, 0.0, 1.7103870854060886E9, 0.0, 2024-03-13 20:31:25.406
39.0, 884.6733345184475, 357.02393942000344, 2027.2221207316034, 1108.4782976168208, 0.01600000075995922, -0.12800000607967377, 1.0560000501573086, 0.0, 0.0, 0.0, 0.0, 0.0, 1.7103870854067614E9, 0.0, 2024-03-13 20:31:25.406
39.0, 956.2381901205517, 178.93364343000576, 2117.5687539111823, 972.9742424222641, 0.01600000075995922, -0.12800000607967377, 1.0560000501573086, 0.0, 0.0, 0.0, 0.0, 0.0, 1.7103870854067614E9, 0.0, 2024-03-13 20:31:25.406
40.0, 976.2503947834484, 372.9446935313754, 2113.3538866611198, 1215.1290246532299, 0.01600000075995922, -0.12800000607967377, 1.0560000501573086, 0.0, 0.0, 0.0, 0.0, 0.0, 1.710387085420875E9, 0.0, 2024-03-13 20:31:25.420
40.0, 901.0840155240148, 432.35674422746524, 2033.7295466545038, 1207.4753193939105, 0.01600000075995922, -0.12800000607967377, 1.0560000501573086, 0.0, 0.0, 0.0, 0.0, 0.0, 1.710387085420875E9, 0.0, 2024-03-13 20:31:25.420
41.0, 1098.3057697373442, 376.46767928963527, 2265.724890655838, 1153.18319173716, 0.01600000075995922, -0.144000006839633, 1.0560000501573086, 0.0, 0.0, 0.0, 0.0, 0.0, 1.710387085436069E9, 0.0, 2024-03-13 20:31:25.436
41.0, 1335.8361656730995, 153.41256613237783, 2500.9328087191097, 997.0535882869735, 0.01600000075995922, -0.144000006839633, 1.0560000501573086, 0.0, 0.0, 0.0, 0.0, 0.0, 1.710387085436069E9, 0.0, 2024-03-13 20:31:25.436
42.0, 1282.2527490579523, 355.79351233458146, 2431.3912389930338, 1154.8025684179738, 0.01600000075995922, -0.144000006839633, 1.0560000501573086, 0.0, 0.0, 0.0, 0.0, 0.0, 1.7103870854368455E9, 0.0, 2024-03-13 20:31:25.436
42.0, 1247.1089091743343, 143.0081644556485, 2423.67208548449, 1397.9465541872196, 0.01600000075995922, -0.144000006839633, 1.0560000501573086, 0.0, 0.0, 0.0, 0.0, 0.0, 1.7103870854368455E9, 0.0, 2024-03-13 20:31:25.436
43.0, 1329.4521564487368, 79.38498640945181, 2504.6278298753314, 1394.5432452275418, 0.01600000075995922, -0.144000006839633, 1.0560000501573086, 0.0, 0.0, 0.0, 0.0, 0.0, 1.7103870854506967E9, 0.0, 2024-03-13 20:31:25.450
43.0, 1136.1124183894135, 144.78087703464553, 2275.1830976437777, 1457.6951958793215, 0.01600000075995922, -0.144000006839633, 1.0560000501573086, 0.0, 0.0, 0.0, 0.0, 0.0, 1.7103870854506967E9, 0.0, 2024-03-13 20:31:25.450
44.0, 1375.6829297509976, 343.4069636813365, 2518.2317159641534, 1594.758789355401, 0.01600000075995922, -0.144000006839633, 1.0560000501573086, 0.0, 0.0, 0.0, 0.0, 0.0, 1.7103870854662657E9, 0.0, 2024-03-13 20:31:25.466
44.0, 1437.7260000659153, 164.37421290250495, 2599.165020955261, 1450.6118253632449, 0.01600000075995922, -0.144000006839633, 1.0560000501573086, 0.0, 0.0, 0.0, 0.0, 0.0, 1.7103870854662657E9, 0.0, 2024-03-13 20:31:25.466
45.0, 1458.2019523233175, 362.8619232508354, 2598.607775861863, 1695.414456762839, 0.01600000075995922, -0.144000006839633, 1.0560000501573086, 0.0, 0.0, 0.0, 0.0, 0.0, 1.7103870854670463E9, 0.0, 2024-03-13 20:31:25.467
45.0, 1385.2645534374751, 425.5276869083755, 2514.0953866131604, 1688.4638526951894, 0.01600000075995922, -0.144000006839633, 1.0560000501573086, 0.0, 0.0, 0.0, 0.0, 0.0, 1.7103870854670463E9, 0.0, 2024-03-13 20:31:25.467
46.0, 1590.7215673532337, 374.4518732135184, 2748.869476281572, 1636.0229755165055, 0.01600000075995922, -0.144000006839633, 1.0560000501573086, 0.0, 0.0, 0.0, 0.0, 0.0, 1.7103870854803765E9, 0.0, 2024-03-13 20:31:25.480
46.0, 1350.6012906981632, 150.00551727274433, 2977.3867133241147, 1472.1480392580852, 0.01600000075995922, -0.144000006839633, 1.0560000501573086, 0.0, 0.0, 0.0, 0.0, 0.0, 1.7103870854803765E9, 0.0, 2024-03-13 20:31:25.480
47.0, 1306.5807982697152, 354.02079975558445, 2912.6097761415876, 1635.6826446205378, 0.01600000075995922, -0.144000006839633, 1.0560000501573086, 0.0, 0.0, 0.0, 0.0, 0.0, 1.710387085496117E9, 0.0, 2024-03-13 20:31:25.496
47.0, 1260.25839741854, 138.36320871068165, 2901.9024425684474, 1876.5714707165025, 0.01600000075995922, -0.144000006839633, 1.0560000501573086, 0.0, 0.0, 0.0, 0.0, 0.0, 1.710387085496117E9, 0.0, 2024-03-13 20:31:25.496
48.0, 1315.1133800186217, 69.75100412359461, 2981.6240199739113, 1867.6854684217833, 0.01600000075995922, -0.144000006839633, 1.0560000501573086, 0.0, 0.0, 0.0, 0.0, 0.0, 1.7103870854968061E9, 0.0, 2024-03-13 20:31:25.496
48.0, 1123.901645034086, 137.9032010161318, 2750.0101457680576, 1937.737534491811, 0.01600000075995922, -0.144000006839633, 1.0560000501573086, 0.0, 0.0, 0.0, 0.0, 0.0, 1.7103870854968061E9, 0.0, 2024-03-13 20:31:25.496
49.0, 894.3783749034628, 350.68480899510905, 2521.335832927376, 2093.8783576418646, 0.01600000075995922, -0.144000006839633, 1.0560000501573086, 0.0, 0.0, 0.0, 0.0, 0.0, 1.710387085510369E9, 0.0, 2024-03-13 20:31:25.510
49.0, 955.84924052516, 168.835913549643, 2601.68197362544, 1946.3654836895876, 0.01600000075995922, -0.144000006839633, 1.0560000501573086, 0.0, 0.0, 0.0, 0.0, 0.0, 1.710387085510369E9, 0.0, 2024-03-13 20:31:25.510
50.0, 970.719082748983, 367.8509497917257, 2596.4461136874743, 2188.1911547244526, 0.01600000075995922, -0.144000006839633, 1.0560000501573086, 0.0, 0.0, 0.0, 0.0, 0.0, 1.7103870855260634E9, 0.0, 2024-03-13 20:31:25.526
50.0, 896.3231228804216, 429.3049858636223, 2521.41063092649, 2185.967784200795, 0.01600000075995922, -0.144000006839633, 1.0560000501573086, 0.0, 0.0, 0.0, 0.0, 0.0, 1.7103870855260634E9, 0.0, 2024-03-13 20:31:25.526
51.0, 1108.2613834193908, 379.0145511594601, 2754.3671292164363, 2131.9673687405884, 0.01600000075995922, -0.12800000607967377, 1.0560000501573086, 0.0, 0.0, 0.0, 0.0, 0.0, 1.7103870855267656E9, 0.0, 2024-03-13 20:31:25.526
51.0, 872.1540194167756, 153.96981122577563, 2990.18091107253, 1969.8726248610765, 0.01600000075995922, -0.12800000607967377, 1.0560000501573086, 0.0, 0.0, 0.0, 0.0, 0.0, 1.7103870855267656E9, 0.0, 2024-03-13 20:31:25.526
52.0, 814.4118340509012, 357.21093441778794, 2922.0455437297933, 2135.5389731982723, 0.01600000075995922, -0.12800000607967377, 1.0560000501573086, 0.0, 0.0, 0.0, 0.0, 0.0, 1.7103870855405552E9, 0.0, 2024-03-13 20:31:25.540
52.0, 773.2654547384009, 149.9045399739407, 2918.032631077338, 1893.4851682661101, 0.01600000075995922, -0.12800000607967377, 1.0560000501573086, 0.0, 0.0, 0.0, 0.0, 0.0, 1.7103870855405552E9, 0.0, 2024-03-13 20:31:25.540
53.0, 859.5056777666323, 88.27472860412672, 2996.9276905925944, 1882.6544179944322, 0.01600000075995922, -0.12800000607967377, 1.0560000501573086, 0.0, 0.0, 0.0, 0.0, 0.0, 1.71038708555619E9, 0.0, 2024-03-13 20:31:25.556
53.0, 644.0219920696691, 151.04520946042612, 2765.4260133854114, 1951.872486374341, 0.01600000075995922, -0.12800000607967377, 1.0560000501573086, 0.0, 0.0, 0.0, 0.0, 0.0, 1.71038708555619E9, 0.0, 2024-03-13 20:31:25.556
54.0, 877.5862241024151, 357.2258940176107, 2531.6429972052574, 2101.0084769073874, 0.01600000075995922, -0.12800000607967377, 1.0560000501573086, 0.0, 0.0, 0.0, 0.0, 0.0, 1.7103870855567758E9, 0.0, 2024-03-13 20:31:25.556
54.0, 943.1186210759915, 175.48171577090397, 2612.258410700131, 1956.0125556252897, 0.01600000075995922, -0.12800000607967377, 1.0560000501573086, 0.0, 0.0, 0.0, 0.0, 0.0, 1.7103870855567758E9, 0.0, 2024-03-13 20:31:25.556
55.0, 976.557066579815, 367.5293183955364, 2594.28071161313, 2185.025329411961, 0.01600000075995922, -0.12800000607967377, 1.0560000501573086, 0.0, 0.0, 0.0, 0.0, 0.0, 1.7103870855704827E9, 0.0, 2024-03-13 20:31:25.570
55.0, 901.4954045191407, 438.0077330605127, 2527.955455848947, 2192.0675610285252, 0.01600000075995922, -0.12800000607967377, 1.0560000501573086, 0.0, 0.0, 0.0, 0.0, 0.0, 1.7103870855704827E9, 0.0, 2024-03-13 20:31:25.570
56.0, 1105.931425746996, 394.5463556754403, 2766.2674908754416, 2143.587237902917, 0.01600000075995922, -0.12800000607967377, 1.0560000501573086, 0.0, 0.0, 0.0, 0.0, 0.0, 1.7103870855862172E9, 0.0, 2024-03-13 20:31:25.586
56.0, 872.3484942144714, 159.1682721641846, 2993.2364093363285, 1974.1510704103857, 0.01600000075995922, -0.12800000607967377, 1.0560000501573086, 0.0, 0.0, 0.0, 0.0, 0.0, 1.7103870855862172E9, 0.0, 2024-03-13 20:31:25.586
57.0, 816.898867521435, 360.1243164832704, 2925.052423294168, 2139.4322090521455, 0.01600000075995922, -0.12800000607967377, 1.0560000501573086, 0.0, 0.0, 0.0, 0.0, 0.0, 1.7103870855868428E9, 0.0, 2024-03-13 20:31:25.586
57.0, 771.5824997583404, 150.0915349717252, 2916.596509494353, 2382.060088627506, 0.01600000075995922, -0.12800000607967377, 1.0560000501573086, 0.0, 0.0, 0.0, 0.0, 0.0, 1.7103870855868428E9, 0.0, 2024-03-13 20:31:25.586
58.0, 849.7333191824146, 86.14672552933916, 2999.306266964413, 2378.1818123734556, 0.01600000075995922, -0.12800000607967377, 1.0560000501573086, 0.0, 0.0, 0.0, 0.0, 0.0, 1.7103870856167977E9, 0.0, 2024-03-13 20:31:25.616
58.0, 662.3662013523281, 153.19191203499213, 2769.614701335784, 2444.2172258910723, 0.01600000075995922, -0.12800000607967377, 1.0560000501573086, 0.0, 0.0, 0.0, 0.0, 0.0, 1.7103870856167977E9, 0.0, 2024-03-13 20:31:25.616
59.0, 892.5458239251748, 361.5230390666984, 2536.0298998532817, 2594.2358328136615, 0.01600000075995922, -0.12800000607967377, 1.0560000501573086, 0.0, 0.0, 0.0, 0.0, 0.0, 1.7103870856175673E9, 0.0, 2024-03-13 20:31:25.617
59.0, 949.5325494999997, 168.66013825172558, 2608.582089043688, 2436.7860446791165, 0.01600000075995922, -0.12800000607967377, 1.0560000501573086, 0.0, 0.0, 0.0, 0.0, 0.0, 1.7103870856175673E9, 0.0, 2024-03-13 20:31:25.617
60.0, 964.3014144250192, 355.06049194326624, 2597.5045053749345, 2671.4460673988797, 0.01600000075995922, -0.12800000607967377, 1.0560000501573086, 0.0, 0.0, 0.0, 0.0, 0.0, 1.7103870856184208E9, 0.0, 2024-03-13 20:31:25.618
60.0, 904.5209835832939, 425.3743510101922, 2525.4198036789894, 2676.143381743226, 0.01600000075995922, -0.12800000607967377, 1.0560000501573086, 0.0, 0.0, 0.0, 0.0, 0.0, 1.7103870856184208E9, 0.0, 2024-03-13 20:31:25.618
61.0, 1109.6900252024643, 373.55055732419714, 2759.8049437520094, 2621.5520620900206, 0.01600000075995922, -0.12800000607967377, 1.0560000501573086, 0.0, 0.0, 0.0, 0.0, 0.0, 1.710387085630334E9, 0.0, 2024-03-13 20:31:25.630
61.0, 1333.7380817979574, 146.1646400182508, 2987.0992335090414, 2456.981504439842, 0.01600000075995922, -0.12800000607967377, 1.0560000501573086, 0.0, 0.0, 0.0, 0.0, 0.0, 1.710387085630334E9, 0.0, 2024-03-13 20:31:25.630
62.0, 1277.0842073191889, 349.05047271447256, 2916.031784601044, 2616.4171794508584, 0.01600000075995922, -0.12800000607967377, 1.0560000501573086, 0.0, 0.0, 0.0, 0.0, 0.0, 1.710387085646387E9, 0.0, 2024-03-13 20:31:25.646
62.0, 1263.3550345818512, 139.59737569605932, 2912.953846937511, 2372.2465911437757, 0.01600000075995922, -0.12800000607967377, 1.0560000501573086, 0.0, 0.0, 0.0, 0.0, 0.0, 1.710387085646387E9, 0.0, 2024-03-13 20:31:25.646
63.0, 1335.5407135766, 73.26651008194312, 2994.13772522565, 2367.347322201822, 0.01600000075995922, -0.12800000607967377, 1.0560000501573086, 0.0, 0.0, 0.0, 0.0, 0.0, 1.7103870856468513E9, 0.0, 2024-03-13 20:31:25.646
63.0, 1110.8456542887725, 128.95736032212153, 2750.126082666684, 2420.510000071954, 0.01600000075995922, -0.12800000607967377, 1.0560000501573086, 0.0, 0.0, 0.0, 0.0, 0.0, 1.7103870856468513E9, 0.0, 2024-03-13 20:31:25.646
64.0, 1349.2567966640927, 341.2939202063717, 2512.749022629112, 2569.1747632105835, 0.01600000075995922, -0.12800000607967377, 1.0560000501573086, 0.0, 0.0, 0.0, 0.0, 0.0, 1.7103870856604085E9, 0.0, 2024-03-13 20:31:25.660
64.0, 1441.1367888255045, 165.33910709107295, 2600.5338243390433, 2435.065690699499, 0.01600000075995922, -0.12800000607967377, 1.0560000501573086, 0.0, 0.0, 0.0, 0.0, 0.0, 1.7103870856604085E9, 0.0, 2024-03-13 20:31:25.660
65.0, 1465.408739537932, 354.39104985119775, 2592.7136935316958, 2668.450407534372, 0.01600000075995922, -0.12800000607967377, 1.0560000501573086, 0.0, 0.0, 0.0, 0.0, 0.0, 1.7103870856760461E9, 0.0, 2024-03-13 20:31:25.676
65.0, 1393.8326642359607, 426.522500296589, 2520.988022231497, 2676.2705383417197, 0.01600000075995922, -0.12800000607967377, 1.0560000501573086, 0.0, 0.0, 0.0, 0.0, 0.0, 1.7103870856760461E9, 0.0, 2024-03-13 20:31:25.676
66.0, 1601.028731631115, 376.4190605902113, 2757.145874883514, 2626.3428739332594, 0.01600000075995922, -0.12800000607967377, 1.0560000501573086, 0.0, 0.0, 0.0, 0.0, 0.0, 1.710387085676767E9, 0.0, 2024-03-13 20:31:25.676
66.0, 1838.9443372623064, 138.9765523034148, 2985.449937628582, 2454.5131704690866, 0.01600000075995922, -0.12800000607967377, 1.0560000501573086, 0.0, 0.0, 0.0, 0.0, 0.0, 1.710387085676767E9, 0.0, 2024-03-13 20:31:25.676
67.0, 1794.6171730374917, 347.9546820274554, 2918.9339469666593, 2622.558095178101, 0.01600000075995922, -0.12800000607967377, 1.0560000501573086, 0.0, 0.0, 0.0, 0.0, 0.0, 1.710387085690725E9, 0.0, 2024-03-13 20:31:25.690
67.0, 1751.8850761437789, 145.36430142773315, 2922.5130312242545, 2383.9262987053953, 0.01600000075995922, -0.12800000607967377, 1.0560000501573086, 0.0, 0.0, 0.0, 0.0, 0.0, 1.710387085690725E9, 0.0, 2024-03-13 20:31:25.690
