%OpenBCI Raw EXG Data
%Number of channels = 4
%Sample Rate = 200 Hz
%Board = OpenBCI_GUI$BoardGanglionBLE
Sample Index, EXG Channel 0, EXG Channel 1, EXG Channel 2, EXG Channel 3, Accel Channel 0, Accel Channel 1, Accel Channel 2, Other, Other, Other, Other, Other, Timestamp, Other, Timestamp (Formatted)
2.0, 70.98517110897228, -196.44198507256806, 85.63061933545396, -151.86985740065575, 0.01600000075995922, 0.0, 0.0, 0.0, 0.0, 0.0, 0.0, 0.0, 1.7103871497213829E9, 0.0, 2024-03-13 20:32:29.721
2.0, 8.713966896757483, -417.6888566012494, -7.016052316874266, 88.38879555277526, 0.01600000075995922, 0.0, 0.0, 0.0, 0.0, 0.0, 0.0, 0.0, 1.7103871497213829E9, 0.0, 2024-03-13 20:32:29.721
3.0, 223.3449554038234, -469.25459719030187, -245.20280069485307, 36.91655246261507, 0.01600000075995922, 0.0, 0.0, 0.0, 0.0, 0.0, 0.0, 0.0, 1.7103871497359645E9, 0.0, 2024-03-13 20:32:29.735
3.0, 454.2931274175644, -711.7048315177672, -31.56662557600066, -141.78334722016007, 0.01600000075995922, 0.0, 0.0, 0.0, 0.0, 0.0, 0.0, 0.0, 1.7103871497359645E9, 0.0, 2024-03-13 20:32:29.735
4.0, 400.6947512025945, -498.56793304299936, -109.00686400849372, 29.103901455178857, 0.01600000075995922, 0.0, 0.0, 0.0, 0.0, 0.0, 0.0, 0.0, 1.7103871497366545E9, 0.0, 2024-03-13 20:32:29.736
4.0, 385.43595938337967, -696.1505876020528, -88.0073257572949, -204.59870687592775, 0.01600000075995922, 0.0, 0.0, 0.0, 0.0, 0.0, 0.0, 0.0, 1.7103871497366545E9, 0.0, 2024-03-13 20:32:29.736
5.0, 440.8033082773909, -787.3368283216842, -26.891750631388277, -228.80707928910851, 0.01600000075995922, 0.0, 0.0, 0.0, 0.0, 0.0, 0.0, 0.0, 1.710387149750211E9, 0.0, 2024-03-13 20:32:29.750
5.0, 221.1234548301436, -726.4699565428309, 212.53664453187957, -170.17292778380215, 0.01600000075995922, 0.0, 0.0, 0.0, 0.0, 0.0, 0.0, 0.0, 1.710387149750211E9, 0.0, 2024-03-13 20:32:29.750
6.0, 7.793951507657766, -968.8248234214261, 7.603216609917581, 12.117275856435299, 0.01600000075995922, 0.0, 0.0, 0.0, 0.0, 0.0, 0.0, 0.0, 1.7103871497660916E9, 0.0, 2024-03-13 20:32:29.766
6.0, 64.65726038394496, -1168.8010139521211, 100.49672165932134, -142.48644841182977, 0.01600000075995922, 0.0, 0.0, 0.0, 0.0, 0.0, 0.0, 0.0, 1.7103871497660916E9, 0.0, 2024-03-13 20:32:29.766
7.0, 59.7505116420798, -998.1007602745667, 52.685840625781566, 69.57709877565503, 0.01600000075995922, 0.0, 0.0, 0.0, 0.0, 0.0, 0.0, 0.0, 1.7103871497668898E9, 0.0, 2024-03-13 20:32:29.766
7.0, 7.764032308012247, -898.6904795523733, -2.4795536706224084, 97.23739884793758, 0.01600000075995922, 0.0, 0.0, 0.0, 0.0, 0.0, 0.0, 0.0, 1.7103871497668898E9, 0.0, 2024-03-13 20:32:29.766
8.0, 223.78252369863912, -944.0068473154679, -231.09589806199074, 52.03696798346937, 0.01600000075995922, 0.0, 0.0, 0.0, 0.0, 0.0, 0.0, 0.0, 1.710387149780402E9, 0.0, 2024-03-13 20:32:29.780
8.0, 439.3597068944946, -721.0134425074793, -34.87643703678623, -146.00195437017828, 0.01600000075995922, 0.0, 0.0, 0.0, 0.0, 0.0, 0.0, 0.0, 1.710387149780402E9, 0.0, 2024-03-13 20:32:29.780
9.0, 396.93241184717044, -502.5135274962522, -113.62190055381507, 28.774790259078145, 0.01600000075995922, 0.0, 0.0, 0.0, 0.0, 0.0, 0.0, 0.0, 1.710387149796275E9, 0.0, 2024-03-13 20:32:29.796
9.0, 381.59508212888613, -693.2035464369692, -87.53983826283365, -199.6844783341512, 0.01600000075995922, 0.0, 0.0, 0.0, 0.0, 0.0, 0.0, 0.0, 1.710387149796275E9, 0.0, 2024-03-13 20:32:29.796
10.0, 449.78654797095805, -778.2226921296678, -15.675790664274246, -224.02374724578112, 0.01600000075995922, 0.0, 1.0560000501573086, 0.0, 0.0, 0.0, 0.0, 0.0, 1.710387149796693E9, 0.0, 2024-03-13 20:32:29.796
10.0, 223.24397810501978, -720.9760435079224, 208.635928878095, -171.32481697015464, 0.01600000075995922, 0.0, 1.0560000501573086, 0.0, 0.0, 0.0, 0.0, 0.0, 1.710387149796693E9, 0.0, 2024-03-13 20:32:29.796
11.0, 6.533605222590268, -961.2216068115085, 10.804570971988142, 15.352289318107069, 0.01600000075995922, -0.12800000607967377, 1.0560000501573086, 0.0, 0.0, 0.0, 0.0, 0.0, 1.7103871498103173E9, 0.0, 2024-03-13 20:32:29.810
11.0, 62.89202760485932, -1162.8396134227514, 99.40467087225989, -140.8034934317693, 0.01600000075995922, -0.12800000607967377, 1.0560000501573086, 0.0, 0.0, 0.0, 0.0, 0.0, 1.7103871498103173E9, 0.0, 2024-03-13 20:32:29.810
12.0, 69.94921882124618, -993.526862628758, 48.0782838803716, 67.50519420020282, 0.01600000075995922, -0.12800000607967377, 1.0560000501573086, 0.0, 0.0, 0.0, 0.0, 0.0, 1.7103871498261228E9, 0.0, 2024-03-13 20:32:29.826
12.0, -0.13089649844914675, -896.0575899835676, 0.029919199645519257, 95.28143117111176, 0.01600000075995922, -0.12800000607967377, 1.0560000501573086, 0.0, 0.0, 0.0, 0.0, 0.0, 1.7103871498261228E9, 0.0, 2024-03-13 20:32:29.826
13.0, 241.00476299459115, -933.8717184355482, -227.6626699026674, 60.926710178144276, 0.01600000075995922, -0.12800000607967377, 1.0560000501573086, 0.0, 0.0, 0.0, 0.0, 0.0, 1.7103871498266912E9, 0.0, 2024-03-13 20:32:29.826
13.0, 458.3583986693993, -705.459198591765, -30.706448586191982, -136.78310097940266, 0.01600000075995922, -0.12800000607967377, 1.0560000501573086, 0.0, 0.0, 0.0, 0.0, 0.0, 1.7103871498266912E9, 0.0, 2024-03-13 20:32:29.826
14.0, 402.22811018442735, -499.34209233382717, -126.39739880245179, 17.199799896217883, 0.01600000075995922, -0.12800000607967377, 1.0560000501573086, 0.0, 0.0, 0.0, 0.0, 0.0, 1.710387149840281E9, 0.0, 2024-03-13 20:32:29.840
14.0, 367.79859119234607, -691.0605837623589, -97.31967664696276, -205.14847216941416, 0.01600000075995922, -0.12800000607967377, 1.0560000501573086, 0.0, 0.0, 0.0, 0.0, 0.0, 1.710387149840281E9, 0.0, 2024-03-13 20:32:29.840
15.0, 448.15595159027725, -774.0452238791622, -18.34981913259253, -224.4052170412615, 0.01600000075995922, -0.12800000607967377, 1.0560000501573086, 0.0, 0.0, 0.0, 0.0, 0.0, 1.7103871498561213E9, 0.0, 2024-03-13 20:32:29.856
15.0, 232.73584419256076, -722.0531346951611, 200.5614848737605, -174.49625213257968, 0.01600000075995922, -0.12800000607967377, 1.0560000501573086, 0.0, 0.0, 0.0, 0.0, 0.0, 1.7103871498561213E9, 0.0, 2024-03-13 20:32:29.856
16.0, 6.948734117671847, -965.9974590549245, 3.661362056620419, 7.498499411158264, 0.01600000075995922, -0.12800000607967377, 1.0560000501573086, 0.0, 0.0, 0.0, 0.0, 0.0, 1.710387149856848E9, 0.0, 2024-03-13 20:32:29.856
16.0, 73.38992678048089, -1159.11841296684, 91.89121186127886, -149.0013541346416, 0.01600000075995922, -0.12800000607967377, 1.0560000501573086, 0.0, 0.0, 0.0, 0.0, 0.0, 1.710387149856848E9, 0.0, 2024-03-13 20:32:29.856
17.0, 41.38386295968667, -1005.6403985852376, 35.30278563173488, 50.24181600473821, 0.01600000075995922, -0.12800000607967377, 1.0560000501573086, 0.0, 0.0, 0.0, 0.0, 0.0, 1.7103871498704844E9, 0.0, 2024-03-13 20:32:29.870
17.0, -7.8687495067715645, -909.4090328253806, -22.52167753316462, 78.96798756439239, 0.01600000075995922, -0.12800000607967377, 1.0560000501573086, 0.0, 0.0, 0.0, 0.0, 0.0, 1.7103871498704844E9, 0.0, 2024-03-13 20:32:29.870
18.0, 233.3566675852053, -940.7793136537075, -241.35070374049246, 45.98954975511879, 0.01600000075995922, -0.12800000607967377, 1.0560000501573086, 0.0, 0.0, 0.0, 0.0, 0.0, 1.710387149885956E9, 0.0, 2024-03-13 20:32:29.885
18.0, 427.37332753650844, -717.3595602507703, -39.828064578119665, -151.57066540420055, 0.01600000075995922, -0.12800000607967377, 1.0560000501573086, 0.0, 0.0, 0.0, 0.0, 0.0, 1.710387149885956E9, 0.0, 2024-03-13 20:32:29.885
19.0, 389.40399323636666, -499.7460015290417, -116.1687724236399, 25.464978798292577, 0.01600000075995922, -0.12800000607967377, 1.0560000501573086, 0.0, 0.0, 0.0, 0.0, 0.0, 1.7103871498866277E9, 0.0, 2024-03-13 20:32:29.886
19.0, 390.96727141784504, -687.1972671081312, -89.48084633983672, -198.62982654664665, 0.01600000075995922, -0.12800000607967377, 1.0560000501573086, 0.0, 0.0, 0.0, 0.0, 0.0, 1.7103871498866277E9, 0.0, 2024-03-13 20:32:29.886
20.0, 453.15245793107897, -778.944492821116, -20.414243908133358, -228.06283919792622, 0.01600000075995922, -0.12800000607967377, 1.0560000501573086, 0.0, 0.0, 0.0, 0.0, 0.0, 1.710387149900268E9, 0.0, 2024-03-13 20:32:29.900
20.0, 216.79639058141038, -731.7918341797777, 195.72953413100913, -183.02322403155267, 0.01600000075995922, -0.12800000607967377, 1.0560000501573086, 0.0, 0.0, 0.0, 0.0, 0.0, 1.710387149900268E9, 0.0, 2024-03-13 20:32:29.900
21.0, -3.302331660874188, -487.4305109749548, 2.8423239663243294, 0.8639168897643685, 0.01600000075995922, -0.11200000531971455, 1.0560000501573086, 0.0, 0.0, 0.0, 0.0, 0.0, 1.710387149916106E9, 0.0, 2024-03-13 20:32:29.916
21.0, 69.65376672474667, -675.4876403468661, 90.75428227474913, -153.7809462780133, 0.01600000075995922, -0.11200000531971455, 1.0560000501573086, 0.0, 0.0, 0.0, 0.0, 0.0, 1.710387149916106E9, 0.0, 2024-03-13 20:32:29.916
22.0, 60.91736042825505, -511.3770903912373, 36.79874561401084, 52.111765982583165, 0.01600000075995922, -0.11200000531971455, 1.0560000501573086, 0.0, 0.0, 0.0, 0.0, 0.0, 1.7103871499166648E9, 0.0, 2024-03-13 20:32:29.916
22.0, 3.784778755158186, -412.6624310608022, -19.956106163561344, 83.07065781578422, 0.01600000075995922, -0.11200000531971455, 1.0560000501573086, 0.0, 0.0, 0.0, 0.0, 0.0, 1.7103871499166648E9, 0.0, 2024-03-13 20:32:29.916
23.0, 234.51603657146916, -446.95357375452295, -232.93592884019017, 55.746948739513755, 0.01600000075995922, -0.11200000531971455, 1.0560000501573086, 0.0, 0.0, 0.0, 0.0, 0.0, 1.710387149930626E9, 0.0, 2024-03-13 20:32:29.930
23.0, 442.44512435793877, -236.5224928976968, -39.794405478518456, -153.2162213847041, 0.01600000075995922, -0.11200000531971455, 1.0560000501573086, 0.0, 0.0, 0.0, 0.0, 0.0, 1.710387149930626E9, 0.0, 2024-03-13 20:32:29.930
24.0, 386.2849166733213, -19.6756136668846, -134.75981510337442, 10.991565969772637, 0.01600000075995922, -0.11200000531971455, 1.0560000501573086, 0.0, 0.0, 0.0, 0.0, 0.0, 1.7103871499462097E9, 0.0, 2024-03-13 20:32:29.946
24.0, 389.5386296347715, -188.96218516118824, -89.43970744032413, -194.32520169764757, 0.01600000075995922, -0.11200000531971455, 1.0560000501573086, 0.0, 0.0, 0.0, 0.0, 0.0, 1.7103871499462097E9, 0.0, 2024-03-13 20:32:29.946
25.0, 461.0735660372302, -275.5109499357641, -13.001762195955962, -221.1028853803873, 0.01600000075995922, -0.11200000531971455, 1.0560000501573086, 0.0, 0.0, 0.0, 0.0, 0.0, 1.710387149946852E9, 0.0, 2024-03-13 20:32:29.946
25.0, 240.9150053956546, -237.10217739082873, 204.95960722165182, -182.09572884254158, 0.01600000075995922, -0.11200000531971455, 1.0560000501573086, 0.0, 0.0, 0.0, 0.0, 0.0, 1.710387149946852E9, 0.0, 2024-03-13 20:32:29.946
26.0, 474.78216932481155, -471.07966836867854, 5.950180829502642, 15.030657921917737, 0.01600000075995922, -0.11200000531971455, 1.0560000501573086, 0.0, 0.0, 0.0, 0.0, 0.0, 1.7103871499603057E9, 0.0, 2024-03-13 20:32:29.960
26.0, 542.9137967675924, -662.3643314023502, 104.12816451629624, -138.3987377602607, 0.01600000075995922, -0.11200000531971455, 1.0560000501573086, 0.0, 0.0, 0.0, 0.0, 0.0, 1.7103871499603057E9, 0.0, 2024-03-13 20:32:29.960
27.0, 532.0531272962689, -510.3747972031124, 44.04293182818219, 54.60627925302833, 0.01600000075995922, -0.11200000531971455, 1.0560000501573086, 0.0, 0.0, 0.0, 0.0, 0.0, 1.71038714997626E9, 0.0, 2024-03-13 20:32:29.976
27.0, 468.7609303961508, -423.61659803101793, -24.20463251322508, 78.58277786895633, 0.01600000075995922, -0.11200000531971455, 1.0560000501573086, 0.0, 0.0, 0.0, 0.0, 0.0, 1.71038714997626E9, 0.0, 2024-03-13 20:32:29.976
28.0, 224.3098495923914, -448.1129427407868, -234.61140402033925, 55.1747440462932, 0.01600000075995922, -0.11200000531971455, 1.0560000501573086, 0.0, 0.0, 0.0, 0.0, 0.0, 1.7103871499766493E9, 0.0, 2024-03-13 20:32:29.976
28.0, 455.24306200630963, -230.9612616635859, -36.52947281720117, -148.8068793369457, 0.01600000075995922, -0.11200000531971455, 1.0560000501573086, 0.0, 0.0, 0.0, 0.0, 0.0, 1.7103871499766493E9, 0.0, 2024-03-13 20:32:29.976
29.0, 392.11168080428615, -20.337575959041715, -116.5390225192532, 20.042123862542212, 0.01600000075995922, -0.11200000531971455, 1.0560000501573086, 0.0, 0.0, 0.0, 0.0, 0.0, 1.7103871499905224E9, 0.0, 2024-03-13 20:32:29.990
29.0, 388.74577084416524, -184.02177731972188, -77.94325497653335, -182.3051632400602, 0.01600000075995922, -0.11200000531971455, 1.0560000501573086, 0.0, 0.0, 0.0, 0.0, 0.0, 1.7103871499905224E9, 0.0, 2024-03-13 20:32:29.990
30.0, 434.9952436462045, -288.3986451830715, -20.37684490857646, -224.16212354414165, 0.01600000075995922, -0.11200000531971455, 1.0560000501573086, 0.0, 0.0, 0.0, 0.0, 0.0, 1.7103871500059328E9, 0.0, 2024-03-13 20:32:30.005
30.0, 222.94852600852028, -241.91542863380164, 204.27520552976057, -175.01983812637627, 0.01600000075995922, -0.11200000531971455, 1.0560000501573086, 0.0, 0.0, 0.0, 0.0, 0.0, 1.7103871500059328E9, 0.0, 2024-03-13 20:32:30.005
31.0, -1.2266871854662895, -485.908371692989, -1.006033088080585, 4.6486956449225545, 0.01600000075995922, -0.11200000531971455, 1.0560000501573086, 0.0, 0.0, 0.0, 0.0, 0.0, 1.7103871500066502E9, 0.0, 2024-03-13 20:32:30.006
31.0, 81.7598228813149, -663.4937811889686, 100.03671396477148, -134.62891860492527, 0.01600000075995922, -0.11200000531971455, 1.0560000501573086, 0.0, 0.0, 0.0, 0.0, 0.0, 1.7103871500066502E9, 0.0, 2024-03-13 20:32:30.006
32.0, 55.03075789799914, -509.6230773120187, 42.74892644351348, 54.33700645621866, 0.0, -0.11200000531971455, 1.0560000501573086, 0.0, 0.0, 0.0, 0.0, 0.0, 1.710387150020281E9, 0.0, 2024-03-13 20:32:30.020
32.0, -6.140915727242827, -423.5118808322586, -24.93391300458461, 79.54393215756863, 0.0, -0.11200000531971455, 1.0560000501573086, 0.0, 0.0, 0.0, 0.0, 0.0, 1.710387150020281E9, 0.0, 2024-03-13 20:32:30.020
33.0, -240.42320855148137, -441.35120362089947, -227.53551330417395, 65.57914572302252, 0.0, -0.11200000531971455, 1.0560000501573086, 0.0, 0.0, 0.0, 0.0, 0.0, 1.7103871500361304E9, 0.0, 2024-03-13 20:32:30.036
33.0, -50.17636775551364, -236.69452829565853, -37.29989220807329, -154.39802977070212, 0.0, -0.11200000531971455, 1.0560000501573086, 0.0, 0.0, 0.0, 0.0, 0.0, 1.7103871500361304E9, 0.0, 2024-03-13 20:32:30.036
34.0, -131.84643303789198, -31.40393992792815, -125.17445151694119, 11.148641767911613, 0.0, -0.11200000531971455, 1.0560000501573086, 0.0, 0.0, 0.0, 0.0, 0.0, 1.7103871500369017E9, 0.0, 2024-03-13 20:32:30.036
34.0, -124.56484782416373, -192.78062301594764, -78.43692177068442, -188.94722556136549, 0.0, -0.11200000531971455, 1.0560000501573086, 0.0, 0.0, 0.0, 0.0, 0.0, 1.7103871500369017E9, 0.0, 2024-03-13 20:32:30.036
35.0, -41.72419385565445, -281.457390865311, -5.41724508581683, -218.5522736106068, 0.0, -0.11200000531971455, 1.0560000501573086, 0.0, 0.0, 0.0, 0.0, 0.0, 1.710387150050291E9, 0.0, 2024-03-13 20:32:30.050
35.0, -263.43855287879705, -245.55061139073223, 205.96190040977672, -183.3785145273432, 0.0, -0.11200000531971455, 1.0560000501573086, 0.0, 0.0, 0.0, 0.0, 0.0, 1.710387150050291E9, 0.0, 2024-03-13 20:32:30.050
36.0, -479.03817547438666, -478.828741076868, 5.6958676325157285, 8.119322803802788, 0.0, -0.11200000531971455, 1.0560000501573086, 0.0, 0.0, 0.0, 0.0, 0.0, 1.7103871500660367E9, 0.0, 2024-03-13 20:32:30.066
36.0, -407.66405477002263, -663.9388292836957, 104.57321261102334, -137.90133106615394, 0.0, -0.11200000531971455, 1.0560000501573086, 0.0, 0.0, 0.0, 0.0, 0.0, 1.7103871500660367E9, 0.0, 2024-03-13 20:32:30.066
37.0, -430.6793990973383, -525.4017152250744, 35.792712525930256, 40.3161215223372, 0.0, -0.11200000531971455, 1.0560000501573086, 0.0, 0.0, 0.0, 0.0, 0.0, 1.7103871500668528E9, 0.0, 2024-03-13 20:32:30.066
37.0, -482.0151358391158, -420.11979157244787, -14.753905325196683, 81.83649083040655, 0.0, -0.11200000531971455, 1.0560000501573086, 0.0, 0.0, 0.0, 0.0, 0.0, 1.7103871500668528E9, 0.0, 2024-03-13 20:32:30.066
38.0, -242.27445902954787, -440.36387003259733, -221.53671377524734, 62.66950355749577, 0.0, -0.11200000531971455, 1.0560000501573086, 0.0, 0.0, 0.0, 0.0, 0.0, 1.7103871500804076E9, 0.0, 2024-03-13 20:32:30.080
38.0, -53.32910341816023, -251.40729472134262, -54.372535505797714, -168.0823237085715, 0.0, -0.11200000531971455, 1.0560000501573086, 0.0, 0.0, 0.0, 0.0, 0.0, 1.7103871500804076E9, 0.0, 2024-03-13 20:32:30.080
39.0, -114.51199674326926, -40.65271251834929, -134.4007847076282, 4.506579446606338, 0.0, -0.11200000531971455, 1.0560000501573086, 0.0, 0.0, 0.0, 0.0, 0.0, 1.7103871500961487E9, 0.0, 2024-03-13 20:32:30.096
39.0, -98.36310873460025, -196.52426287159324, -83.56806450989097, -188.81258916296065, 0.0, -0.11200000531971455, 1.0560000501573086, 0.0, 0.0, 0.0, 0.0, 0.0, 1.7103871500961487E9, 0.0, 2024-03-13 20:32:30.096
40.0, -27.894043819513172, -286.4800765058026, -6.587833771947771, -217.64347792137414, 0.0, -0.11200000531971455, 1.0560000501573086, 0.0, 0.0, 0.0, 0.0, 0.0, 1.7103871500966332E9, 0.0, 2024-03-13 20:32:30.096
40.0, -262.18568639364094, -250.3376833340153, 205.28871841775253, -182.41362033877522, 0.0, -0.11200000531971455, 1.0560000501573086, 0.0, 0.0, 0.0, 0.0, 0.0, 1.7103871500966332E9, 0.0, 2024-03-13 20:32:30.096
41.0, -488.33930666418746, -481.45789074571803, 4.876829542219639, 13.721692937426269, 0.0, -0.11200000531971455, 1.0560000501573086, 0.0, 0.0, 0.0, 0.0, 0.0, 1.7103871501102872E9, 0.0, 2024-03-13 20:32:30.110
41.0, -411.84152302052826, -664.6307107754983, 109.25182745559141, -132.48221603035927, 0.0, -0.11200000531971455, 1.0560000501573086, 0.0, 0.0, 0.0, 0.0, 0.0, 1.7103871501102872E9, 0.0, 2024-03-13 20:32:30.110
42.0, -430.78037639614195, -522.2377598625608, 47.464940287638456, 53.45439006667584, 0.01600000075995922, -0.11200000531971455, 1.0560000501573086, 0.0, 0.0, 0.0, 0.0, 0.0, 1.7103871501262145E9, 0.0, 2024-03-13 20:32:30.126
42.0, -483.27174222422764, -417.01193470926955, -5.460253935307264, 95.01589827425778, 0.01600000075995922, -0.11200000531971455, 1.0560000501573086, 0.0, 0.0, 0.0, 0.0, 0.0, 1.7103871501262145E9, 0.0, 2024-03-13 20:32:30.126
43.0, -248.65472835395485, -441.0819308240898, -217.2919273255393, 71.09175825770944, 0.01600000075995922, -0.11200000531971455, 1.0560000501573086, 0.0, 0.0, 0.0, 0.0, 0.0, 1.7103871501267948E9, 0.0, 2024-03-13 20:32:30.126
43.0, -49.65652166167274, -243.2281335182488, -32.73347436217591, -150.6656096149236, 0.01600000075995922, -0.11200000531971455, 1.0560000501573086, 0.0, 0.0, 0.0, 0.0, 0.0, 1.7103871501267948E9, 0.0, 2024-03-13 20:32:30.126
44.0, -101.6392610957846, -27.7537975711748, -112.4213926680386, 18.340469382703304, 0.01600000075995922, -0.11200000531971455, 1.0560000501573086, 0.0, 0.0, 0.0, 0.0, 0.0, 1.7103871501407883E9, 0.0, 2024-03-13 20:32:30.140
44.0, -105.3455019518733, -192.92647911421955, -83.90465550590307, -191.32206203322858, 0.01600000075995922, -0.11200000531971455, 1.0560000501573086, 0.0, 0.0, 0.0, 0.0, 0.0, 1.7103871501407883E9, 0.0, 2024-03-13 20:32:30.140
45.0, -45.441654411610216, -295.5755131980404, -16.603285853285342, -226.61549791507423, 0.01600000075995922, -0.11200000531971455, 1.0560000501573086, 0.0, 0.0, 0.0, 0.0, 0.0, 1.7103871501561773E9, 0.0, 2024-03-13 20:32:30.156
45.0, 196.7056480194442, -266.21355864591897, 189.26324710762128, -198.60364724695683, 0.01600000075995922, -0.11200000531971455, 1.0560000501573086, 0.0, 0.0, 0.0, 0.0, 0.0, 1.7103871501561773E9, 0.0, 2024-03-13 20:32:30.156
46.0, -12.584763350896537, -474.8270481242798, 11.204740267246962, 21.30994994752109, 0.01600000075995922, -0.11200000531971455, 1.0560000501573086, 0.0, 0.0, 0.0, 0.0, 0.0, 1.7103871501567636E9, 0.0, 2024-03-13 20:32:30.156
46.0, 68.74123113555834, -659.0059012421407, 114.87663698894903, -127.11919949389994, 0.01600000075995922, -0.11200000531971455, 1.0560000501573086, 0.0, 0.0, 0.0, 0.0, 0.0, 1.7103871501567636E9, 0.0, 2024-03-13 20:32:30.156
47.0, 53.4151211171411, -516.6802685284056, 46.855336594861, 52.81486717425287, 0.01600000075995922, -0.11200000531971455, 1.0560000501573086, 0.0, 0.0, 0.0, 0.0, 0.0, 1.7103871501702733E9, 0.0, 2024-03-13 20:32:30.170
47.0, -0.38894959539175034, -413.1822771546431, -12.0424778573215, 95.45720646902919, 0.01600000075995922, -0.11200000531971455, 1.0560000501573086, 0.0, 0.0, 0.0, 0.0, 0.0, 1.7103871501702733E9, 0.0, 2024-03-13 20:32:30.170
48.0, 228.37886074418202, -438.3667634562589, -222.66242366191, 69.46490177698433, 0.01600000075995922, -0.11200000531971455, 1.0560000501573086, 0.0, 0.0, 0.0, 0.0, 0.0, 1.7103871501860886E9, 0.0, 2024-03-13 20:32:30.186
48.0, 436.9848704226315, -246.5641242787242, -41.15198916243389, -165.1502421433106, 0.01600000075995922, -0.11200000531971455, 1.0560000501573086, 0.0, 0.0, 0.0, 0.0, 0.0, 1.7103871501860886E9, 0.0, 2024-03-13 20:32:30.186
49.0, 374.17886051675305, -40.73125041741878, -130.29437455628067, 2.0756444754078984, 0.01600000075995922, -0.11200000531971455, 1.0560000501573086, 0.0, 0.0, 0.0, 0.0, 0.0, 1.7103871501866434E9, 0.0, 2024-03-13 20:32:30.186
49.0, 386.7935430672951, -194.60569419432431, -84.14400910306722, -185.4204999031499, 0.01600000075995922, -0.11200000531971455, 1.0560000501573086, 0.0, 0.0, 0.0, 0.0, 0.0, 1.7103871501866434E9, 0.0, 2024-03-13 20:32:30.186
50.0, 451.9182909457013, -296.45438968762755, -8.577460548374802, -224.38651754148304, 0.01600000075995922, -0.11200000531971455, 1.0560000501573086, 0.0, 0.0, 0.0, 0.0, 0.0, 1.710387150200488E9, 0.0, 2024-03-13 20:32:30.200
50.0, 693.7813609801233, -269.8412616029382, 200.31839137664065, -196.08295467682183, 0.01600000075995922, -0.11200000531971455, 1.0560000501573086, 0.0, 0.0, 0.0, 0.0, 0.0, 1.710387150200488E9, 0.0, 2024-03-13 20:32:30.200
51.0, 471.03104966925457, -490.2952743410133, -3.3546902602538466, 1.492220082320273, 0.01600000075995922, -0.11200000531971455, 1.0560000501573086, 0.0, 0.0, 0.0, 0.0, 0.0, 1.7103871502159083E9, 0.0, 2024-03-13 20:32:30.215
51.0, 586.6519267493859, -669.6795757156797, 102.91643693065271, -140.70625603292137, 0.01600000075995922, -0.11200000531971455, 1.0560000501573086, 0.0, 0.0, 0.0, 0.0, 0.0, 1.7103871502159083E9, 0.0, 2024-03-13 20:32:30.215
52.0, 526.0281484676525, -525.0539045291953, 46.02881870465353, 46.32988065108657, 0.01600000075995922, -0.11200000531971455, 1.0560000501573086, 0.0, 0.0, 0.0, 0.0, 0.0, 1.710387150216582E9, 0.0, 2024-03-13 20:32:30.216
52.0, 474.74477032525465, -418.2236622949131, -16.212466307915747, 84.27490560151637, 0.01600000075995922, -0.11200000531971455, 1.0560000501573086, 0.0, 0.0, 0.0, 0.0, 0.0, 1.710387150216582E9, 0.0, 2024-03-13 20:32:30.216
53.0, 246.93998422427103, -435.53565918980166, -216.98151562921703, 68.17089639231563, 0.01600000075995922, -0.11200000531971455, 1.0560000501573086, 0.0, 0.0, 0.0, 0.0, 0.0, 1.710387150230684E9, 0.0, 2024-03-13 20:32:30.230
53.0, 433.78351606056094, -246.92689457442611, -36.31629851972684, -161.53001898620278, 0.01600000075995922, -0.11200000531971455, 1.0560000501573086, 0.0, 0.0, 0.0, 0.0, 0.0, 1.710387150230684E9, 0.0, 2024-03-13 20:32:30.230
54.0, 377.2680178801529, -31.609634425491095, -121.70008445810527, 10.385702176950872, 0.01600000075995922, -0.11200000531971455, 1.0560000501573086, 0.0, 0.0, 0.0, 0.0, 0.0, 1.7103871502461705E9, 0.0, 2024-03-13 20:32:30.246
54.0, 397.59063423937187, -176.44847990944982, -67.48275480046868, -177.22263920027763, 0.01600000075995922, -0.11200000531971455, 1.0560000501573086, 0.0, 0.0, 0.0, 0.0, 0.0, 1.7103871502461705E9, 0.0, 2024-03-13 20:32:30.246
55.0, 444.5132890334353, -297.60253897402436, -8.379245850723237, -223.07755255699158, 0.01600000075995922, -0.11200000531971455, 1.0560000501573086, 0.0, 0.0, 0.0, 0.0, 0.0, 1.7103871502466667E9, 0.0, 2024-03-13 20:32:30.246
55.0, 200.55026517389342, -271.92812577821314, 196.67572881979868, -197.88932635542005, 0.01600000075995922, -0.11200000531971455, 1.0560000501573086, 0.0, 0.0, 0.0, 0.0, 0.0, 1.7103871502466667E9, 0.0, 2024-03-13 20:32:30.246
56.0, -15.105455921031535, -482.9875098275952, -3.186394762247801, 7.075890716165304, 0.01600000075995922, -0.11200000531971455, 1.0560000501573086, 0.0, 0.0, 0.0, 0.0, 0.0, 1.710387150260564E9, 0.0, 2024-03-13 20:32:30.260
56.0, 71.62095410143957, -666.5231001530774, 107.53147347597405, -136.03512098826468, 0.01600000075995922, -0.11200000531971455, 1.0560000501573086, 0.0, 0.0, 0.0, 0.0, 0.0, 1.710387150260564E9, 0.0, 2024-03-13 20:32:30.260
57.0, 43.75121963163838, -533.5808764281683, 37.5542054050602, 39.45968443248421, 0.01600000075995922, -0.11200000531971455, 1.0560000501573086, 0.0, 0.0, 0.0, 0.0, 0.0, 1.7103871502759292E9, 0.0, 2024-03-13 20:32:30.275
57.0, -0.5946440929546952, -421.41753685707226, -17.424193893559277, 88.8936820467934, 0.01600000075995922, -0.11200000531971455, 1.0560000501573086, 0.0, 0.0, 0.0, 0.0, 0.0, 1.7103871502759292E9, 0.0, 2024-03-13 20:32:30.275
58.0, -224.67822973802686, -433.2206611172296, -221.79850677214563, 66.98160820640624, 0.01600000075995922, -0.11200000531971455, 1.0560000501573086, 0.0, 0.0, 0.0, 0.0, 0.0, 1.7103871502767737E9, 0.0, 2024-03-13 20:32:30.276
58.0, -16.214336257893592, -237.47616738639772, -30.938322383444756, -155.80797205399722, 0.01600000075995922, -0.11200000531971455, 1.0560000501573086, 0.0, 0.0, 0.0, 0.0, 0.0, 1.7103871502767737E9, 0.0, 2024-03-13 20:32:30.276
59.0, -134.3596458081156, -42.15989220049232, -135.2871409971267, -1.2528664851561189, 0.01600000075995922, -0.11200000531971455, 1.0560000501573086, 0.0, 0.0, 0.0, 0.0, 0.0, 1.710387150290285E9, 0.0, 2024-03-13 20:32:30.290
59.0, -95.66664086654782, -176.6354749072343, -72.96544813551009, -181.26173115242273, 0.01600000075995922, -0.11200000531971455, 1.0560000501573086, 0.0, 0.0, 0.0, 0.0, 0.0, 1.710387150290285E9, 0.0, 2024-03-13 20:32:30.290
60.0, -24.629111158195883, -285.96397031191736, -11.105632918421179, -224.75676763709635, 0.01600000075995922, -0.11200000531971455, 1.0560000501573086, 0.0, 0.0, 0.0, 0.0, 0.0, 1.7103871503058827E9, 0.0, 2024-03-13 20:32:30.305
60.0, 219.66863374738023, -264.9719118606299, 190.19822209654376, -198.22217745147645, 0.01600000075995922, -0.11200000531971455, 1.0560000501573086, 0.0, 0.0, 0.0, 0.0, 0.0, 1.7103871503058827E9, 0.0, 2024-03-13 20:32:30.305
61.0, -0.6694420920684934, -469.77818318409845, 5.968880329281092, 19.36894187051803, 0.01600000075995922, -0.12800000607967377, 1.0560000501573086, 0.0, 0.0, 0.0, 0.0, 0.0, 1.7103871503066463E9, 0.0, 2024-03-13 20:32:30.306
61.0, 70.82061551092193, -654.8957511908375, 111.69772202661261, -127.82230068556964, 0.01600000075995922, -0.12800000607967377, 1.0560000501573086, 0.0, 0.0, 0.0, 0.0, 0.0, 1.7103871503066463E9, 0.0, 2024-03-13 20:32:30.306
62.0, 45.40425541205332, -532.5935428398661, 37.864617101382464, 39.45220463257283, 0.01600000075995922, -0.12800000607967377, 1.0560000501573086, 0.0, 0.0, 0.0, 0.0, 0.0, 1.7103871503202777E9, 0.0, 2024-03-13 20:32:30.320
62.0, -5.800584831275046, -420.8079331642948, -12.663301249966025, 88.98717954568565, 0.01600000075995922, -0.12800000607967377, 1.0560000501573086, 0.0, 0.0, 0.0, 0.0, 0.0, 1.7103871503202777E9, 0.0, 2024-03-13 20:32:30.320
63.0, -236.62347019650042, -422.83869884023443, -214.0681335637346, 76.11818379815668, 0.01600000075995922, -0.12800000607967377, 1.0560000501573086, 0.0, 0.0, 0.0, 0.0, 0.0, 1.7103871503359127E9, 0.0, 2024-03-13 20:32:30.335
63.0, -41.37638315977529, -233.93448212835938, -30.654089986812323, -155.9613079521805, 0.01600000075995922, -0.12800000607967377, 1.0560000501573086, 0.0, 0.0, 0.0, 0.0, 0.0, 1.7103871503359127E9, 0.0, 2024-03-13 20:32:30.335
64.0, -108.64783361274749, -25.165786801837385, -128.63759887591004, 7.124509415589273, 0.01600000075995922, -0.12800000607967377, 1.0560000501573086, 0.0, 0.0, 0.0, 0.0, 0.0, 1.7103871503365805E9, 0.0, 2024-03-13 20:32:30.336
64.0, -89.61922263819724, -171.3397765699774, -75.3328048074618, -176.7888108054176, 0.01600000075995922, -0.12800000607967377, 1.0560000501573086, 0.0, 0.0, 0.0, 0.0, 0.0, 1.7103871503365805E9, 0.0, 2024-03-13 20:32:30.336
65.0, -36.09190452238545, -283.97060363553464, -1.969057326670736, -217.42282382398844, 0.01600000075995922, -0.12800000607967377, 1.0560000501573086, 0.0, 0.0, 0.0, 0.0, 0.0, 1.710387150350319E9, 0.0, 2024-03-13 20:32:30.350
65.0, -275.62688683439046, -249.73555944114923, 206.2984914057888, -182.02841064333916, 0.01600000075995922, -0.12800000607967377, 1.0560000501573086, 0.0, 0.0, 0.0, 0.0, 0.0, 1.710387150350319E9, 0.0, 2024-03-13 20:32:30.350
66.0, -477.89376608794555, -458.3116499199532, 15.838476312346756, 29.492851050570607, 0.01600000075995922, -0.12800000607967377, 1.0560000501573086, 0.0, 0.0, 0.0, 0.0, 0.0, 1.7103871503662548E9, 0.0, 2024-03-13 20:32:30.366
66.0, -405.72678659297526, -659.3462321381085, 113.64994980348274, -127.81108098570257, 0.01600000075995922, -0.12800000607967377, 1.0560000501573086, 0.0, 0.0, 0.0, 0.0, 0.0, 1.7103871503662548E9, 0.0, 2024-03-13 20:32:30.366
67.0, -434.52401625178754, -525.7944047204219, 37.72998070297763, 37.70567135326564, 0.01600000075995922, -0.12800000607967377, 1.0560000501573086, 0.0, 0.0, 0.0, 0.0, 0.0, 1.7103871503669195E9, 0.0, 2024-03-13 20:32:30.366
67.0, -506.9565286436118, -412.0303879682906, -16.52287800423801, 87.62959586177021, 0.01600000075995922, -0.12800000607967377, 1.0560000501573086, 0.0, 0.0, 0.0, 0.0, 0.0, 1.7103871503669195E9, 0.0, 2024-03-13 20:32:30.366
68.0, -736.0403605294414, -433.46375461434945, -222.3669715654105, 69.22180827986449, 0.01600000075995922, -0.12800000607967377, 1.0560000501573086, 0.0, 0.0, 0.0, 0.0, 0.0, 1.7103871503806202E9, 0.0, 2024-03-13 20:32:30.380
68.0, -524.0385216912255, -238.69163487199694, -42.247779849451035, -161.93766808137298, 0.01600000075995922, -0.12800000607967377, 1.0560000501573086, 0.0, 0.0, 0.0, 0.0, 0.0, 1.7103871503806202E9, 0.0, 2024-03-13 20:32:30.380
69.0, -602.2828386141919, -33.75259710010141, -136.27821448538452, 7.771512107923627, 0.01600000075995922, -0.12800000607967377, 1.0560000501573086, 0.0, 0.0, 0.0, 0.0, 0.0, 1.710387150396246E9, 0.0, 2024-03-13 20:32:30.396
69.0, -577.3227463099174, -170.4122813809663, -68.39903028961271, -167.58865691442043, 0.01600000075995922, -0.12800000607967377, 1.0560000501573086, 0.0, 0.0, 0.0, 0.0, 0.0, 1.710387150396246E9, 0.0, 2024-03-13 20:32:30.396
70.0, -533.3733119806275, -299.38273135293275, -19.703662916552275, -233.78862603008747, 0.01600000075995922, -0.12800000607967377, 1.0560000501573086, 0.0, 0.0, 0.0, 0.0, 0.0, 1.710387150396659E9, 0.0, 2024-03-13 20:32:30.396
70.0, -767.5564974560402, -263.5432700775564, 196.5934510207735, -198.73454374540597, 0.01600000075995922, -0.12800000607967377, 1.0560000501573086, 0.0, 0.0, 0.0, 0.0, 0.0, 1.710387150396659E9, 0.0, 2024-03-13 20:32:30.396
71.0, -966.6295021474361, -460.06566299917176, 18.10485568549484, 31.134667131118476, 0.01600000075995922, -0.11200000531971455, 1.0560000501573086, 0.0, 0.0, 0.0, 0.0, 0.0, 1.7103871504105244E9, 0.0, 2024-03-13 20:32:30.410
71.0, -898.1687635085545, -656.3617919734679, 117.0756981628947, -129.4267177665606, 0.01600000075995922, -0.11200000531971455, 1.0560000501573086, 0.0, 0.0, 0.0, 0.0, 0.0, 1.7103871504105244E9, 0.0, 2024-03-13 20:32:30.410
72.0, -933.3649619915523, -529.9681330709718, 36.84362441347912, 42.818114592693746, 0.01600000075995922, -0.11200000531971455, 1.0560000501573086, 0.0, 0.0, 0.0, 0.0, 0.0, 1.710387150425983E9, 0.0, 2024-03-13 20:32:30.425
72.0, -976.5252774301916, -405.0966134504415, -15.389688317663968, 93.53115799184889, 0.01600000075995922, -0.11200000531971455, 1.0560000501573086, 0.0, 0.0, 0.0, 0.0, 0.0, 1.710387150425983E9, 0.0, 2024-03-13 20:32:30.425
73.0, -736.0104413297959, -431.20859494106844, -230.09360487386584, 67.39673710148782, 0.01600000075995922, -0.11200000531971455, 1.0560000501573086, 0.0, 0.0, 0.0, 0.0, 0.0, 1.7103871504266822E9, 0.0, 2024-03-13 20:32:30.426
73.0, -543.871211156249, -251.53819121979177, -53.908787911292166, -172.188733859919, 0.01600000075995922, -0.11200000531971455, 1.0560000501573086, 0.0, 0.0, 0.0, 0.0, 0.0, 1.7103871504266822E9, 0.0, 2024-03-13 20:32:30.426
74.0, -590.2366208569147, -26.048403191380203, -129.0265484713018, 6.608403221704066, 0.01600000075995922, -0.11200000531971455, 1.0560000501573086, 0.0, 0.0, 0.0, 0.0, 0.0, 1.710387150440406E9, 0.0, 2024-03-13 20:32:30.440
74.0, -571.2828078814782, -168.64704860188067, -69.00863398239017, -170.85358957573771, 0.01600000075995922, -0.11200000531971455, 1.0560000501573086, 0.0, 0.0, 0.0, 0.0, 0.0, 1.710387150440406E9, 0.0, 2024-03-13 20:32:30.440
75.0, -536.5484870430082, -301.20032273139805, -15.608472465071827, -239.20026126597077, 0.01600000075995922, -0.11200000531971455, 1.0560000501573086, 0.0, 0.0, 0.0, 0.0, 0.0, 1.7103871504559774E9, 0.0, 2024-03-13 20:32:30.455
75.0, -780.3394755045883, -274.44881834834814, 188.6648631147109, -203.67121168691665, 0.01600000075995922, -0.11200000531971455, 1.0560000501573086, 0.0, 0.0, 0.0, 0.0, 0.0, 1.7103871504559774E9, 0.0, 2024-03-13 20:32:30.455
76.0, -974.9358199490234, -464.8003763430752, 14.08446323312819, 25.191966101527214, 0.01600000075995922, -0.11200000531971455, 1.0560000501573086, 0.0, 0.0, 0.0, 0.0, 0.0, 1.7103871504567149E9, 0.0, 2024-03-13 20:32:30.456
76.0, -906.4077631109394, -668.9727346240543, 106.38706408953294, -142.95019600633532, 0.01600000075995922, -0.11200000531971455, 1.0560000501573086, 0.0, 0.0, 0.0, 0.0, 0.0, 1.7103871504567149E9, 0.0, 2024-03-13 20:32:30.456
77.0, -945.7926495443098, -546.5471095745452, 32.87933046044782, 31.927525921724737, 0.01600000075995922, -0.11200000531971455, 1.0560000501573086, 0.0, 0.0, 0.0, 0.0, 0.0, 1.7103871504703035E9, 0.0, 2024-03-13 20:32:30.470
77.0, -982.0603293646127, -410.4297107872553, -13.575836839154363, 93.92758738715202, 0.01600000075995922, -0.11200000531971455, 1.0560000501573086, 0.0, 0.0, 0.0, 0.0, 0.0, 1.7103871504703035E9, 0.0, 2024-03-13 20:32:30.470
78.0, -742.6973824505694, -423.67643643030897, -215.5865329457447, 76.222900996916, 0.01600000075995922, -0.11200000531971455, 1.0560000501573086, 0.0, 0.0, 0.0, 0.0, 0.0, 1.7103871504859674E9, 0.0, 2024-03-13 20:32:30.485
78.0, -551.5567055651918, -252.40584800951183, -47.27794528985396, 316.8723734957166, 0.01600000075995922, -0.11200000531971455, 1.0560000501573086, 0.0, 0.0, 0.0, 0.0, 0.0, 1.7103871504859674E9, 0.0, 2024-03-13 20:32:30.485
79.0, -589.6831156634726, -23.636167719960213, -126.96212369576097, 504.67892957059667, 0.01600000075995922, -0.11200000531971455, 1.0560000501573086, 0.0, 0.0, 0.0, 0.0, 0.0, 1.7103871504866903E9, 0.0, 2024-03-13 20:32:30.486
79.0, -557.0674481499009, -154.39428987074643, -55.743208839558065, 337.44930305192247, 0.01600000075995922, -0.11200000531971455, 1.0560000501573086, 0.0, 0.0, 0.0, 0.0, 0.0, 1.7103871504866903E9, 0.0, 2024-03-13 20:32:30.486
80.0, -528.7208764357492, -293.627025321126, -13.626325488556176, 258.0699264924042, 0.01600000075995922, -0.11200000531971455, 1.0560000501573086, 0.0, 0.0, 0.0, 0.0, 0.0, 1.7103871505003607E9, 0.0, 2024-03-13 20:32:30.500
80.0, -285.9452708121389, -267.3430084325373, 191.86995737673715, 293.36336237424985, 0.01600000075995922, -0.11200000531971455, 1.0560000501573086, 0.0, 0.0, 0.0, 0.0, 0.0, 1.7103871505003607E9, 0.0, 2024-03-13 20:32:30.500
81.0, -485.49324279790744, -454.3436160669662, 19.851388964802027, 528.6329887867905, 0.01600000075995922, -0.11200000531971455, 1.0560000501573086, 0.0, 0.0, 0.0, 0.0, 0.0, 1.710387150516018E9, 0.0, 2024-03-13 20:32:30.516
81.0, -415.09897588193417, -661.0965053173713, 117.75635995483026, 361.7736123637296, 0.01600000075995922, -0.11200000531971455, 1.0560000501573086, 0.0, 0.0, 0.0, 0.0, 0.0, 1.710387150516018E9, 0.0, 2024-03-13 20:32:30.516
82.0, -449.2180831776932, -541.9844316286035, 26.77581373276189, 521.5084793712012, 0.01600000075995922, -0.11200000531971455, 1.0560000501573086, 0.0, 0.0, 0.0, 0.0, 0.0, 1.7103871505167162E9, 0.0, 2024-03-13 20:32:30.516
82.0, -483.9224848165177, -406.30460113612935, -7.221746814437211, 594.2831926089711, 0.01600000075995922, -0.11200000531971455, 1.0560000501573086, 0.0, 0.0, 0.0, 0.0, 0.0, 1.7103871505167162E9, 0.0, 2024-03-13 20:32:30.516
83.0, -246.7810384761542, -426.0363133023493, -218.30170031357557, 567.9916959204711, 0.01600000075995922, -0.11200000531971455, 1.0560000501573086, 0.0, 0.0, 0.0, 0.0, 0.0, 1.7103871505308814E9, 0.0, 2024-03-13 20:32:30.530
83.0, -59.48497874522582, -250.9697264265269, -44.76099261967465, 324.92437810031697, 0.01600000075995922, -0.11200000531971455, 1.0560000501573086, 0.0, 0.0, 0.0, 0.0, 0.0, 1.7103871505308814E9, 0.0, 2024-03-13 20:32:30.530
84.0, -100.47989210952073, -13.29534434247762, -116.01543652545661, 522.9483408541419, 0.01600000075995922, -0.11200000531971455, 1.0560000501573086, 0.0, 0.0, 0.0, 0.0, 0.0, 1.7103871505462976E9, 0.0, 2024-03-13 20:32:30.546
84.0, -75.02613301109523, -149.5922583276406, -56.539807530120015, 342.56922609126195, 0.01600000075995922, -0.11200000531971455, 1.0560000501573086, 0.0, 0.0, 0.0, 0.0, 0.0, 1.7103871505462976E9, 0.0, 2024-03-13 20:32:30.546
85.0, -42.75640624342486, -299.2144358549267, -23.765194268431515, 254.11311233928427, 0.01600000075995922, -0.11200000531971455, 1.0560000501573086, 0.0, 0.0, 0.0, 0.0, 0.0, 1.7103871505468023E9, 0.0, 2024-03-13 20:32:30.546
85.0, -273.4652246600017, -257.81000344548374, 193.95682155201212, 295.7045397465117, 0.01600000075995922, -0.11200000531971455, 1.0560000501573086, 0.0, 0.0, 0.0, 0.0, 0.0, 1.7103871505468023E9, 0.0, 2024-03-13 20:32:30.546
86.0, -469.44533208804205, -448.06806394131854, 21.867195040918887, 526.9238545070402, 0.01600000075995922, -0.11200000531971455, 1.0560000501573086, 0.0, 0.0, 0.0, 0.0, 0.0, 1.710387150560401E9, 0.0, 2024-03-13 20:32:30.560
86.0, -417.7468250505626, -658.9797219424509, 110.87120413640514, 354.2264942531474, 0.01600000075995922, -0.11200000531971455, 1.0560000501573086, 0.0, 0.0, 0.0, 0.0, 0.0, 1.710387150560401E9, 0.0, 2024-03-13 20:32:30.560
87.0, -450.85989925824106, -539.710572455544, 34.42764904210344, 523.0343585531227, 0.01600000075995922, -0.11200000531971455, 1.0560000501573086, 0.0, 0.0, 0.0, 0.0, 0.0, 1.7103871505759747E9, 0.0, 2024-03-13 20:32:30.575
87.0, -479.56550136813894, -395.4962902641855, -6.993612917140126, 599.5153126469813, 0.01600000075995922, -0.11200000531971455, 1.0560000501573086, 0.0, 0.0, 0.0, 0.0, 0.0, 1.7103871505759747E9, 0.0, 2024-03-13 20:32:30.575
88.0, -243.83025741111487, -419.6710035777651, -218.70934940874577, 569.3492796043865, 0.01600000075995922, -0.11200000531971455, 1.0560000501573086, 0.0, 0.0, 0.0, 0.0, 0.0, 1.7103871505767856E9, 0.0, 2024-03-13 20:32:30.576
88.0, -68.70009223604575, -248.72578645311296, -46.02881870465353, 810.1707875011489, 0.01600000075995922, -0.11200000531971455, 1.0560000501573086, 0.0, 0.0, 0.0, 0.0, 0.0, 1.7103871505767856E9, 0.0, 2024-03-13 20:32:30.576
89.0, -119.45240458473563, -18.96503267530352, -120.58933417126536, 1004.4698098991066, 0.01600000075995922, -0.11200000531971455, 1.0560000501573086, 0.0, 0.0, 0.0, 0.0, 0.0, 1.710387150590279E9, 0.0, 2024-03-13 20:32:30.590
89.0, -87.03121186885983, -159.850803906098, -68.74684098549187, 818.9632922969759, 0.01600000075995922, -0.11200000531971455, 1.0560000501573086, 0.0, 0.0, 0.0, 0.0, 0.0, 1.710387150590279E9, 0.0, 2024-03-13 20:32:30.590
90.0, -38.44056169455871, -299.12093835603446, -20.616198505740613, 743.8661011867225, 0.01600000075995922, -0.11200000531971455, 1.0560000501573086, 0.0, 0.0, 0.0, 0.0, 0.0, 1.71038715060603E9, 0.0, 2024-03-13 20:32:30.606
90.0, -260.21475911699235, -255.6745205707848, 201.2945052650757, 789.9715878404677, 0.01600000075995922, -0.11200000531971455, 1.0560000501573086, 0.0, 0.0, 0.0, 0.0, 0.0, 1.71038715060603E9, 0.0, 2024-03-13 20:32:30.606
91.0, -469.4565517879091, -457.06626323470846, 21.111735249869525, 1018.3448387347162, 0.01600000075995922, -0.12800000607967377, 1.0560000501573086, 0.0, 0.0, 0.0, 0.0, 0.0, 1.7103871506069117E9, 0.0, 2024-03-13 20:32:30.606
91.0, -422.36560149583966, -680.4317880882882, 95.61615221714601, 827.8605142915621, 0.01600000075995922, -0.12800000607967377, 1.0560000501573086, 0.0, 0.0, 0.0, 0.0, 0.0, 1.7103871506069117E9, 0.0, 2024-03-13 20:32:30.606
92.0, -448.49254258628935, -548.2562438542955, 32.07899186993018, 1005.4833227870986, 0.01600000075995922, -0.12800000607967377, 1.0560000501573086, 0.0, 0.0, 0.0, 0.0, 0.0, 1.710387150620368E9, 0.0, 2024-03-13 20:32:30.620
92.0, -482.8678330290131, -398.8659401242621, -8.85234319511801, 1091.542160667479, 0.01600000075995922, -0.12800000607967377, 1.0560000501573086, 0.0, 0.0, 0.0, 0.0, 0.0, 1.710387150620368E9, 0.0, 2024-03-13 20:32:30.620
93.0, -249.5672639431432, -425.63988390704617, -216.14751793909818, 1057.9615989653394, 0.01600000075995922, -0.12800000607967377, 1.0560000501573086, 0.0, 0.0, 0.0, 0.0, 0.0, 1.710387150635954E9, 0.0, 2024-03-13 20:32:30.635
93.0, -55.25889179529622, -261.54616350121796, -53.44504031678662, 1290.3758117617108, 0.01600000075995922, -0.12800000607967377, 1.0560000501573086, 0.0, 0.0, 0.0, 0.0, 0.0, 1.710387150635954E9, 0.0, 2024-03-13 20:32:30.635
94.0, -100.64818760752678, -16.94548669923097, -124.66208522301167, 1489.5928026014008, 0.01600000075995922, -0.12800000607967377, 1.0560000501573086, 0.0, 0.0, 0.0, 0.0, 0.0, 1.7103871506367173E9, 0.0, 2024-03-13 20:32:30.636
94.0, -60.79207377973944, -153.3358981832862, -62.183316563256085, 1309.4792207353748, 0.01600000075995922, -0.12800000607967377, 1.0560000501573086, 0.0, 0.0, 0.0, 0.0, 0.0, 1.7103871506367173E9, 0.0, 2024-03-13 20:32:30.636
95.0, -48.62430927390233, -302.3297725180164, -22.33655248535797, 1227.2986591090448, 0.01600000075995922, -0.12800000607967377, 1.0560000501573086, 0.0, 0.0, 0.0, 0.0, 0.0, 1.7103871506502702E9, 0.0, 2024-03-13 20:32:30.650
95.0, -288.3874254832044, -265.9854247486219, 191.90361647633836, 1271.5977740841918, 0.01600000075995922, -0.12800000607967377, 1.0560000501573086, 0.0, 0.0, 0.0, 0.0, 0.0, 1.7103871506502702E9, 0.0, 2024-03-13 20:32:30.650
96.0, -481.6935044429265, -457.3093567318283, 14.159261232241988, 1504.1784124285914, 0.01600000075995922, -0.12800000607967377, 1.0560000501573086, 0.0, 0.0, 0.0, 0.0, 0.0, 1.7103871506662688E9, 0.0, 2024-03-13 20:32:30.666
96.0, -421.76721750292927, -674.619983557146, 98.00594828883186, 1320.5942034036852, 0.01600000075995922, -0.12800000607967377, 1.0560000501573086, 0.0, 0.0, 0.0, 0.0, 0.0, 1.7103871506662688E9, 0.0, 2024-03-13 20:32:30.666
97.0, -471.32089191582054, -559.9396913158707, 18.099245835561305, 1478.31326433504, 0.01600000075995922, -0.12800000607967377, 1.0560000501573086, 0.0, 0.0, 0.0, 0.0, 0.0, 1.710387150666865E9, 0.0, 2024-03-13 20:32:30.666
97.0, -502.0273405020125, -404.34489355934784, -10.602616374380887, 1575.1691933874972, 0.01600000075995922, -0.12800000607967377, 1.0560000501573086, 0.0, 0.0, 0.0, 0.0, 0.0, 1.710387150666865E9, 0.0, 2024-03-13 20:32:30.666
98.0, -272.496590571478, -432.7830928224139, -216.1026391396299, 1544.3000591532327, 0.01600000075995922, -0.12800000607967377, 1.0560000501573086, 0.0, 0.0, 0.0, 0.0, 0.0, 1.7103871506806128E9, 0.0, 2024-03-13 20:32:30.680
98.0, -82.19739117613062, -271.5092569831759, -58.18723346060142, 1769.4626059355214, 0.01600000075995922, -0.12800000607967377, 1.0560000501573086, 0.0, 0.0, 0.0, 0.0, 0.0, 1.7103871506806128E9, 0.0, 2024-03-13 20:32:30.680
99.0, -119.85631377995014, -40.51433621998876, -136.4315503835678, 1969.4238368663937, 0.01600000075995922, -0.12800000607967377, 1.0560000501573086, 0.0, 0.0, 0.0, 0.0, 0.0, 1.7103871506961792E9, 0.0, 2024-03-13 20:32:30.696
99.0, -77.12421688623726, -163.57200436200947, -63.391304248943925, 1799.0452145850286, 0.01600000075995922, -0.12800000607967377, 1.0560000501573086, 0.0, 0.0, 0.0, 0.0, 0.0, 1.7103871506961792E9, 0.0, 2024-03-13 20:32:30.696
100.0, -48.18300107913092, -316.68350854795426, -27.015167329926044, 1710.7947953306139, 0.01600000075995922, -0.12800000607967377, 1.0560000501573086, 0.0, 0.0, 0.0, 0.0, 0.0, 1.710387150696812E9, 0.0, 2024-03-13 20:32:30.696
100.0, -292.8827852299437, -287.5347282933071, 172.55337410559878, 1745.841397815384, 0.01600000075995922, -0.12800000607967377, 1.0560000501573086, 0.0, 0.0, 0.0, 0.0, 0.0, 1.710387150696812E9, 0.0, 2024-03-13 20:32:30.696
0.0, -89.043278045021, 389.74432413233444, 90.97680632211268, 182.9783452320844, 0.01600000075995922, -0.12800000607967377, 1.0560000501573086, 0.0, 0.0, 0.0, 0.0, 0.0, 1.710387150710954E9, 0.0, 2024-03-13 20:32:30.710
1.0, -38.08901109872386, 170.79188122646883, 166.86498627299443, -9.159014991484582, 0.01600000075995922, -0.11200000531971455, 1.0560000501573086, 0.0, 0.0, 0.0, 0.0, 0.0, 1.710387150711635E9, 0.0, 2024-03-13 20:32:30.711
1.0, -78.09846082469448, 287.2673254464753, 93.34603294404224, 155.21332796104252, 0.01600000075995922, -0.11200000531971455, 1.0560000501573086, 0.0, 0.0, 0.0, 0.0, 0.0, 1.710387150711635E9, 0.0, 2024-03-13 20:32:30.711
2.0, -84.95182749349624, 445.4239546726458, 65.93817611876875, 251.4933124203235, 0.0, -0.11200000531971455, 1.0560000501573086, 0.0, 0.0, 0.0, 0.0, 0.0, 1.7103871507253487E9, 0.0, 2024-03-13 20:32:30.725
2.0, 143.05678315507248, 415.1756438310258, -150.99846071098, 210.2833548085764, 0.0, -0.11200000531971455, 1.0560000501573086, 0.0, 0.0, 0.0, 0.0, 0.0, 1.7103871507253487E9, 0.0, 2024-03-13 20:32:30.725
3.0, 311.94879520405084, 563.1541353277862, -0.7087110416032374, 428.3026926754974, 0.0, -0.11200000531971455, 1.0560000501573086, 0.0, 0.0, 0.0, 0.0, 0.0, 1.7103871507409894E9, 0.0, 2024-03-13 20:32:30.740
3.0, 268.9642550633289, 802.7957047885284, -72.01551354676485, 632.5610686554573, 0.0, -0.11200000531971455, 1.0560000501573086, 0.0, 0.0, 0.0, 0.0, 0.0, 1.7103871507409894E9, 0.0, 2024-03-13 20:32:30.740
4.0, 300.308356591966, 681.7762821223587, -2.251419773325324, 464.9462324413471, 0.0, -0.11200000531971455, 1.0560000501573086, 0.0, 0.0, 0.0, 0.0, 0.0, 1.7103871507416968E9, 0.0, 2024-03-13 20:32:30.741
4.0, 373.5935661736876, 542.0311803780496, 55.82735658856109, 391.33378161350265, 0.0, -0.11200000531971455, 1.0560000501573086, 0.0, 0.0, 0.0, 0.0, 0.0, 1.7103871507416968E9, 0.0, 2024-03-13 20:32:30.741
5.0, 611.4549432555214, 559.0813842760399, 253.91115774167702, 417.3934045047499, 0.0, -0.11200000531971455, 1.0560000501573086, 0.0, 0.0, 0.0, 0.0, 0.0, 1.71038715075578E9, 0.0, 2024-03-13 20:32:30.755
5.0, 388.1361671513878, 389.30301593756303, 88.60196985024959, 173.39298164565116, 0.0, -0.11200000531971455, 1.0560000501573086, 0.0, 0.0, 0.0, 0.0, 0.0, 1.71038715075578E9, 0.0, 2024-03-13 20:32:30.755
6.0, 447.2920347005129, 175.63505166908726, 179.15429752739146, -2.262639473192394, 0.0, -0.11200000531971455, 1.0560000501573086, 0.0, 0.0, 0.0, 0.0, 0.0, 1.7103871507711136E9, 0.0, 2024-03-13 20:32:30.771
6.0, 416.35932216700166, 285.6404689657502, 95.37305872002617, 155.06747186277062, 0.0, -0.11200000531971455, 1.0560000501573086, 0.0, 0.0, 0.0, 0.0, 0.0, 1.7103871507711136E9, 0.0, 2024-03-13 20:32:30.771
7.0, 395.06994166923687, 435.76753298705444, 57.22420922201127, 238.10447057895362, 0.0, -0.11200000531971455, 1.0560000501573086, 0.0, 0.0, 0.0, 0.0, 0.0, 1.7103871507716744E9, 0.0, 2024-03-13 20:32:30.771
7.0, 635.4576211711392, 414.6931967367418, -166.05903783254325, 201.58434751164168, 0.0, -0.11200000531971455, 1.0560000501573086, 0.0, 0.0, 0.0, 0.0, 0.0, 1.7103871507716744E9, 0.0, 2024-03-13 20:32:30.771
8.0, 818.7183288498782, 574.0222845990211, 7.496629461180419, 434.1967750056647, 0.0, -0.11200000531971455, 1.0560000501573086, 0.0, 0.0, 0.0, 0.0, 0.0, 1.7103871507852666E9, 0.0, 2024-03-13 20:32:30.785
8.0, 770.7784212678671, 812.6765204714611, -69.03481328208, 635.2163976239972, 0.0, -0.11200000531971455, 1.0560000501573086, 0.0, 0.0, 0.0, 0.0, 0.0, 1.7103871507852666E9, 0.0, 2024-03-13 20:32:30.785
9.0, 809.8267167052254, 696.2833540504798, 10.307164277881384, 474.0603686333634, 0.0, -0.11200000531971455, 1.0560000501573086, 0.0, 0.0, 0.0, 0.0, 0.0, 1.7103871508009677E9, 0.0, 2024-03-13 20:32:30.800
9.0, 845.084623537492, 541.0700260894373, 47.02737199282274, 381.13881433429196, 0.0, -0.11200000531971455, 1.0560000501573086, 0.0, 0.0, 0.0, 0.0, 0.0, 1.7103871508009677E9, 0.0, 2024-03-13 20:32:30.800
10.0, 1089.6553811398335, 547.465255013667, 246.0199688351713, 406.2185834371485, 0.0, -0.11200000531971455, 1.0560000501573086, 0.0, 0.0, 0.0, 0.0, 0.0, 1.710387150801701E9, 0.0, 2024-03-13 20:32:30.801
10.0, 870.0391059918329, 347.49093443294987, 56.31541353277862, 628.3275019056164, 0.0, -0.11200000531971455, 1.0560000501573086, 0.0, 0.0, 0.0, 0.0, 0.0, 1.710387150801701E9, 0.0, 2024-03-13 20:32:30.801
11.0, 969.694350161124, 197.68924170779064, 180.3585453131236, 498.34727894561365, 0.0, -0.11200000531971455, 1.0560000501573086, 0.0, 0.0, 0.0, 0.0, 0.0, 1.7103871508153007E9, 0.0, 2024-03-13 20:32:30.815
11.0, 933.0956891947426, 310.89227346656844, 110.59819143963978, 662.2446546037681, 0.0, -0.11200000531971455, 1.0560000501573086, 0.0, 0.0, 0.0, 0.0, 0.0, 1.7103871508153007E9, 0.0, 2024-03-13 20:32:30.815
12.0, 878.0574514968321, 415.04848723253235, 50.952396996319294, 711.4804375204258, 0.01600000075995922, -0.11200000531971455, 1.0560000501573086, 0.0, 0.0, 0.0, 0.0, 0.0, 1.7103871508309314E9, 0.0, 2024-03-13 20:32:30.830
12.0, 651.6364283794537, 425.82126905489713, -149.35290473047644, 712.3088253606111, 0.01600000075995922, -0.11200000531971455, 1.0560000501573086, 0.0, 0.0, 0.0, 0.0, 0.0, 1.7103871508309314E9, 0.0, 2024-03-13 20:32:30.830
13.0, 842.178721271921, 609.7962976251729, 29.15439010458067, 467.9175829561427, 0.01600000075995922, -0.11200000531971455, 1.0560000501573086, 0.0, 0.0, 0.0, 0.0, 0.0, 1.7103871508316233E9, 0.0, 2024-03-13 20:32:30.831
13.0, 759.5549815008417, 798.7435231865384, -58.35365900862962, 630.0310263354331, 0.01600000075995922, -0.11200000531971455, 1.0560000501573086, 0.0, 0.0, 0.0, 0.0, 0.0, 1.7103871508316233E9, 0.0, 2024-03-13 20:32:30.831
14.0, 772.3566590491682, 664.7129885745235, -16.208726407960057, 448.11855259072036, 0.01600000075995922, -0.11200000531971455, 1.0560000501573086, 0.0, 0.0, 0.0, 0.0, 0.0, 1.7103871508456645E9, 0.0, 2024-03-13 20:32:30.845
14.0, 825.0537193748169, 569.8728655981831, 60.50597143312916, 410.96264653094113, 0.01600000075995922, -0.11200000531971455, 1.0560000501573086, 0.0, 0.0, 0.0, 0.0, 0.0, 1.7103871508456645E9, 0.0, 2024-03-13 20:32:30.845
15.0, 1069.7329340758733, 580.1875096759759, 271.4737279335968, 434.9915037462488, 0.01600000075995922, -0.11200000531971455, 1.0560000501573086, 0.0, 0.0, 0.0, 0.0, 0.0, 1.7103871508612585E9, 0.0, 2024-03-13 20:32:30.861
15.0, 849.0807066401467, 359.81203483697027, 67.89788369555026, 638.2027077386156, 0.01600000075995922, -0.11200000531971455, 1.0560000501573086, 0.0, 0.0, 0.0, 0.0, 0.0, 1.7103871508612585E9, 0.0, 2024-03-13 20:32:30.861
16.0, 943.8666010671295, 190.34220824483782, 173.70526329195127, 494.91966063622385, 0.01600000075995922, -0.11200000531971455, 1.0560000501573086, 0.0, 0.0, 0.0, 0.0, 0.0, 1.710387150861712E9, 0.0, 2024-03-13 20:32:30.861
16.0, 913.7641463237815, 301.49203492794186, 103.6980760213919, 651.5391909806058, 0.01600000075995922, -0.11200000531971455, 1.0560000501573086, 0.0, 0.0, 0.0, 0.0, 0.0, 1.710387150861712E9, 0.0, 2024-03-13 20:32:30.861
17.0, 845.7708951793611, 407.3424233738333, 40.398399321362376, 701.6949892863631, 0.01600000075995922, -0.11200000531971455, 1.0560000501573086, 0.0, 0.0, 0.0, 0.0, 0.0, 1.7103871508752816E9, 0.0, 2024-03-13 20:32:30.875
17.0, 621.324539238587, 410.8111805827357, -162.1919812783599, 698.3963975254446, 0.01600000075995922, -0.11200000531971455, 1.0560000501573086, 0.0, 0.0, 0.0, 0.0, 0.0, 1.7103871508752816E9, 0.0, 2024-03-13 20:32:30.875
18.0, 835.4917801511474, 609.2596219815314, 35.53839932894334, 467.9213228560984, 0.01600000075995922, -0.11200000531971455, 1.0560000501573086, 0.0, 0.0, 0.0, 0.0, 0.0, 1.7103871508911328E9, 0.0, 2024-03-13 20:32:30.891
18.0, 759.2707491042092, 792.1369899148121, -61.27826077397913, 627.22236146871, 0.01600000075995922, -0.11200000531971455, 1.0560000501573086, 0.0, 0.0, 0.0, 0.0, 0.0, 1.7103871508911328E9, 0.0, 2024-03-13 20:32:30.891
19.0, 796.6510491613299, 661.823915858753, -9.402108488604426, 449.09092657919973, 0.01600000075995922, -0.11200000531971455, 1.0560000501573086, 0.0, 0.0, 0.0, 0.0, 0.0, 1.7103871508917303E9, 0.0, 2024-03-13 20:32:30.891
19.0, 879.5440617292188, 582.8334888946265, 80.99314339039847, 421.1538739101961, 0.01600000075995922, -0.11200000531971455, 1.0560000501573086, 0.0, 0.0, 0.0, 0.0, 0.0, 1.7103871508917303E9, 0.0, 2024-03-13 20:32:30.891
20.0, 1101.4024069006555, 574.4243238442577, 270.856644440908, 427.22373153828084, 0.01600000075995922, -0.11200000531971455, 1.0560000501573086, 0.0, 0.0, 0.0, 0.0, 0.0, 1.7103871509054089E9, 0.0, 2024-03-13 20:32:30.905
20.0, 870.9553814809769, 351.6515731336549, 67.62113109882921, 636.882523054257, 0.01600000075995922, -0.11200000531971455, 1.0560000501573086, 0.0, 0.0, 0.0, 0.0, 0.0, 1.7103871509054089E9, 0.0, 2024-03-13 20:32:30.905
21.0, 969.8140269597061, 195.27139638643712, 179.87609821883962, 502.4256398472935, 0.01600000075995922, -0.11200000531971455, 1.0560000501573086, 0.0, 0.0, 0.0, 0.0, 0.0, 1.7103871509210413E9, 0.0, 2024-03-13 20:32:30.921
21.0, 929.3221301394515, 304.1772830961272, 109.75297404965386, 660.6982059720904, 0.01600000075995922, -0.11200000531971455, 1.0560000501573086, 0.0, 0.0, 0.0, 0.0, 0.0, 1.7103871509210413E9, 0.0, 2024-03-13 20:32:30.921
22.0, 859.4664088170975, 406.5907034827396, 47.99787603132427, 709.9265090888366, 0.01600000075995922, -0.11200000531971455, 1.0560000501573086, 0.0, 0.0, 0.0, 0.0, 0.0, 1.710387150921664E9, 0.0, 2024-03-13 20:32:30.921
22.0, 633.1987215979025, 423.13415093673393, -145.35495167784393, 712.2246776116081, 0.01600000075995922, -0.11200000531971455, 1.0560000501573086, 0.0, 0.0, 0.0, 0.0, 0.0, 1.710387150921664E9, 0.0, 2024-03-13 20:32:30.921
23.0, 835.5628382503055, 605.3476866278797, 44.13268942711875, 468.36450100084767, 0.01600000075995922, -0.11200000531971455, 1.0560000501573086, 0.0, 0.0, 0.0, 0.0, 0.0, 1.7103871509352984E9, 0.0, 2024-03-13 20:32:30.935
23.0, 775.6103720106184, 791.5348660219461, -55.9900422366336, 632.5124499560334, 0.01600000075995922, -0.11200000531971455, 1.0560000501573086, 0.0, 0.0, 0.0, 0.0, 0.0, 1.7103871509352984E9, 0.0, 2024-03-13 20:32:30.935
24.0, 780.0309337582439, 669.7188446652144, 7.509719111025333, 462.4517191709019, 0.01600000075995922, -0.11200000531971455, 1.0560000501573086, 0.0, 0.0, 0.0, 0.0, 0.0, 1.710387150951094E9, 0.0, 2024-03-13 20:32:30.951
24.0, 829.201268425677, 569.983192646876, 72.36519419262186, 415.42247722810134, 0.01600000075995922, -0.11200000531971455, 1.0560000501573086, 0.0, 0.0, 0.0, 0.0, 0.0, 1.710387150951094E9, 0.0, 2024-03-13 20:32:30.951
25.0, 1072.837051039096, 570.514258440584, 272.5994378202595, 432.1772290295921, 0.01600000075995922, -0.11200000531971455, 1.0560000501573086, 0.0, 0.0, 0.0, 0.0, 0.0, 1.710387150951749E9, 0.0, 2024-03-13 20:32:30.951
25.0, 855.034627369605, 357.09873741911724, 72.04169284645468, 642.2548893406056, 0.01600000075995922, -0.11200000531971455, 1.0560000501573086, 0.0, 0.0, 0.0, 0.0, 0.0, 1.710387150951749E9, 0.0, 2024-03-13 20:32:30.951
26.0, 943.8815606669523, 199.54423208581284, 185.83375884825364, 505.0342200663872, 0.01600000075995922, -0.11200000531971455, 1.0560000501573086, 0.0, 0.0, 0.0, 0.0, 0.0, 1.7103871509654963E9, 0.0, 2024-03-13 20:32:30.965
26.0, 901.1793829728849, 302.17830656981096, 114.47646769369021, 664.5035541770048, 0.01600000075995922, -0.11200000531971455, 1.0560000501573086, 0.0, 0.0, 0.0, 0.0, 0.0, 1.7103871509654963E9, 0.0, 2024-03-13 20:32:30.965
27.0, 843.0183288119733, 410.00710209226236, 55.02140814810991, 713.3541273982264, 0.01600000075995922, -0.11200000531971455, 1.0560000501573086, 0.0, 0.0, 0.0, 0.0, 0.0, 1.7103871509809115E9, 0.0, 2024-03-13 20:32:30.980
27.0, 621.8817843319848, 428.70099202077836, -140.15275083947927, 720.342130465433, 0.01600000075995922, -0.11200000531971455, 1.0560000501573086, 0.0, 0.0, 0.0, 0.0, 0.0, 1.7103871509809115E9, 0.0, 2024-03-13 20:32:30.980
28.0, 828.4271091348492, 607.5074788522907, 51.73590603703633, 482.5705109825358, 0.01600000075995922, -0.11200000531971455, 1.0560000501573086, 0.0, 0.0, 0.0, 0.0, 0.0, 1.7103871509816637E9, 0.0, 2024-03-13 20:32:30.981
28.0, 758.8107414096594, 796.8324343091808, -50.63824540004134, 639.4705338235945, 0.01600000075995922, -0.11200000531971455, 1.0560000501573086, 0.0, 0.0, 0.0, 0.0, 0.0, 1.7103871509816637E9, 0.0, 2024-03-13 20:32:30.981
29.0, 789.919229241088, 672.1740889861248, 8.298838001675904, 465.6624232828617, 0.01600000075995922, -0.11200000531971455, 1.0560000501573086, 0.0, 0.0, 0.0, 0.0, 0.0, 1.710387150995521E9, 0.0, 2024-03-13 20:32:30.995
29.0, 867.1163741764612, 577.9734889022075, 84.78914184542373, 429.74442410841584, 0.01600000075995922, -0.11200000531971455, 1.0560000501573086, 0.0, 0.0, 0.0, 0.0, 0.0, 1.710387150995521E9, 0.0, 2024-03-13 20:32:30.995
30.0, 1103.2349578789435, 570.091649745591, 269.8468714528717, 430.29044950194657, 0.01600000075995922, -0.11200000531971455, 1.0560000501573086, 0.0, 0.0, 0.0, 0.0, 0.0, 1.7103871510112338E9, 0.0, 2024-03-13 20:32:31.011
30.0, 891.7305257348344, 369.02901827776805, 77.46828768216074, 651.030564586632, 0.01600000075995922, -0.11200000531971455, 1.0560000501573086, 0.0, 0.0, 0.0, 0.0, 0.0, 1.7103871510112338E9, 0.0, 2024-03-13 20:32:31.011
31.0, 989.1156506310217, 216.680453682784, 202.23322015395388, 523.9861630918458, 0.01600000075995922, -0.12800000607967377, 1.0560000501573086, 0.0, 0.0, 0.0, 0.0, 0.0, 1.7103871510117884E9, 0.0, 2024-03-13 20:32:31.011
31.0, 941.532903494779, 312.96417804202065, 119.82826453028247, 667.2018919950351, 0.01600000075995922, -0.12800000607967377, 1.0560000501573086, 0.0, 0.0, 0.0, 0.0, 0.0, 1.7103871510117884E9, 0.0, 2024-03-13 20:32:31.011
32.0, 886.1019763015211, 424.8208458167501, 58.615452005527914, 719.5754509745166, 0.01600000075995922, -0.12800000607967377, 1.0560000501573086, 0.0, 0.0, 0.0, 0.0, 0.0, 1.7103871510253403E9, 0.0, 2024-03-13 20:32:31.025
32.0, 647.013912034221, 434.7633698489517, -136.2146361861378, 723.0928268828429, 0.01600000075995922, -0.12800000607967377, 1.0560000501573086, 0.0, 0.0, 0.0, 0.0, 0.0, 1.7103871510253403E9, 0.0, 2024-03-13 20:32:31.025
33.0, 844.8116108407266, 618.4915650221519, 48.46723347576335, 481.7309034424834, 0.01600000075995922, -0.12800000607967377, 1.0560000501573086, 0.0, 0.0, 0.0, 0.0, 0.0, 1.710387151040972E9, 0.0, 2024-03-13 20:32:31.040
33.0, 758.5601681126282, 796.9969899072312, -54.24350895732641, 634.603054031264, 0.01600000075995922, -0.12800000607967377, 1.0560000501573086, 0.0, 0.0, 0.0, 0.0, 0.0, 1.710387151040972E9, 0.0, 2024-03-13 20:32:31.040
34.0, 780.7714339494705, 671.9721343885176, 4.169988450594246, 465.1182678393088, 0.01600000075995922, -0.12800000607967377, 1.0560000501573086, 0.0, 0.0, 0.0, 0.0, 0.0, 1.710387151041721E9, 0.0, 2024-03-13 20:32:31.041
34.0, 861.0539963482879, 585.4944277130999, 89.27328189229593, 430.2885795519687, 0.01600000075995922, -0.12800000607967377, 1.0560000501573086, 0.0, 0.0, 0.0, 0.0, 0.0, 1.710387151041721E9, 0.0, 2024-03-13 20:32:31.041
35.0, 1075.8177513037808, 562.6268094340339, 269.34946475876495, 425.81378925498575, 0.01600000075995922, -0.12800000607967377, 1.0560000501573086, 0.0, 0.0, 0.0, 0.0, 0.0, 1.7103871510558696E9, 0.0, 2024-03-13 20:32:31.055
35.0, 858.8867243239656, 370.4202610612847, 79.45417455863208, 653.8990678526461, 0.01600000075995922, -0.12800000607967377, 1.0560000501573086, 0.0, 0.0, 0.0, 0.0, 0.0, 1.7103871510558696E9, 0.0, 2024-03-13 20:32:31.055
36.0, 961.9490173528902, 211.65402814233676, 203.35519014066085, 521.7833620179445, 0.01600000075995922, -0.12800000607967377, 1.0560000501573086, 0.0, 0.0, 0.0, 0.0, 0.0, 1.7103871510709493E9, 0.0, 2024-03-13 20:32:31.070
36.0, 946.9445387306623, 323.2002842207439, 135.09827604936436, 685.4114648792893, 0.01600000075995922, -0.12800000607967377, 1.0560000501573086, 0.0, 0.0, 0.0, 0.0, 0.0, 1.7103871510709493E9, 0.0, 2024-03-13 20:32:31.070
37.0, 876.8943426106125, 418.9267634865828, 62.30299336183816, 722.1933809434995, 0.01600000075995922, -0.12800000607967377, 1.0560000501573086, 0.0, 0.0, 0.0, 0.0, 0.0, 1.7103871510716708E9, 0.0, 2024-03-13 20:32:31.071
37.0, 1117.9140652050264, 428.26342372596264, -144.31525949016213, 716.314258213155, 0.01600000075995922, -0.12800000607967377, 1.0560000501573086, 0.0, 0.0, 0.0, 0.0, 0.0, 1.7103871510716708E9, 0.0, 2024-03-13 20:32:31.071
38.0, 1311.4856770616025, 614.1869401731528, 49.477006463799626, 477.5253859423101, 0.01600000075995922, -0.12800000607967377, 1.0560000501573086, 0.0, 0.0, 0.0, 0.0, 0.0, 1.7103871510852969E9, 0.0, 2024-03-13 20:32:31.085
38.0, 1223.2857464565895, 797.8085481976159, -61.8429856672883, 634.2571132853627, 0.01600000075995922, -0.12800000607967377, 1.0560000501573086, 0.0, 0.0, 0.0, 0.0, 0.0, 1.7103871510852969E9, 0.0, 2024-03-13 20:32:31.085
39.0, 1276.4933031261899, 674.2497334615327, -5.082524039782584, 466.4515421735123, 0.01600000075995922, -0.12800000607967377, 1.0560000501573086, 0.0, 0.0, 0.0, 0.0, 0.0, 1.710387151101122E9, 0.0, 2024-03-13 20:32:31.101
39.0, 1352.6395361740142, 577.4985216078348, 78.93245851481333, 421.9093337012455, 0.01600000075995922, -0.12800000607967377, 1.0560000501573086, 0.0, 0.0, 0.0, 0.0, 0.0, 1.710387151101122E9, 0.0, 2024-03-13 20:32:31.101
40.0, 1579.4794280864298, 560.59978365805, 259.8875178708695, 417.6290182019584, 0.01600000075995922, -0.12800000607967377, 1.0560000501573086, 0.0, 0.0, 0.0, 0.0, 0.0, 1.7103871511019971E9, 0.0, 2024-03-13 20:32:31.101
40.0, 1381.4161963830702, 371.8339432445355, 74.3305116193369, 656.432850072626, 0.01600000075995922, -0.12800000607967377, 1.0560000501573086, 0.0, 0.0, 0.0, 0.0, 0.0, 1.7103871511019971E9, 0.0, 2024-03-13 20:32:31.101
41.0, 1474.1750650340691, 214.48139250883833, 203.36266994057223, 522.3387371613644, 0.01600000075995922, -0.11200000531971455, 1.0560000501573086, 0.0, 0.0, 0.0, 0.0, 0.0, 1.7103871511152935E9, 0.0, 2024-03-13 20:32:31.115
41.0, 1433.989840010181, 307.2458710097708, 111.87349732453004, 661.0030078184791, 0.01600000075995922, -0.11200000531971455, 1.0560000501573086, 0.0, 0.0, 0.0, 0.0, 0.0, 1.7103871511152935E9, 0.0, 2024-03-13 20:32:31.115
42.0, 1377.2424680325203, 426.2868865993805, 66.42436311300844, 729.495535606984, 0.01600000075995922, -0.11200000531971455, 1.0560000501573086, 0.0, 0.0, 0.0, 0.0, 0.0, 1.7103871511311836E9, 0.0, 2024-03-13 20:32:31.131
42.0, 1135.285900499206, 433.1365133682266, -143.37654460128397, 724.1848776699044, 0.01600000075995922, -0.11200000531971455, 1.0560000501573086, 0.0, 0.0, 0.0, 0.0, 0.0, 1.7103871511311836E9, 0.0, 2024-03-13 20:32:31.131
43.0, 1341.4946343060583, 618.0652164272033, 48.62804917385802, 964.9128880677745, 0.01600000075995922, -0.11200000531971455, 1.0560000501573086, 0.0, 0.0, 0.0, 0.0, 0.0, 1.7103871511319513E9, 0.0, 2024-03-13 20:32:31.131
43.0, 1260.5650692149065, 800.6845312635414, -58.46211610734463, 1120.3281706264243, 0.01600000075995922, -0.11200000531971455, 1.0560000501573086, 0.0, 0.0, 0.0, 0.0, 0.0, 1.7103871511319513E9, 0.0, 2024-03-13 20:32:31.131
44.0, 1302.8595978138037, 701.7342582358979, 18.699499778449535, 974.7563047511503, 0.01600000075995922, -0.11200000531971455, 1.0560000501573086, 0.0, 0.0, 0.0, 0.0, 0.0, 1.7103871511454484E9, 0.0, 2024-03-13 20:32:31.145
44.0, 1352.4562810761854, 570.8302799868397, 65.72313187131658, 899.8386288387701, 0.01600000075995922, -0.11200000531971455, 1.0560000501573086, 0.0, 0.0, 0.0, 0.0, 0.0, 1.7103871511454484E9, 0.0, 2024-03-13 20:32:31.145
45.0, 1565.3014673544094, 548.1795759052038, 249.5840934929438, 894.7991136484779, 0.01600000075995922, -0.11200000531971455, 1.0560000501573086, 0.0, 0.0, 0.0, 0.0, 0.0, 1.710387151161149E9, 0.0, 2024-03-13 20:32:31.161
45.0, 1345.8198286048137, 359.38755619199947, 71.61160435155034, 1137.2942267754115, 0.01600000075995922, -0.11200000531971455, 1.0560000501573086, 0.0, 0.0, 0.0, 0.0, 0.0, 1.710387151161149E9, 0.0, 2024-03-13 20:32:31.161
46.0, 1447.5432374496013, 200.01545948022977, 180.57171961059794, 995.0807910603471, 0.01600000075995922, -0.11200000531971455, 1.0560000501573086, 0.0, 0.0, 0.0, 0.0, 0.0, 1.7103871511617885E9, 0.0, 2024-03-13 20:32:31.161
46.0, 1413.3381124548614, 291.99081909051165, 95.57127341767773, 1131.486162144225, 0.01600000075995922, -0.11200000531971455, 1.0560000501573086, 0.0, 0.0, 0.0, 0.0, 0.0, 1.7103871511617885E9, 0.0, 2024-03-13 20:32:31.161
47.0, 1356.598220277112, 409.2105034017004, 39.39610613323748, 1195.1280396902002, 0.01600000075995922, -0.11200000531971455, 1.0560000501573086, 0.0, 0.0, 0.0, 0.0, 0.0, 1.710387151175386E9, 0.0, 2024-03-13 20:32:31.175
47.0, 1128.9991286736913, 435.75070343725383, -148.76200053747743, 1206.0429377108812, 0.01600000075995922, -0.11200000531971455, 1.0560000501573086, 0.0, 0.0, 0.0, 0.0, 0.0, 1.710387151175386E9, 0.0, 2024-03-13 20:32:31.175
48.0, 1327.241875574924, 605.959160270635, 33.58243165211752, 1441.1386587754823, 0.01600000075995922, -0.11200000531971455, 1.0560000501573086, 0.0, 0.0, 0.0, 0.0, 0.0, 1.7103871511910143E9, 0.0, 2024-03-13 20:32:31.191
48.0, 1250.4336802349426, 787.3891869210638, -74.27441312000155, 1596.6100398334675, 0.01600000075995922, -0.11200000531971455, 1.0560000501573086, 0.0, 0.0, 0.0, 0.0, 0.0, 1.7103871511910143E9, 0.0, 2024-03-13 20:32:31.191
49.0, 1267.1136340373196, 664.0697257821448, -16.631335102953017, 1428.8904864205979, 0.01600000075995922, -0.11200000531971455, 1.0560000501573086, 0.0, 0.0, 0.0, 0.0, 0.0, 1.7103871511917279E9, 0.0, 2024-03-13 20:32:31.191
49.0, 1344.9615215649828, 567.378352327738, 58.49390525696799, 1379.7145419032313, 0.01600000075995922, -0.11200000531971455, 1.0560000501573086, 0.0, 0.0, 0.0, 0.0, 0.0, 1.7103871511917279E9, 0.0, 2024-03-13 20:32:31.191
50.0, 1570.937496587634, 547.1249241176993, 241.00850289454684, 1382.8560578660108, 0.01600000075995922, -0.11200000531971455, 1.0560000501573086, 0.0, 0.0, 0.0, 0.0, 0.0, 1.7103871512053647E9, 0.0, 2024-03-13 20:32:31.205
50.0, 1370.6901633101515, 362.6637085531838, 50.71304339915514, 1611.2629678598605, 0.01600000075995922, -0.11200000531971455, 1.0560000501573086, 0.0, 0.0, 0.0, 0.0, 0.0, 1.7103871512053647E9, 0.0, 2024-03-13 20:32:31.205
51.0, 1446.1220754664391, 188.76210051355883, 169.11266614636406, 1472.729593701195, 0.01600000075995922, -0.11200000531971455, 1.0560000501573086, 0.0, 0.0, 0.0, 0.0, 0.0, 1.7103871512209964E9, 0.0, 2024-03-13 20:32:31.220
51.0, 1402.1333721876144, 284.5259787789546, 89.87166588520631, 1619.4683083626442, 0.01600000075995922, -0.11200000531971455, 1.0560000501573086, 0.0, 0.0, 0.0, 0.0, 0.0, 1.7103871512209964E9, 0.0, 2024-03-13 20:32:31.220
52.0, 1348.033849378582, 401.4277715939097, 36.445325068198144, 1681.4459304283373, 0.01600000075995922, -0.11200000531971455, 1.0560000501573086, 0.0, 0.0, 0.0, 0.0, 0.0, 1.710387151221825E9, 0.0, 2024-03-13 20:32:31.221
52.0, 1164.2626453558914, 439.4045856939629, -143.78793359640986, 1699.4142797654495, 0.01600000075995922, -0.11200000531971455, 1.0560000501573086, 0.0, 0.0, 0.0, 0.0, 0.0, 1.710387151221825E9, 0.0, 2024-03-13 20:32:31.221
53.0, 1325.0577740008011, 616.8422691416927, 42.214120749849826, 1939.4952874709852, 0.01600000075995922, -0.11200000531971455, 1.0560000501573086, 0.0, 0.0, 0.0, 0.0, 0.0, 1.7103871512353232E9, 0.0, 2024-03-13 20:32:31.235
53.0, 1238.6903943740763, 793.1673323526047, -78.85953046567738, 2088.8369725015946, 0.01600000075995922, -0.11200000531971455, 1.0560000501573086, 0.0, 0.0, 0.0, 0.0, 0.0, 1.7103871512353232E9, 0.0, 2024-03-13 20:32:31.235
54.0, 1272.5813677725382, 683.7453394490294, -8.601769898086786, 1933.6984425396658, 0.01600000075995922, -0.11200000531971455, 1.0560000501573086, 0.0, 0.0, 0.0, 0.0, 0.0, 1.7103871512510335E9, 0.0, 2024-03-13 20:32:31.251
54.0, 1360.5344649804756, 579.8770979796536, 71.19086560653523, 1885.8352029067464, 0.01600000075995922, -0.11200000531971455, 1.0560000501573086, 0.0, 0.0, 0.0, 0.0, 0.0, 1.7103871512510335E9, 0.0, 2024-03-13 20:32:31.251
55.0, 1586.170109107159, 559.3431772729382, 255.30240052519366, 1881.1808974118903, 0.01600000075995922, -0.11200000531971455, 1.0560000501573086, 0.0, 0.0, 0.0, 0.0, 0.0, 1.7103871512516727E9, 0.0, 2024-03-13 20:32:31.251
55.0, 1368.176950539928, 363.9689336377196, 60.66865708120167, 2108.6864915164188, 0.01600000075995922, -0.11200000531971455, 1.0560000501573086, 0.0, 0.0, 0.0, 0.0, 0.0, 1.7103871512516727E9, 0.0, 2024-03-13 20:32:31.251
56.0, 1465.9846841311082, 213.9690262149088, 190.6993686906062, 1985.7821592725813, 0.01600000075995922, -0.11200000531971455, 1.0560000501573086, 0.0, 0.0, 0.0, 0.0, 0.0, 1.710387151266103E9, 0.0, 2024-03-13 20:32:31.266
56.0, 1405.8844918431714, 288.66230812994763, 99.49816837115213, 2111.3679997846484, 0.01600000075995922, -0.11200000531971455, 1.0560000501573086, 0.0, 0.0, 0.0, 0.0, 0.0, 1.710387151266103E9, 0.0, 2024-03-13 20:32:31.266
57.0, 1344.1069544251077, 393.25609019072726, 34.50805689115077, 2166.415587232448, 0.01600000075995922, -0.11200000531971455, 1.0560000501573086, 0.0, 0.0, 0.0, 0.0, 0.0, 1.7103871512814457E9, 0.0, 2024-03-13 20:32:31.281
57.0, 1120.5058158743195, 420.88460111338645, -159.69746800791472, 2176.642343661282, 0.01600000075995922, -0.11200000531971455, 1.0560000501573086, 0.0, 0.0, 0.0, 0.0, 0.0, 1.7103871512814457E9, 0.0, 2024-03-13 20:32:31.281
58.0, 1319.7209367640316, 590.2366208569147, 24.73008845699951, 2409.6624202504754, 0.01600000075995922, -0.11200000531971455, 1.0560000501573086, 0.0, 0.0, 0.0, 0.0, 0.0, 1.7103871512816825E9, 0.0, 2024-03-13 20:32:31.281
58.0, 1241.226046544034, 776.5883558490314, -85.01166589278728, 2569.8722545523196, 0.01600000075995922, -0.11200000531971455, 1.0560000501573086, 0.0, 0.0, 0.0, 0.0, 0.0, 1.7103871512816825E9, 0.0, 2024-03-13 20:32:31.281
59.0, 1268.8975663161837, 683.4910262520425, -7.476060011424124, 2428.0552482325584, 0.01600000075995922, -0.11200000531971455, 1.0560000501573086, 0.0, 0.0, 0.0, 0.0, 0.0, 1.7103871512954397E9, 0.0, 2024-03-13 20:32:31.295
59.0, 1345.8777970541269, 576.4363900204189, 67.99699104437605, 2376.0481994487345, 0.01600000075995922, -0.11200000531971455, 1.0560000501573086, 0.0, 0.0, 0.0, 0.0, 0.0, 1.7103871512954397E9, 0.0, 2024-03-13 20:32:31.295
60.0, 1575.821805929765, 547.5662323124707, 249.24002269702032, 2364.4937785356306, 0.01600000075995922, -0.11200000531971455, 1.0560000501573086, 0.0, 0.0, 0.0, 0.0, 0.0, 1.7103871513112335E9, 0.0, 2024-03-13 20:32:31.311
60.0, 1370.4844688125886, 365.57709061866626, 68.23073479160666, 2606.857995164115, 0.01600000075995922, -0.11200000531971455, 1.0560000501573086, 0.0, 0.0, 0.0, 0.0, 0.0, 1.7103871513112335E9, 0.0, 2024-03-13 20:32:31.311
61.0, 1456.664853441529, 191.75028057815507, 176.71588275628164, 2461.0729549913667, 0.01600000075995922, -0.11200000531971455, 1.0560000501573086, 0.0, 0.0, 0.0, 0.0, 0.0, 1.7103871513117013E9, 0.0, 2024-03-13 20:32:31.311
61.0, 1404.7288627568632, 272.0047937273048, 89.98386288387701, 2590.4996727579273, 0.01600000075995922, -0.11200000531971455, 1.0560000501573086, 0.0, 0.0, 0.0, 0.0, 0.0, 1.7103871513117013E9, 0.0, 2024-03-13 20:32:31.311
62.0, 1340.0790821728297, 386.55044957017526, 25.670673295855522, 2651.3403652370907, 0.01600000075995922, -0.11200000531971455, 1.0560000501573086, 0.0, 0.0, 0.0, 0.0, 0.0, 1.7103871513252668E9, 0.0, 2024-03-13 20:32:31.325
62.0, 1129.279621170368, 426.5430697463453, -151.97083469945937, 2675.651584899053, 0.01600000075995922, -0.11200000531971455, 1.0560000501573086, 0.0, 0.0, 0.0, 0.0, 0.0, 1.7103871513252668E9, 0.0, 2024-03-13 20:32:31.325
63.0, 1317.895865585655, 594.3617305080406, 29.91732969554141, 2901.7453667703085, 0.01600000075995922, -0.11200000531971455, 1.0560000501573086, 0.0, 0.0, 0.0, 0.0, 0.0, 1.710387151340943E9, 0.0, 2024-03-13 20:32:31.340
63.0, 1242.8603828246705, 780.5376902022399, -82.23666012566537, 3059.2587332041003, 0.01600000075995922, -0.11200000531971455, 1.0560000501573086, 0.0, 0.0, 0.0, 0.0, 0.0, 1.710387151340943E9, 0.0, 2024-03-13 20:32:31.340
64.0, 1278.5502481018193, 685.2300797314383, -2.333697572350502, 2918.683373669628, 0.01600000075995922, -0.11200000531971455, 1.0560000501573086, 0.0, 0.0, 0.0, 0.0, 0.0, 1.710387151341684E9, 0.0, 2024-03-13 20:32:31.341
64.0, 1352.9499478703365, 577.8687717034481, 62.23006531270221, 2861.20485125063, 0.01600000075995922, -0.11200000531971455, 1.0560000501573086, 0.0, 0.0, 0.0, 0.0, 0.0, 1.710387151341684E9, 0.0, 2024-03-13 20:32:31.341
65.0, 1567.0816597333178, 548.8116189977154, 238.43545172503218, 2851.565259114839, 0.01600000075995922, -0.11200000531971455, 1.0560000501573086, 0.0, 0.0, 0.0, 0.0, 0.0, 1.7103871513556955E9, 0.0, 2024-03-13 20:32:31.355
65.0, 1365.7198362690397, 370.68953385809436, 62.04868016485125, 2610.452039021533, 0.01600000075995922, -0.11200000531971455, 1.0560000501573086, 0.0, 0.0, 0.0, 0.0, 0.0, 1.7103871513556955E9, 0.0, 2024-03-13 20:32:31.355
66.0, 1468.591394400224, 216.51963798468933, 191.63808357948437, 2477.124605601188, 0.01600000075995922, -0.11200000531971455, 1.0560000501573086, 0.0, 0.0, 0.0, 0.0, 0.0, 1.7103871513711388E9, 0.0, 2024-03-13 20:32:31.371
66.0, 1408.5734799113125, 296.4113808381371, 101.45039614802226, 2605.9005807754584, 0.01600000075995922, -0.11200000531971455, 1.0560000501573086, 0.0, 0.0, 0.0, 0.0, 0.0, 1.7103871513711388E9, 0.0, 2024-03-13 20:32:31.371
67.0, 1344.260290323291, 404.584247156512, 35.70108497701585, 2663.5847976920195, 0.01600000075995922, -0.11200000531971455, 1.0560000501573086, 0.0, 0.0, 0.0, 0.0, 0.0, 1.7103871513717237E9, 0.0, 2024-03-13 20:32:31.371
67.0, 1123.7408293359913, 446.70487040746957, -141.9591225180775, 2686.5496533699334, 0.01600000075995922, -0.11200000531971455, 1.0560000501573086, 0.0, 0.0, 0.0, 0.0, 0.0, 1.7103871513717237E9, 0.0, 2024-03-13 20:32:31.371
68.0, 1339.9350960245356, 607.8104107487015, 37.412089206743985, 2912.9725464372896, 0.01600000075995922, -0.11200000531971455, 1.0560000501573086, 0.0, 0.0, 0.0, 0.0, 0.0, 1.7103871513853092E9, 0.0, 2024-03-13 20:32:31.385
68.0, 1232.0782512524165, 768.9140811399557, -88.54587135091424, 3057.7104146224447, 0.01600000075995922, -0.11200000531971455, 1.0560000501573086, 0.0, 0.0, 0.0, 0.0, 0.0, 1.7103871513853092E9, 0.0, 2024-03-13 20:32:31.385
69.0, 1272.0503019788302, 673.8794833659194, -11.171081167645752, 2912.807990839239, 0.01600000075995922, -0.11200000531971455, 1.0560000501573086, 0.0, 0.0, 0.0, 0.0, 0.0, 1.7103871514012465E9, 0.0, 2024-03-13 20:32:31.401
69.0, 1350.193641602993, 574.51782134315, 69.65376672474667, 2862.756909732241, 0.01600000075995922, -0.11200000531971455, 1.0560000501573086, 0.0, 0.0, 0.0, 0.0, 0.0, 1.7103871514012465E9, 0.0, 2024-03-13 20:32:31.401
70.0, 1556.7296166559681, 546.3956436263397, 246.20322393300012, 2851.19126911927, 0.01600000075995922, -0.11200000531971455, 1.0560000501573086, 0.0, 0.0, 0.0, 0.0, 0.0, 1.710387151401723E9, 0.0, 2024-03-13 20:32:31.401
70.0, 1367.7206827453338, 367.25630569877103, 57.5832396177575, 3094.213708139956, 0.01600000075995922, -0.11200000531971455, 1.0560000501573086, 0.0, 0.0, 0.0, 0.0, 0.0, 1.710387151401723E9, 0.0, 2024-03-13 20:32:31.401
71.0, 1462.5402362719178, 210.81629055226222, 185.12691775662825, 2962.8347625965253, 0.01600000075995922, -0.11200000531971455, 1.0560000501573086, 0.0, 0.0, 0.0, 0.0, 0.0, 1.7103871514153247E9, 0.0, 2024-03-13 20:32:31.415
71.0, 1419.48276808206, 284.42874138010666, 96.6595843047835, 3087.956855514087, 0.01600000075995922, -0.11200000531971455, 1.0560000501573086, 0.0, 0.0, 0.0, 0.0, 0.0, 1.7103871514153247E9, 0.0, 2024-03-13 20:32:31.415
72.0, 1332.57310296176, 398.12170003307983, 32.10704111959785, 3150.2748084757477, 0.01600000075995922, -0.11200000531971455, 1.0560000501573086, 0.0, 0.0, 0.0, 0.0, 0.0, 1.7103871514309704E9, 0.0, 2024-03-13 20:32:31.430
72.0, 1134.852072104346, 434.1388065563515, -142.4340898124501, 3173.4004798517562, 0.01600000075995922, -0.11200000531971455, 1.0560000501573086, 0.0, 0.0, 0.0, 0.0, 0.0, 1.7103871514309704E9, 0.0, 2024-03-13 20:32:31.430
73.0, 1341.412356507033, 605.5889101750217, 42.78632544307038, 3402.7030958849937, 0.01600000075995922, -0.11200000531971455, 1.0560000501573086, 0.0, 0.0, 0.0, 0.0, 0.0, 1.710387151431666E9, 0.0, 2024-03-13 20:32:31.431
73.0, 1245.0931030982174, 778.0132577321492, -82.68918802030385, 3548.4843961577863, 0.01600000075995922, -0.11200000531971455, 1.0560000501573086, 0.0, 0.0, 0.0, 0.0, 0.0, 1.710387151431666E9, 0.0, 2024-03-13 20:32:31.431
74.0, 1278.337073804345, 690.3761820704676, -3.590303957462311, 3413.1261970615014, 0.01600000075995922, -0.11200000531971455, 1.0560000501573086, 0.0, 0.0, 0.0, 0.0, 0.0, 1.710387151445682E9, 0.0, 2024-03-13 20:32:31.445
74.0, 1357.6996208140627, 582.0574596538208, 73.06455548433587, 3354.880995151587, 0.01600000075995922, -0.11200000531971455, 1.0560000501573086, 0.0, 0.0, 0.0, 0.0, 0.0, 1.710387151445682E9, 0.0, 2024-03-13 20:32:31.445
75.0, 1566.415957541205, 547.5998914120719, 251.58867986919358, 3343.506089436356, 0.01600000075995922, -0.11200000531971455, 1.0560000501573086, 0.0, 0.0, 0.0, 0.0, 0.0, 1.71038715146138E9, 0.0, 2024-03-13 20:32:31.461
75.0, 1372.1038454934023, 377.1259016818367, 71.93323574773967, 3106.2412263974547, 0.01600000075995922, -0.11200000531971455, 1.0560000501573086, 0.0, 0.0, 0.0, 0.0, 0.0, 1.71038715146138E9, 0.0, 2024-03-13 20:32:31.461
76.0, 1471.0372889712453, 217.8660019687377, 199.69008818408474, 2969.8246356137097, 0.01600000075995922, -0.11200000531971455, 1.0560000501573086, 0.0, 0.0, 0.0, 0.0, 0.0, 1.7103871514618893E9, 0.0, 2024-03-13 20:32:31.461
76.0, 1416.3038531197235, 293.39328157389536, 116.58951116865501, 3098.6679289871827, 0.01600000075995922, -0.11200000531971455, 1.0560000501573086, 0.0, 0.0, 0.0, 0.0, 0.0, 1.7103871514618893E9, 0.0, 2024-03-13 20:32:31.461
77.0, 1358.9917562487535, 413.01772155659273, 44.504809472709894, 3160.896124349907, 0.01600000075995922, -0.11200000531971455, 1.0560000501573086, 0.0, 0.0, 0.0, 0.0, 0.0, 1.7103871514752927E9, 0.0, 2024-03-13 20:32:31.475
77.0, 1140.3310255394317, 451.7724348474294, -136.21837608609349, 3179.952784574125, 0.01600000075995922, -0.11200000531971455, 1.0560000501573086, 0.0, 0.0, 0.0, 0.0, 0.0, 1.7103871514752927E9, 0.0, 2024-03-13 20:32:31.475
78.0, 1336.8646381609142, 612.8069170895033, 48.84870327124372, 3408.8664510119706, 0.01600000075995922, -0.11200000531971455, 1.0560000501573086, 0.0, 0.0, 0.0, 0.0, 0.0, 1.7103871514909208E9, 0.0, 2024-03-13 20:32:31.490
78.0, 1246.8994747768156, 787.9763512141071, -73.71716802660376, 3556.506481562741, 0.01600000075995922, -0.11200000531971455, 1.0560000501573086, 0.0, 0.0, 0.0, 0.0, 0.0, 1.7103871514909208E9, 0.0, 2024-03-13 20:32:31.490
79.0, 1304.1872622980736, 707.968671462033, 10.138868779875338, 3427.3228572933003, 0.01600000075995922, -0.11200000531971455, 1.0560000501573086, 0.0, 0.0, 0.0, 0.0, 0.0, 1.7103871514916384E9, 0.0, 2024-03-13 20:32:31.491
79.0, 1369.1437146784738, 592.2748663327657, 80.25638309912756, 3360.7114991825074, 0.01600000075995922, -0.11200000531971455, 1.0560000501573086, 0.0, 0.0, 0.0, 0.0, 0.0, 1.7103871514916384E9, 0.0, 2024-03-13 20:32:31.491
80.0, 1562.5339413871989, 538.02200762555, 243.78724856162444, 3334.6350467414595, 0.01600000075995922, -0.11200000531971455, 1.0560000501573086, 0.0, 0.0, 0.0, 0.0, 0.0, 1.710387151505312E9, 0.0, 2024-03-13 20:32:31.505
80.0, 1371.9243302955292, 373.0419309302233, 69.52100027631968, 3104.3899759193882, 0.01600000075995922, -0.11200000531971455, 1.0560000501573086, 0.0, 0.0, 0.0, 0.0, 0.0, 1.710387151505312E9, 0.0, 2024-03-13 20:32:31.505
81.0, 1479.9270311659202, 229.14554023509845, 208.1908807833679, 2982.4767171638086, 0.01600000075995922, -0.11200000531971455, 1.0560000501573086, 0.0, 0.0, 0.0, 0.0, 0.0, 1.7103871515209124E9, 0.0, 2024-03-13 20:32:31.520
81.0, 1427.0934644918889, 291.889841791708, 114.91777588846162, 3102.400349142961, 0.01600000075995922, -0.11200000531971455, 1.0560000501573086, 0.0, 0.0, 0.0, 0.0, 0.0, 1.7103871515209124E9, 0.0, 2024-03-13 20:32:31.520
82.0, 1358.1876777582802, 409.5134352981113, 41.7971219047904, 3160.6268515530974, 0.01600000075995922, -0.11200000531971455, 1.0560000501573086, 0.0, 0.0, 0.0, 0.0, 0.0, 1.7103871515216396E9, 0.0, 2024-03-13 20:32:31.521
82.0, 1127.0880397963338, 462.31895272247493, -127.66522488743067, 3190.6077595478855, 0.01600000075995922, -0.11200000531971455, 1.0560000501573086, 0.0, 0.0, 0.0, 0.0, 0.0, 1.7103871515216396E9, 0.0, 2024-03-13 20:32:31.521
83.0, 1317.3872391916811, 610.6938736145385, 41.23800686141476, 3404.5019877636805, 0.01600000075995922, -0.11200000531971455, 1.0560000501573086, 0.0, 0.0, 0.0, 0.0, 0.0, 1.7103871515352995E9, 0.0, 2024-03-13 20:32:31.535
83.0, 1233.2151808389463, 787.4826844199561, -87.34910336509347, 3547.3699059709907, 0.01600000075995922, -0.11200000531971455, 1.0560000501573086, 0.0, 0.0, 0.0, 0.0, 0.0, 1.7103871515352995E9, 0.0, 2024-03-13 20:32:31.535
84.0, 1292.4252769374289, 705.664893089328, -5.1722816387191415, 3415.661849231459, 0.01600000075995922, -0.11200000531971455, 1.0560000501573086, 0.0, 0.0, 0.0, 0.0, 0.0, 1.7103871515510762E9, 0.0, 2024-03-13 20:32:31.551
84.0, 1361.1889474727213, 583.1756897405721, 70.24467091774568, 3352.2181863831356, 0.01600000075995922, -0.11200000531971455, 1.0560000501573086, 0.0, 0.0, 0.0, 0.0, 0.0, 1.7103871515510762E9, 0.0, 2024-03-13 20:32:31.551
85.0, 1579.4308093870059, 544.7874866453931, 246.8726660250686, 3338.3375476975925, 0.01600000075995922, -0.11200000531971455, 1.0560000501573086, 0.0, 0.0, 0.0, 0.0, 0.0, 1.7103871515516796E9, 0.0, 2024-03-13 20:32:31.551
85.0, 1380.9412290886976, 381.8606150257401, 67.41169670131058, 3105.6540621044114, 0.01600000075995922, -0.11200000531971455, 1.0560000501573086, 0.0, 0.0, 0.0, 0.0, 0.0, 1.7103871515516796E9, 0.0, 2024-03-13 20:32:31.551
86.0, 1489.2730411551893, 234.38140017306432, 198.5905575971119, 2974.174139262177, 0.01600000075995922, -0.11200000531971455, 1.0560000501573086, 0.0, 0.0, 0.0, 0.0, 0.0, 1.7103871515653453E9, 0.0, 2024-03-13 20:32:31.565
86.0, 1420.1634298739955, 290.0011923140846, 100.06289326446131, 3087.519287219271, 0.01600000075995922, -0.11200000531971455, 1.0560000501573086, 0.0, 0.0, 0.0, 0.0, 0.0, 1.7103871515653453E9, 0.0, 2024-03-13 20:32:31.565
87.0, 1356.815134474542, 410.3698723879643, 41.44183140899986, 3155.8584791095927, 0.01600000075995922, -0.11200000531971455, 1.0560000501573086, 0.0, 0.0, 0.0, 0.0, 0.0, 1.7103871515810452E9, 0.0, 2024-03-13 20:32:31.581
87.0, 1149.1347500351258, 456.4734890917316, -135.7284491918981, 3184.7697757170536, 0.01600000075995922, -0.11200000531971455, 1.0560000501573086, 0.0, 0.0, 0.0, 0.0, 0.0, 1.7103871515810452E9, 0.0, 2024-03-13 20:32:31.581
88.0, 1341.3375585079193, 603.2739121024497, 37.464447806123644, 3393.8507526898757, 0.01600000075995922, -0.11200000531971455, 1.0560000501573086, 0.0, 0.0, 0.0, 0.0, 0.0, 1.7103871515817652E9, 0.0, 2024-03-13 20:32:31.581
88.0, 1251.6304482207634, 777.4859318383969, -80.52378594595939, 3554.2363622896373, 0.01600000075995922, -0.11200000531971455, 1.0560000501573086, 0.0, 0.0, 0.0, 0.0, 0.0, 1.7103871515817652E9, 0.0, 2024-03-13 20:32:31.581
89.0, 1304.3966966955923, 703.2750970176421, 10.718553273007274, 3426.5337384026498, 0.01600000075995922, -0.11200000531971455, 1.0560000501573086, 0.0, 0.0, 0.0, 0.0, 0.0, 1.710387151595595E9, 0.0, 2024-03-13 20:32:31.595
89.0, 1382.6709328182042, 603.5207454995252, 88.07277400651947, 3374.163919323124, 0.01600000075995922, -0.11200000531971455, 1.0560000501573086, 0.0, 0.0, 0.0, 0.0, 0.0, 1.710387151595595E9, 0.0, 2024-03-13 20:32:31.595
90.0, 1573.9368963520974, 553.520153041929, 248.1404921100475, 3342.9600640428253, 0.01600000075995922, -0.11200000531971455, 1.0560000501573086, 0.0, 0.0, 0.0, 0.0, 0.0, 1.7103871516111689E9, 0.0, 2024-03-13 20:32:31.611
90.0, 1367.6271852464415, 392.3472945014946, 65.75866092089564, 3109.105989763513, 0.01600000075995922, -0.11200000531971455, 1.0560000501573086, 0.0, 0.0, 0.0, 0.0, 0.0, 1.7103871516111689E9, 0.0, 2024-03-13 20:32:31.611
91.0, 1478.7078237803653, 237.88194653159007, 200.8868561699055, 2978.7854359075427, 0.01600000075995922, -0.11200000531971455, 1.0560000501573086, 0.0, 0.0, 0.0, 0.0, 0.0, 1.7103871516118672E9, 0.0, 2024-03-13 20:32:31.611
91.0, 1403.5956730702892, 291.3026774986647, 100.96794905373827, 3085.1519305473194, 0.01600000075995922, -0.11200000531971455, 1.0560000501573086, 0.0, 0.0, 0.0, 0.0, 0.0, 1.7103871516118672E9, 0.0, 2024-03-13 20:32:31.611
92.0, 1350.2216908526607, 423.68391623022035, 46.535575148649514, 3168.5367399593815, 0.01600000075995922, -0.11200000531971455, 1.0560000501573086, 0.0, 0.0, 0.0, 0.0, 0.0, 1.7103871516253233E9, 0.0, 2024-03-13 20:32:31.625
92.0, 1142.885377209168, 469.3724040389061, -125.95609060768038, 3198.985135448631, 0.01600000075995922, -0.11200000531971455, 1.0560000501573086, 0.0, 0.0, 0.0, 0.0, 0.0, 1.7103871516253233E9, 0.0, 2024-03-13 20:32:31.625
93.0, 1336.6439840635285, 617.9044007291086, 54.96717959875241, 3411.671375978738, 0.01600000075995922, -0.11200000531971455, 1.0560000501573086, 0.0, 0.0, 0.0, 0.0, 0.0, 1.7103871516409407E9, 0.0, 2024-03-13 20:32:31.640
93.0, 1237.1532954922877, 785.8483481393196, -78.6687955679372, 3557.3816181523725, 0.01600000075995922, -0.11200000531971455, 1.0560000501573086, 0.0, 0.0, 0.0, 0.0, 0.0, 1.7103871516409407E9, 0.0, 2024-03-13 20:32:31.640
94.0, 1291.8343727444299, 709.7077249414288, 7.823870707303286, 3432.0500908372924, 0.01600000075995922, -0.11200000531971455, 1.0560000501573086, 0.0, 0.0, 0.0, 0.0, 0.0, 1.710387151641654E9, 0.0, 2024-03-13 20:32:31.641
94.0, 1366.9072545049712, 600.7120806328021, 92.01462855981663, 3374.407012820244, 0.01600000075995922, -0.11200000531971455, 1.0560000501573086, 0.0, 0.0, 0.0, 0.0, 0.0, 1.710387151641654E9, 0.0, 2024-03-13 20:32:31.641
95.0, 1554.5829140814021, 544.5219537485391, 245.48890304146335, 3339.1453660880215, 0.01600000075995922, -0.11200000531971455, 1.0560000501573086, 0.0, 0.0, 0.0, 0.0, 0.0, 1.7103871516554646E9, 0.0, 2024-03-13 20:32:31.655
95.0, 1374.3664849665947, 389.508710435126, 80.63598294463009, 3121.8253895128146, 0.01600000075995922, -0.11200000531971455, 1.0560000501573086, 0.0, 0.0, 0.0, 0.0, 0.0, 1.7103871516554646E9, 0.0, 2024-03-13 20:32:31.655
96.0, 1469.8293012855574, 226.1984990700148, 205.95068070990965, 2982.7684293603525, 0.01600000075995922, -0.11200000531971455, 1.0560000501573086, 0.0, 0.0, 0.0, 0.0, 0.0, 1.710387151670915E9, 0.0, 2024-03-13 20:32:31.670
96.0, 1396.145792358555, 273.0332662151195, 101.53641384700313, 3086.8722845269367, 0.01600000075995922, -0.11200000531971455, 1.0560000501573086, 0.0, 0.0, 0.0, 0.0, 0.0, 1.710387151670915E9, 0.0, 2024-03-13 20:32:31.670
97.0, 1348.5312560726888, 404.6964441551827, 40.97808381449431, 3158.988775372505, 0.01600000075995922, -0.11200000531971455, 1.0560000501573086, 0.0, 0.0, 0.0, 0.0, 0.0, 1.7103871516716716E9, 0.0, 2024-03-13 20:32:31.671
97.0, 1150.2492402219214, 457.0344740850851, -138.04344726447016, 3186.419071597513, 0.01600000075995922, -0.11200000531971455, 1.0560000501573086, 0.0, 0.0, 0.0, 0.0, 0.0, 1.7103871516716716E9, 0.0, 2024-03-13 20:32:31.671
98.0, 1348.4358886238188, 607.7094334498979, 38.111450498458, 3400.806966607459, 0.01600000075995922, -0.11200000531971455, 1.0560000501573086, 0.0, 0.0, 0.0, 0.0, 0.0, 1.710387151685377E9, 0.0, 2024-03-13 20:32:31.685
98.0, 1250.512218134012, 776.5098179499619, -81.86267013009638, 3551.150944826193, 0.01600000075995922, -0.11200000531971455, 1.0560000501573086, 0.0, 0.0, 0.0, 0.0, 0.0, 1.710387151685377E9, 0.0, 2024-03-13 20:32:31.685
99.0, 1314.1166966804303, 716.1852316646837, 14.443493628874421, 3431.571383642964, 0.01600000075995922, -0.11200000531971455, 1.0560000501573086, 0.0, 0.0, 0.0, 0.0, 0.0, 1.7103871517009315E9, 0.0, 2024-03-13 20:32:31.700
99.0, 1381.878074027598, 600.4390679360367, 93.05806064745411, 3369.0813952833414, 0.01600000075995922, -0.11200000531971455, 1.0560000501573086, 0.0, 0.0, 0.0, 0.0, 0.0, 1.7103871517009315E9, 0.0, 2024-03-13 20:32:31.700
100.0, 1567.1190587328747, 545.6401838352904, 250.09271988691762, 3334.8781402385794, 0.01600000075995922, -0.11200000531971455, 1.0560000501573086, 0.0, 0.0, 0.0, 0.0, 0.0, 1.7103871517016451E9, 0.0, 2024-03-13 20:32:31.701
100.0, 1379.9052768009715, 390.2791298259981, 80.57240464538336, 3120.8866746239364, 0.01600000075995922, -0.11200000531971455, 1.0560000501573086, 0.0, 0.0, 0.0, 0.0, 0.0, 1.7103871517016451E9, 0.0, 2024-03-13 20:32:31.701
0.0, -466.30007622530684, -247.19055752130225, -275.5651784851216, -442.1852013110183, 0.01600000075995922, -0.11200000531971455, 1.0560000501573086, 0.0, 0.0, 0.0, 0.0, 0.0, 1.7103871517160633E9, 0.0, 2024-03-13 20:32:31.716
1.0, -541.8423154302873, -202.7044475483708, -392.945678494405, -342.08303909702227, 0.01600000075995922, -0.11200000531971455, 1.0560000501573086, 0.0, 0.0, 0.0, 0.0, 0.0, 1.710387151716722E9, 0.0, 2024-03-13 20:32:31.716
1.0, -605.6356589244679, -82.23853007564321, -449.6519115725532, -268.1040780735202, 0.01600000075995922, -0.11200000531971455, 1.0560000501573086, 0.0, 0.0, 0.0, 0.0, 0.0, 1.710387151716722E9, 0.0, 2024-03-13 20:32:31.716
2.0, -805.8250237526372, -22.54785683285445, -612.4834157433361, -231.38387035857886, 0.01600000075995922, -0.11200000531971455, 1.0560000501573086, 0.0, 0.0, 0.0, 0.0, 0.0, 1.7103871517303703E9, 0.0, 2024-03-13 20:32:31.730
2.0, -628.42847920442, 120.38176972372457, -440.2741124336608, -29.677976098377258, 0.01600000075995922, -0.11200000531971455, 1.0560000501573086, 0.0, 0.0, 0.0, 0.0, 0.0, 1.7103871517303703E9, 0.0, 2024-03-13 20:32:31.730
3.0, -740.1037618312985, 270.90900304028764, -578.992611640133, 108.83295866055414, 0.01600000075995922, -0.11200000531971455, 1.0560000501573086, 0.0, 0.0, 0.0, 0.0, 0.0, 1.710387151746133E9, 0.0, 2024-03-13 20:32:31.746
3.0, -660.1334810787812, 219.33204275136814, -479.46639401931316, 2.5562216197140515, 0.01600000075995922, -0.11200000531971455, 1.0560000501573086, 0.0, 0.0, 0.0, 0.0, 0.0, 1.710387151746133E9, 0.0, 2024-03-13 20:32:31.746
4.0, -595.1433695987798, 95.01028842432424, -402.7741355779581, -68.3448017402552, 0.01600000075995922, -0.11200000531971455, 1.0560000501573086, 0.0, 0.0, 0.0, 0.0, 0.0, 1.7103871517467089E9, 0.0, 2024-03-13 20:32:31.746
4.0, -397.56445493968204, 37.653312753885984, -244.38563255453482, -103.90938036888838, 0.01600000075995922, -0.11200000531971455, 1.0560000501573086, 0.0, 0.0, 0.0, 0.0, 0.0, 1.7103871517467089E9, 0.0, 2024-03-13 20:32:31.746
5.0, -581.9022538056597, -109.96240844717249, -424.96109206508845, -316.14309300435707, 0.01600000075995922, -0.11200000531971455, 1.0560000501573086, 0.0, 0.0, 0.0, 0.0, 0.0, 1.7103871517602756E9, 0.0, 2024-03-13 20:32:31.760
5.0, -472.6915652495809, -252.0636471635662, -280.2250938299112, -438.5275791543536, 0.01600000075995922, -0.11200000531971455, 1.0560000501573086, 0.0, 0.0, 0.0, 0.0, 0.0, 1.7103871517602756E9, 0.0, 2024-03-13 20:32:31.760
6.0, -545.2418844900094, -204.47716012736782, -391.18418561527506, -344.4129967694171, 0.01600000075995922, -0.11200000531971455, 1.0560000501573086, 0.0, 0.0, 0.0, 0.0, 0.0, 1.7103871517759933E9, 0.0, 2024-03-13 20:32:31.775
6.0, -615.0078482134268, -84.02620225446299, -451.813573746942, -272.3787837228738, 0.01600000075995922, -0.11200000531971455, 1.0560000501573086, 0.0, 0.0, 0.0, 0.0, 0.0, 1.7103871517759933E9, 0.0, 2024-03-13 20:32:31.775
7.0, -812.8298563696444, -21.66524044331163, -617.9848085781559, -232.67413584329188, 0.01600000075995922, -0.11200000531971455, 1.0560000501573086, 0.0, 0.0, 0.0, 0.0, 0.0, 1.7103871517767067E9, 0.0, 2024-03-13 20:32:31.776
7.0, -625.5973749379627, 115.62087708013132, -443.3071712977253, -31.753620573785156, 0.01600000075995922, -0.11200000531971455, 1.0560000501573086, 0.0, 0.0, 0.0, 0.0, 0.0, 1.7103871517767067E9, 0.0, 2024-03-13 20:32:31.776
8.0, -737.9907183563337, 278.99092684453353, -575.7426385786384, 112.58033841615543, 0.01600000075995922, -0.11200000531971455, 1.0560000501573086, 0.0, 0.0, 0.0, 0.0, 0.0, 1.7103871517902727E9, 0.0, 2024-03-13 20:32:31.790
8.0, -677.4604375734925, 215.94743329146877, -482.98189997766167, -2.6123201190494, 0.01600000075995922, -0.11200000531971455, 1.0560000501573086, 0.0, 0.0, 0.0, 0.0, 0.0, 1.7103871517902727E9, 0.0, 2024-03-13 20:32:31.790
9.0, -598.6326962574385, 95.79566741501912, -398.3834930299781, -63.550249997060746, 0.01600000075995922, -0.11200000531971455, 1.0560000501573086, 0.0, 0.0, 0.0, 0.0, 0.0, 1.7103871518059947E9, 0.0, 2024-03-13 20:32:31.805
9.0, -407.60234642075375, 33.41226620413363, -250.9865559763275, -110.59632148966193, 0.01600000075995922, -0.11200000531971455, 1.0560000501573086, 0.0, 0.0, 0.0, 0.0, 0.0, 1.7103871518059947E9, 0.0, 2024-03-13 20:32:31.805
10.0, -598.0623615141958, -109.5884184516035, -419.81872962601483, -321.63326613930985, 0.01600000075995922, -0.11200000531971455, 1.0560000501573086, 0.0, 0.0, 0.0, 0.0, 0.0, 1.710387151806698E9, 0.0, 2024-03-13 20:32:31.806
10.0, -492.78230781154707, -269.409303158056, -282.54009190248325, -453.4909188770689, 0.01600000075995922, -0.11200000531971455, 1.0560000501573086, 0.0, 0.0, 0.0, 0.0, 0.0, 1.710387151806698E9, 0.0, 2024-03-13 20:32:31.806
11.0, -569.7569286995567, -229.55318933026865, -398.1291798329912, -360.7787989755161, 0.01600000075995922, -0.11200000531971455, 1.0560000501573086, 0.0, 0.0, 0.0, 0.0, 0.0, 1.710387151820274E9, 0.0, 2024-03-13 20:32:31.820
11.0, -631.6952818157151, -100.31720646144822, -470.6252705240622, -289.72443971736357, 0.01600000075995922, -0.11200000531971455, 1.0560000501573086, 0.0, 0.0, 0.0, 0.0, 0.0, 1.710387151820274E9, 0.0, 2024-03-13 20:32:31.820
12.0, -820.0441233841702, -35.592627878300846, -624.424916301854, -241.68355483654886, 0.01600000075995922, -0.11200000531971455, 1.0560000501573086, 0.0, 0.0, 0.0, 0.0, 0.0, 1.7103871518360028E9, 0.0, 2024-03-13 20:32:31.836
12.0, -642.6849778355099, 94.70361662795767, -462.47789847059175, -50.16888795560226, 0.01600000075995922, -0.11200000531971455, 1.0560000501573086, 0.0, 0.0, 0.0, 0.0, 0.0, 1.7103871518360028E9, 0.0, 2024-03-13 20:32:31.836
13.0, -712.357444060035, 265.2467945073731, -585.9600452575833, 104.34133881377056, 0.01600000075995922, -0.11200000531971455, 1.0560000501573086, 0.0, 0.0, 0.0, 0.0, 0.0, 1.7103871518367429E9, 0.0, 2024-03-13 20:32:31.836
13.0, -641.8977288948372, 208.31429748190567, -484.1562285637483, -1.8755598277784884, 0.01600000075995922, -0.11200000531971455, 1.0560000501573086, 0.0, 0.0, 0.0, 0.0, 0.0, 1.7103871518367429E9, 0.0, 2024-03-13 20:32:31.836
14.0, -607.5299182520248, 94.92801062529907, -408.70561690768227, -74.97190446173772, 0.01600000075995922, -0.11200000531971455, 1.0560000501573086, 0.0, 0.0, 0.0, 0.0, 0.0, 1.7103871518502684E9, 0.0, 2024-03-13 20:32:31.850
14.0, -434.45856800256297, 32.454851815477014, -253.29407424898818, -113.236690858379, 0.01600000075995922, -0.11200000531971455, 1.0560000501573086, 0.0, 0.0, 0.0, 0.0, 0.0, 1.7103871518502684E9, 0.0, 2024-03-13 20:32:31.850
15.0, -614.4730425197631, -118.31734494818375, -424.194412574172, -319.71469746204093, 0.01600000075995922, -0.11200000531971455, 1.0560000501573086, 0.0, 0.0, 0.0, 0.0, 0.0, 1.710387151866145E9, 0.0, 2024-03-13 20:32:31.866
15.0, -501.27188071096316, -256.2485952139832, -279.8137048347853, -444.36556298518553, 0.01600000075995922, -0.11200000531971455, 1.0560000501573086, 0.0, 0.0, 0.0, 0.0, 0.0, 1.710387151866145E9, 0.0, 2024-03-13 20:32:31.866
16.0, -571.780214575585, -218.22129246452823, -394.5126965758391, -349.79845270561054, 0.01600000075995922, -0.11200000531971455, 1.0560000501573086, 0.0, 0.0, 0.0, 0.0, 0.0, 1.7103871518666906E9, 0.0, 2024-03-13 20:32:31.866
16.0, -634.6984214801341, -82.8369140685536, -451.64527824893594, -271.4812077335082, 0.01600000075995922, -0.11200000531971455, 1.0560000501573086, 0.0, 0.0, 0.0, 0.0, 0.0, 1.7103871518666906E9, 0.0, 2024-03-13 20:32:31.866
17.0, -813.5740964608267, -6.694420920684934, -611.8588524507359, -221.72744867298752, 0.01600000075995922, -0.11200000531971455, 1.0560000501573086, 0.0, 0.0, 0.0, 0.0, 0.0, 1.7103871518803885E9, 0.0, 2024-03-13 20:32:31.880
17.0, -653.4371902081184, 104.34507871372625, -463.5736891576089, -47.16948819113895, 0.01600000075995922, -0.11200000531971455, 1.0560000501573086, 0.0, 0.0, 0.0, 0.0, 0.0, 1.7103871518803885E9, 0.0, 2024-03-13 20:32:31.880
18.0, -747.8715340392664, 263.7059557256289, -593.211711271666, 99.91329726623371, 0.01600000075995922, -0.11200000531971455, 1.0560000501573086, 0.0, 0.0, 0.0, 0.0, 0.0, 1.7103871518960092E9, 0.0, 2024-03-13 20:32:31.896
18.0, -665.623654213734, 222.99714470794424, -482.5705109825358, 5.338707186747342, 0.01600000075995922, -0.11200000531971455, 1.0560000501573086, 0.0, 0.0, 0.0, 0.0, 0.0, 1.7103871518960092E9, 0.0, 2024-03-13 20:32:31.896
19.0, -583.6394373350777, 107.0714657814242, -405.8483333415352, -59.556036844383925, 0.01600000075995922, -0.11200000531971455, 1.0560000501573086, 0.0, 0.0, 0.0, 0.0, 0.0, 1.7103871518969653E9, 0.0, 2024-03-13 20:32:31.896
19.0, -405.2162902490236, 37.82160825189203, -261.02070755744353, -110.25599059369415, 0.01600000075995922, -0.11200000531971455, 1.0560000501573086, 0.0, 0.0, 0.0, 0.0, 0.0, 1.7103871518969653E9, 0.0, 2024-03-13 20:32:31.896
20.0, -578.3493488477543, -96.6932434043847, -419.7962902262807, -308.7605304918252, 0.01600000075995922, -0.11200000531971455, 1.0560000501573086, 0.0, 0.0, 0.0, 0.0, 0.0, 1.7103871519104629E9, 0.0, 2024-03-13 20:32:31.910
20.0, -465.948525629472, -246.06858753459528, -276.6347898724489, -434.2940124045126, 0.01600000075995922, -0.11200000531971455, 1.0560000501573086, 0.0, 0.0, 0.0, 0.0, 0.0, 1.7103871519104629E9, 0.0, 2024-03-13 20:32:31.910
21.0, -561.854520093184, -217.87722166860476, -394.25464347889647, -355.6588759361766, 0.01600000075995922, -0.11200000531971455, 1.0560000501573086, 0.0, 0.0, 0.0, 0.0, 0.0, 1.7103871519259684E9, 0.0, 2024-03-13 20:32:31.925
21.0, -624.5296335006133, -90.51492867758498, -468.77028014604, -283.76303918799385, 0.01600000075995922, -0.11200000531971455, 1.0560000501573086, 0.0, 0.0, 0.0, 0.0, 0.0, 1.7103871519259684E9, 0.0, 2024-03-13 20:32:31.925
22.0, -811.7901641819626, -20.618068455718458, -619.0394603656605, -229.4092031819746, 0.01600000075995922, -0.11200000531971455, 1.0560000501573086, 0.0, 0.0, 0.0, 0.0, 0.0, 1.7103871519267578E9, 0.0, 2024-03-13 20:32:31.926
22.0, -637.8006684933789, 105.93079629493877, -452.7915575853549, -39.27829928463325, 0.01600000075995922, -0.11200000531971455, 1.0560000501573086, 0.0, 0.0, 0.0, 0.0, 0.0, 1.7103871519267578E9, 0.0, 2024-03-13 20:32:31.926
23.0, -732.0330577269197, 281.27600571746007, -572.1672942209989, 115.32168508367613, 0.01600000075995922, -0.11200000531971455, 1.0560000501573086, 0.0, 0.0, 0.0, 0.0, 0.0, 1.7103871519402697E9, 0.0, 2024-03-13 20:32:31.940
23.0, -656.397321023047, 231.77468990394846, -471.3732505152002, 12.736229299101979, 0.01600000075995922, -0.11200000531971455, 1.0560000501573086, 0.0, 0.0, 0.0, 0.0, 0.0, 1.7103871519402697E9, 0.0, 2024-03-13 20:32:31.940
24.0, -588.194635481108, 103.5110810236074, -396.64069965062663, -60.04970363853499, 0.01600000075995922, -0.11200000531971455, 1.0560000501573086, 0.0, 0.0, 0.0, 0.0, 0.0, 1.7103871519559505E9, 0.0, 2024-03-13 20:32:31.955
24.0, -398.48821022873744, 35.11766058392823, -249.55417429329827, -101.74397829454392, 0.01600000075995922, -0.11200000531971455, 1.0560000501573086, 0.0, 0.0, 0.0, 0.0, 0.0, 1.7103871519559505E9, 0.0, 2024-03-13 20:32:31.955
25.0, -573.6221153037623, -94.47548273066059, -407.888448767364, -300.48039198992774, 0.01600000075995922, -0.11200000531971455, 1.0560000501573086, 0.0, 0.0, 0.0, 0.0, 0.0, 1.710387151956662E9, 0.0, 2024-03-13 20:32:31.956
25.0, -462.1001685750671, -233.9400919782929, -258.8403458832763, -420.31052647018805, 0.01600000075995922, -0.11200000531971455, 1.0560000501573086, 0.0, 0.0, 0.0, 0.0, 0.0, 1.710387151956662E9, 0.0, 2024-03-13 20:32:31.956
26.0, -567.5279483259656, -206.3358904053457, -376.77435108600184, -338.4403765401803, 0.01600000075995922, -0.11200000531971455, 1.0560000501573086, 0.0, 0.0, 0.0, 0.0, 0.0, 1.710387151970436E9, 0.0, 2024-03-13 20:32:31.970
26.0, -616.3878712970763, -76.59128114255145, -448.111072790809, -261.3311192537658, 0.01600000075995922, -0.11200000531971455, 1.0560000501573086, 0.0, 0.0, 0.0, 0.0, 0.0, 1.710387151970436E9, 0.0, 2024-03-13 20:32:31.970
27.0, -804.3589829700068, -8.392335500568151, -605.0223153317347, -219.23667530249804, 0.01600000075995922, -0.11200000531971455, 1.0560000501573086, 0.0, 0.0, 0.0, 0.0, 0.0, 1.7103871519862368E9, 0.0, 2024-03-13 20:32:31.986
27.0, -629.1540197958238, 103.91125031886622, -452.25675189169124, -42.285178849007934, 0.01600000075995922, -0.11200000531971455, 1.0560000501573086, 0.0, 0.0, 0.0, 0.0, 0.0, 1.7103871519862368E9, 0.0, 2024-03-13 20:32:31.986
28.0, -729.4974055569619, 265.7703805011697, -588.6378136258572, 99.52060777088627, 0.01600000075995922, -0.11200000531971455, 1.0560000501573086, 0.0, 0.0, 0.0, 0.0, 0.0, 1.7103871519866858E9, 0.0, 2024-03-13 20:32:31.986
28.0, -660.4214533753693, 212.59274303121492, -482.42839478421956, 0.843347440008074, 0.01600000075995922, -0.11200000531971455, 1.0560000501573086, 0.0, 0.0, 0.0, 0.0, 0.0, 1.7103871519866858E9, 0.0, 2024-03-13 20:32:31.986
29.0, -587.1362437936477, 88.7272564987652, -412.4679562631063, -75.70492485305294, 0.01600000075995922, -0.11200000531971455, 1.0560000501573086, 0.0, 0.0, 0.0, 0.0, 0.0, 1.7103871520004413E9, 0.0, 2024-03-13 20:32:32.000
29.0, -413.6684641488828, 13.033551345579326, -264.1435240204446, -125.64193901140243, 0.01600000075995922, -0.11200000531971455, 1.0560000501573086, 0.0, 0.0, 0.0, 0.0, 0.0, 1.7103871520004413E9, 0.0, 2024-03-13 20:32:32.000
30.0, -581.6554204085842, -108.75442076148465, -412.1631544167176, -311.4607382598333, 0.01600000075995922, -0.11200000531971455, 1.0560000501573086, 0.0, 0.0, 0.0, 0.0, 0.0, 1.710387152015947E9, 0.0, 2024-03-13 20:32:32.015
30.0, -469.6846856852062, -246.26680223224685, -272.86871061706915, -431.1861555413343, 0.01600000075995922, -0.11200000531971455, 1.0560000501573086, 0.0, 0.0, 0.0, 0.0, 0.0, 1.710387152015947E9, 0.0, 2024-03-13 20:32:32.015
31.0, -574.2747278460301, -226.3144359686412, -399.5466019161977, -358.8190913987346, 0.01600000075995922, -0.11200000531971455, 1.0560000501573086, 0.0, 0.0, 0.0, 0.0, 0.0, 1.7103871520166605E9, 0.0, 2024-03-13 20:32:32.016
31.0, -642.9037619829178, -84.78914184542373, -455.56843330245465, -269.42800265783444, 0.01600000075995922, -0.11200000531971455, 1.0560000501573086, 0.0, 0.0, 0.0, 0.0, 0.0, 1.7103871520166605E9, 0.0, 2024-03-13 20:32:32.016
32.0, -826.0915416125208, -8.568110798485577, -604.4014919390902, -214.65155795682222, 0.01600000075995922, -0.11200000531971455, 1.0560000501573086, 0.0, 0.0, 0.0, 0.0, 0.0, 1.7103871520303848E9, 0.0, 2024-03-13 20:32:32.030
32.0, -634.3188216346316, 119.46175433462486, -448.4457938368432, -24.74878795677796, 0.01600000075995922, -0.11200000531971455, 1.0560000501573086, 0.0, 0.0, 0.0, 0.0, 0.0, 1.7103871520303848E9, 0.0, 2024-03-13 20:32:32.030
33.0, -726.662561390549, 280.99177332082763, -577.4068940589204, 117.93587515270337, 0.01600000075995922, -0.11200000531971455, 1.0560000501573086, 0.0, 0.0, 0.0, 0.0, 0.0, 1.7103871520459816E9, 0.0, 2024-03-13 20:32:32.045
33.0, -643.360029777512, 237.63885303447023, -472.9963670959696, 21.94760288996622, 0.01600000075995922, -0.11200000531971455, 1.0560000501573086, 0.0, 0.0, 0.0, 0.0, 0.0, 1.7103871520459816E9, 0.0, 2024-03-13 20:32:32.045
34.0, -577.4349433085881, 115.23192748473957, -396.4200455532409, -56.19760668417439, 0.01600000075995922, -0.11200000531971455, 1.0560000501573086, 0.0, 0.0, 0.0, 0.0, 0.0, 1.7103871520468097E9, 0.0, 2024-03-13 20:32:32.046
34.0, -402.07851418619975, 31.41515962779522, -264.5549130155705, -117.95644460245967, 0.01600000075995922, -0.11200000531971455, 1.0560000501573086, 0.0, 0.0, 0.0, 0.0, 0.0, 1.7103871520468097E9, 0.0, 2024-03-13 20:32:32.046
35.0, -567.9823461705819, -95.4366370192729, -421.66624020412564, -313.9515116303228, 0.01600000075995922, -0.11200000531971455, 1.0560000501573086, 0.0, 0.0, 0.0, 0.0, 0.0, 1.7103871520602744E9, 0.0, 2024-03-13 20:32:32.060
35.0, -469.41541288839653, -251.7719349670224, -282.4802535031922, -446.0185987656005, 0.01600000075995922, -0.11200000531971455, 1.0560000501573086, 0.0, 0.0, 0.0, 0.0, 0.0, 1.7103871520602744E9, 0.0, 2024-03-13 20:32:32.060
36.0, -551.5136967157014, -228.65561334090307, -406.53273503342643, -364.4439009320922, 0.01600000075995922, -0.11200000531971455, 1.0560000501573086, 0.0, 0.0, 0.0, 0.0, 0.0, 1.7103871520762026E9, 0.0, 2024-03-13 20:32:32.076
36.0, -604.5884869368747, -83.02390906633809, -467.9549819556996, -276.57495147315785, 0.01600000075995922, -0.11200000531971455, 1.0560000501573086, 0.0, 0.0, 0.0, 0.0, 0.0, 1.7103871520762026E9, 0.0, 2024-03-13 20:32:32.076
37.0, -786.3364050835371, 6.42514812387526, -601.7686023702845, -210.20481690950692, 0.01600000075995922, -0.11200000531971455, 1.0560000501573086, 0.0, 0.0, 0.0, 0.0, 0.0, 1.710387152076808E9, 0.0, 2024-03-13 20:32:32.076
37.0, -632.6096873548813, 118.35100404778495, -441.755112816114, -37.1091573103331, 0.01600000075995922, -0.11200000531971455, 1.0560000501573086, 0.0, 0.0, 0.0, 0.0, 0.0, 1.710387152076808E9, 0.0, 2024-03-13 20:32:32.076
38.0, -756.0506952423602, 261.0655863569118, -586.4948509512469, 95.25338192144409, 0.01600000075995922, -0.11200000531971455, 1.0560000501573086, 0.0, 0.0, 0.0, 0.0, 0.0, 1.7103871520902925E9, 0.0, 2024-03-13 20:32:32.090
38.0, -677.2435233760625, 228.6406537410803, -479.66086881700903, 10.69798382325098, 0.01600000075995922, -0.11200000531971455, 1.0560000501573086, 0.0, 0.0, 0.0, 0.0, 0.0, 1.7103871520902925E9, 0.0, 2024-03-13 20:32:32.090
39.0, -590.2366208569147, 102.44894943619147, -398.2002379321493, -60.95475942781195, 0.01600000075995922, -0.11200000531971455, 1.0560000501573086, 0.0, 0.0, 0.0, 0.0, 0.0, 1.7103871521059873E9, 0.0, 2024-03-13 20:32:32.105
39.0, -389.85278123104945, 20.47595225740224, -254.20660983817652, -113.8313349513337, 0.01600000075995922, -0.11200000531971455, 1.0560000501573086, 0.0, 0.0, 0.0, 0.0, 0.0, 1.7103871521059873E9, 0.0, 2024-03-13 20:32:32.105
40.0, -574.3588755950332, -103.78409372037277, -413.37114210240543, -307.4216463076882, 0.01600000075995922, -0.11200000531971455, 1.0560000501573086, 0.0, 0.0, 0.0, 0.0, 0.0, 1.7103871521067035E9, 0.0, 2024-03-13 20:32:32.106
40.0, -454.22393926838413, -242.33242747886106, -265.30663290666416, -427.3377984869294, 0.01600000075995922, -0.11200000531971455, 1.0560000501573086, 0.0, 0.0, 0.0, 0.0, 0.0, 1.7103871521067035E9, 0.0, 2024-03-13 20:32:32.106
41.0, -532.1260553454049, -222.9373063086532, -381.5651629292406, -352.7380140707828, 0.01600000075995922, -0.11200000531971455, 1.0560000501573086, 0.0, 0.0, 0.0, 0.0, 0.0, 1.7103871521202765E9, 0.0, 2024-03-13 20:32:32.120
41.0, -606.091926719062, -73.35626768087968, -439.4045856939629, -257.9839087934233, 0.01600000075995922, -0.11200000531971455, 1.0560000501573086, 0.0, 0.0, 0.0, 0.0, 0.0, 1.7103871521202765E9, 0.0, 2024-03-13 20:32:32.120
42.0, -798.8388906354085, -4.9291881415992975, -605.1232926305383, -210.77702160272747, 0.01600000075995922, -0.11200000531971455, 1.0560000501573086, 0.0, 0.0, 0.0, 0.0, 0.0, 1.7103871521363823E9, 0.0, 2024-03-13 20:32:32.136
42.0, -642.913111732807, 96.36787210823968, -446.53096505953, -38.702354691457, 0.01600000075995922, -0.11200000531971455, 1.0560000501573086, 0.0, 0.0, 0.0, 0.0, 0.0, 1.7103871521363823E9, 0.0, 2024-03-13 20:32:32.136
43.0, -751.6937117939815, 261.039407057222, -580.4287332231179, 108.09993826923892, 0.01600000075995922, -0.11200000531971455, 1.0560000501573086, 0.0, 0.0, 0.0, 0.0, 0.0, 1.7103871521370687E9, 0.0, 2024-03-13 20:32:32.137
43.0, -659.4341197870672, 234.29912237403914, -464.1814229004085, 27.437776024919003, 0.01600000075995922, -0.11200000531971455, 1.0560000501573086, 0.0, 0.0, 0.0, 0.0, 0.0, 1.7103871521370687E9, 0.0, 2024-03-13 20:32:32.137
44.0, -586.9081098963507, 115.78917257813737, -380.06172314705327, -48.347556677181274, 0.01600000075995922, -0.11200000531971455, 1.0560000501573086, 0.0, 0.0, 0.0, 0.0, 0.0, 1.7103871521502812E9, 0.0, 2024-03-13 20:32:32.150
44.0, -416.20411631884053, 29.092681755311787, -248.34992650756612, -112.03618297260255, 0.01600000075995922, -0.11200000531971455, 1.0560000501573086, 0.0, 0.0, 0.0, 0.0, 0.0, 1.7103871521502812E9, 0.0, 2024-03-13 20:32:32.150
45.0, -588.1366670317948, -98.2864407855086, -409.80701744463295, -299.8595685972832, 0.01600000075995922, -0.11200000531971455, 1.0560000501573086, 0.0, 0.0, 0.0, 0.0, 0.0, 1.7103871521659756E9, 0.0, 2024-03-13 20:32:32.165
45.0, -449.7098800218664, -223.35617510369048, -256.60014580981806, -412.1687642666511, 0.01600000075995922, -0.11200000531971455, 1.0560000501573086, 0.0, 0.0, 0.0, 0.0, 0.0, 1.7103871521659756E9, 0.0, 2024-03-13 20:32:32.165
46.0, -580.6699567702599, -235.26027666265145, -399.3296877187677, -363.72210024064407, 0.01600000075995922, -0.11200000531971455, 1.0560000501573086, 0.0, 0.0, 0.0, 0.0, 0.0, 1.710387152166709E9, 0.0, 2024-03-13 20:32:32.166
46.0, -620.3559051500633, -84.18327805260196, -449.26670187711716, -268.6987221664749, 0.01600000075995922, -0.11200000531971455, 1.0560000501573086, 0.0, 0.0, 0.0, 0.0, 0.0, 1.710387152166709E9, 0.0, 2024-03-13 20:32:32.166
47.0, -794.3921495880932, -4.992766440846026, -604.6969440355897, -210.97897620033473, 0.01600000075995922, -0.11200000531971455, 1.0560000501573086, 0.0, 0.0, 0.0, 0.0, 0.0, 1.7103871521804159E9, 0.0, 2024-03-13 20:32:32.180
47.0, -609.1605146327056, 110.06712564593181, -451.59104969957843, -42.43103494727984, 0.01600000075995922, -0.11200000531971455, 1.0560000501573086, 0.0, 0.0, 0.0, 0.0, 0.0, 1.7103871521804159E9, 0.0, 2024-03-13 20:32:32.180
48.0, -727.1300488850102, 264.5923120151274, -588.761230324395, 98.98580207722262, 0.01600000075995922, -0.11200000531971455, 1.0560000501573086, 0.0, 0.0, 0.0, 0.0, 0.0, 1.7103871521966684E9, 0.0, 2024-03-13 20:32:32.196
48.0, -645.2860782546923, 239.38538631377742, -471.20121511723846, 20.582539406139404, 0.01600000075995922, -0.11200000531971455, 1.0560000501573086, 0.0, 0.0, 0.0, 0.0, 0.0, 1.7103871521966684E9, 0.0, 2024-03-13 20:32:32.196
49.0, -577.3339660097845, 113.1076643099077, -389.80790243158117, -55.01579829817638, 0.01600000075995922, -0.11200000531971455, 1.0560000501573086, 0.0, 0.0, 0.0, 0.0, 0.0, 1.7103871521968286E9, 0.0, 2024-03-13 20:32:32.196
49.0, -408.3652860117145, 21.818576341494918, -249.83092689001933, -118.59970739483833, 0.01600000075995922, -0.11200000531971455, 1.0560000501573086, 0.0, 0.0, 0.0, 0.0, 0.0, 1.7103871521968286E9, 0.0, 2024-03-13 20:32:32.196
50.0, -579.426440034993, -91.90991136105731, -403.1163364239037, -296.09722924185917, 0.01600000075995922, -0.11200000531971455, 1.0560000501573086, 0.0, 0.0, 0.0, 0.0, 0.0, 1.7103871522105963E9, 0.0, 2024-03-13 20:32:32.210
50.0, -465.357621436473, -230.63402041746303, -255.515574822668, -422.49462804431096, 0.01600000075995922, -0.11200000531971455, 1.0560000501573086, 0.0, 0.0, 0.0, 0.0, 0.0, 1.7103871522105963E9, 0.0, 2024-03-13 20:32:32.210
51.0, -572.7002299646847, -229.91969952592626, -393.6188604864292, -366.6354823061265, 0.01600000075995922, -0.11200000531971455, 1.0560000501573086, 0.0, 0.0, 0.0, 0.0, 0.0, 1.7103871522259767E9, 0.0, 2024-03-13 20:32:32.225
51.0, -587.9122730344534, -83.65969205880538, -456.37999159283936, -272.86497071711347, 0.01600000075995922, -0.11200000531971455, 1.0560000501573086, 0.0, 0.0, 0.0, 0.0, 0.0, 1.7103871522259767E9, 0.0, 2024-03-13 20:32:32.225
52.0, -779.4662088649347, 7.401262012310326, -597.3069017231464, -202.71753719821572, 0.01600000075995922, -0.11200000531971455, 1.0560000501573086, 0.0, 0.0, 0.0, 0.0, 0.0, 1.7103871522267027E9, 0.0, 2024-03-13 20:32:32.226
52.0, -579.77612068085, 111.64162352727726, -435.1167903947644, -31.342231578659266, 0.01600000075995922, -0.11200000531971455, 1.0560000501573086, 0.0, 0.0, 0.0, 0.0, 0.0, 1.7103871522267027E9, 0.0, 2024-03-13 20:32:32.226
53.0, -757.090387430042, 264.0986452209763, -583.6637466847897, 106.02055389387533, 0.01600000075995922, -0.11200000531971455, 1.0560000501573086, 0.0, 0.0, 0.0, 0.0, 0.0, 1.7103871522402809E9, 0.0, 2024-03-13 20:32:32.240
53.0, -654.153381049633, 242.36234667850658, -460.72201544139534, 30.36237779026851, 0.01600000075995922, -0.11200000531971455, 1.0560000501573086, 0.0, 0.0, 0.0, 0.0, 0.0, 1.7103871522402809E9, 0.0, 2024-03-13 20:32:32.240
54.0, -598.8309109550901, 112.96554811159149, -384.25041109742597, -55.969472786877304, 0.01600000075995922, -0.11200000531971455, 1.0560000501573086, 0.0, 0.0, 0.0, 0.0, 0.0, 1.710387152255978E9, 0.0, 2024-03-13 20:32:32.255
54.0, -428.41862957412377, 12.91387454699725, -263.57131932722405, -131.37520564347506, 0.01600000075995922, -0.11200000531971455, 1.0560000501573086, 0.0, 0.0, 0.0, 0.0, 0.0, 1.710387152255978E9, 0.0, 2024-03-13 20:32:32.255
55.0, -549.6456166878343, -100.13021146366373, -412.98967230692506, -303.1207613586448, 0.01600000075995922, -0.11200000531971455, 1.0560000501573086, 0.0, 0.0, 0.0, 0.0, 0.0, 1.710387152256706E9, 0.0, 2024-03-13 20:32:32.256
55.0, -463.0239238641225, -219.6424544476904, -254.72271603206173, -414.56230023829266, 0.01600000075995922, -0.11200000531971455, 1.0560000501573086, 0.0, 0.0, 0.0, 0.0, 0.0, 1.710387152256706E9, 0.0, 2024-03-13 20:32:32.256
56.0, -586.373304202687, -240.92248519556597, -412.49413556279615, -384.11577469902113, 0.01600000075995922, -0.11200000531971455, 1.0560000501573086, 0.0, 0.0, 0.0, 0.0, 0.0, 1.7103871522702806E9, 0.0, 2024-03-13 20:32:32.270
56.0, -637.4509878475219, -90.05118108307943, -464.2562208995223, -283.0823773960583, 0.01600000075995922, -0.11200000531971455, 1.0560000501573086, 0.0, 0.0, 0.0, 0.0, 0.0, 1.7103871522702806E9, 0.0, 2024-03-13 20:32:32.270
57.0, -791.2917725248262, 7.479799911379814, -595.4332118453458, -206.1769446572289, 0.01600000075995922, -0.11200000531971455, 1.0560000501573086, 0.0, 0.0, 0.0, 0.0, 0.0, 1.710387152285984E9, 0.0, 2024-03-13 20:32:32.285
57.0, -607.5822768514045, 112.58033841615543, -430.08662495436147, -31.843378172721714, 0.01600000075995922, -0.11200000531971455, 1.0560000501573086, 0.0, 0.0, 0.0, 0.0, 0.0, 1.710387152285984E9, 0.0, 2024-03-13 20:32:32.285
58.0, -718.0121727930382, 265.4711885047145, -580.2230387255549, 106.42446308908984, 0.01600000075995922, -0.11200000531971455, 1.0560000501573086, 0.0, 0.0, 0.0, 0.0, 0.0, 1.7103871522867062E9, 0.0, 2024-03-13 20:32:32.286
58.0, -631.1342968223616, 255.5866329218261, -453.477829227224, 43.24633313762024, 0.01600000075995922, -0.11200000531971455, 1.0560000501573086, 0.0, 0.0, 0.0, 0.0, 0.0, 1.7103871522867062E9, 0.0, 2024-03-13 20:32:32.286
59.0, -574.7609148402698, 111.41348962998018, -388.7158516445197, -51.72842623712495, 0.01600000075995922, -0.11200000531971455, 1.0560000501573086, 0.0, 0.0, 0.0, 0.0, 0.0, 1.7103871523002996E9, 0.0, 2024-03-13 20:32:32.300
59.0, -414.64457803731784, 15.041877621784806, -258.87026508292183, -124.87151962053031, 0.01600000075995922, -0.11200000531971455, 1.0560000501573086, 0.0, 0.0, 0.0, 0.0, 0.0, 1.7103871523002996E9, 0.0, 2024-03-13 20:32:32.300
60.0, -587.1418536435813, -87.95683710789308, -405.1471020998433, -293.55035737203434, 0.01600000075995922, -0.11200000531971455, 1.0560000501573086, 0.0, 0.0, 0.0, 0.0, 0.0, 1.7103871523159711E9, 0.0, 2024-03-13 20:32:32.315
60.0, -476.04251560987905, -230.5031239190139, -262.5839857389219, -418.2648011944257, 0.01600000075995922, -0.11200000531971455, 1.0560000501573086, 0.0, 0.0, 0.0, 0.0, 0.0, 1.7103871523159711E9, 0.0, 2024-03-13 20:32:32.315
61.0, -584.2789602275006, -231.58021510625258, -393.4991836878471, -364.40276203257963, 0.01600000075995922, -0.11200000531971455, 1.0560000501573086, 0.0, 0.0, 0.0, 0.0, 0.0, 1.7103871523167744E9, 0.0, 2024-03-13 20:32:32.316
61.0, -629.2344276448712, -90.92631767271087, -461.6607303302735, -282.5288722026162, 0.01600000075995922, -0.11200000531971455, 1.0560000501573086, 0.0, 0.0, 0.0, 0.0, 0.0, 1.7103871523167744E9, 0.0, 2024-03-13 20:32:32.316
62.0, -792.6343966089189, 2.775005767121911, -601.6564053716138, -209.48675611801445, 0.01600000075995922, -0.11200000531971455, 1.0560000501573086, 0.0, 0.0, 0.0, 0.0, 0.0, 1.7103871523305168E9, 0.0, 2024-03-13 20:32:32.330
62.0, -631.7121113655157, 103.64197752205655, -447.0021924539469, -45.430434711743146, 0.01600000075995922, -0.11200000531971455, 1.0560000501573086, 0.0, 0.0, 0.0, 0.0, 0.0, 1.7103871523305168E9, 0.0, 2024-03-13 20:32:32.330
63.0, -759.128632905893, 245.52630204102024, -601.9668170679361, 82.93789136735722, 0.01600000075995922, -0.11200000531971455, 1.0560000501573086, 0.0, 0.0, 0.0, 0.0, 0.0, 1.7103871523462236E9, 0.0, 2024-03-13 20:32:32.346
63.0, -656.5917958207428, 237.6164136347361, -477.7423001397401, 19.834559415001422, 0.01600000075995922, -0.11200000531971455, 1.0560000501573086, 0.0, 0.0, 0.0, 0.0, 0.0, 1.7103871523462236E9, 0.0, 2024-03-13 20:32:32.346
64.0, -590.4348355545662, 101.43169664824381, -401.64094589138404, -63.243578200694174, 0.01600000075995922, -0.11200000531971455, 1.0560000501573086, 0.0, 0.0, 0.0, 0.0, 0.0, 1.710387152347015E9, 0.0, 2024-03-13 20:32:32.347
64.0, -441.88226941460744, -2.296298572793603, -281.76219271169975, -143.48126180004328, 0.01600000075995922, -0.11200000531971455, 1.0560000501573086, 0.0, 0.0, 0.0, 0.0, 0.0, 1.710387152347015E9, 0.0, 2024-03-13 20:32:32.347
65.0, -601.7087639709935, -101.45787594793364, -427.45186543557793, -310.7501572682522, 0.01600000075995922, -0.11200000531971455, 1.0560000501573086, 0.0, 0.0, 0.0, 0.0, 0.0, 1.7103871523602624E9, 0.0, 2024-03-13 20:32:32.360
65.0, -456.3070635437034, -223.00462450785562, -259.3938510767184, -414.2182294423692, 0.01600000075995922, -0.11200000531971455, 1.0560000501573086, 0.0, 0.0, 0.0, 0.0, 0.0, 1.7103871523602624E9, 0.0, 2024-03-13 20:32:32.360
66.0, -573.4295104560442, -234.4599380721338, -404.8385603534989, -377.39517447864637, 0.01600000075995922, -0.11200000531971455, 1.0560000501573086, 0.0, 0.0, 0.0, 0.0, 0.0, 1.710387152375954E9, 0.0, 2024-03-13 20:32:32.375
66.0, -642.0622844928876, -96.24445540970191, -475.2290873695165, -286.62406265409663, 0.01600000075995922, -0.11200000531971455, 1.0560000501573086, 0.0, 0.0, 0.0, 0.0, 0.0, 1.710387152375954E9, 0.0, 2024-03-13 20:32:32.375
67.0, -796.5762511622161, 3.549165057949722, -605.5720806252211, -212.3552593840286, 0.01600000075995922, -0.11200000531971455, 1.0560000501573086, 0.0, 0.0, 0.0, 0.0, 0.0, 1.7103871523766437E9, 0.0, 2024-03-13 20:32:32.376
67.0, -623.7797835594974, 101.69348964514211, -457.81050332589075, -53.093489720951766, 0.01600000075995922, -0.11200000531971455, 1.0560000501573086, 0.0, 0.0, 0.0, 0.0, 0.0, 1.7103871523766437E9, 0.0, 2024-03-13 20:32:32.376
68.0, -737.2352585652843, 250.14507848629728, -604.7792218346149, 82.73593676974997, 0.01600000075995922, -0.11200000531971455, 1.0560000501573086, 0.0, 0.0, 0.0, 0.0, 0.0, 1.7103871523904872E9, 0.0, 2024-03-13 20:32:32.390
68.0, -635.1995680741966, 247.5757672167383, -472.8505109976977, 27.864124619867653, 0.01600000075995922, -0.11200000531971455, 1.0560000501573086, 0.0, 0.0, 0.0, 0.0, 0.0, 1.7103871523904872E9, 0.0, 2024-03-13 20:32:32.390
69.0, -563.5860937726684, 123.1530355908908, -386.2101186742075, -53.40016151731834, 0.01600000075995922, -0.11200000531971455, 1.0560000501573086, 0.0, 0.0, 0.0, 0.0, 0.0, 1.710387152405992E9, 0.0, 2024-03-13 20:32:32.405
