%OpenBCI Raw EXG Data
%Number of channels = 4
%Sample Rate = 200 Hz
%Board = OpenBCI_GUI$BoardGanglionBLE
Sample Index, EXG Channel 0, EXG Channel 1, EXG Channel 2, EXG Channel 3, Accel Channel 0, Accel Channel 1, Accel Channel 2, Other, Other, Other, Other, Other, Timestamp, Other, Timestamp (Formatted)
2.0, -3.949334353208542, 8.590550198219717, 8.489572899416089, -1.4697806825861335, 0.8640000410377979, 0.0, 0.0, 0.0, 0.0, 0.0, 0.0, 0.0, 1.7103945043935533E9, 0.0, 2024-03-13 22:35:04.393
2.0, -13.762831836938858, -10.43432087637484, -11.507672163657844, -12.158414755947888, 0.8640000410377979, 0.0, 0.0, 0.0, 0.0, 0.0, 0.0, 0.0, 1.7103945043935533E9, 0.0, 2024-03-13 22:35:04.393
3.0, -5.157322038896382, -4.910488641820848, 3.130296262912452, -4.491619846783578, 0.8640000410377979, 0.0, 0.0, 0.0, 0.0, 0.0, 0.0, 0.0, 1.7103945044075289E9, 0.0, 2024-03-13 22:35:04.407
3.0, 0.08975759893655777, -7.838830307126045, 11.919061158783734, -3.5155059583485126, 0.8640000410377979, 0.0, 0.0, 0.0, 0.0, 0.0, 0.0, 0.0, 1.7103945044075289E9, 0.0, 2024-03-13 22:35:04.407
4.0, -3.6800615563988686, 4.113889951258898, -1.6268564807251096, -6.750519420020282, 0.8640000410377979, 0.0, 0.0, 0.0, 0.0, 0.0, 0.0, 0.0, 1.710394504408105E9, 0.0, 2024-03-13 22:35:04.408
4.0, 9.039338192902505, 7.969726805575192, 6.2194536263123155, 3.575344357639551, 0.8640000410377979, 0.0, 0.0, 0.0, 0.0, 0.0, 0.0, 0.0, 1.710394504408105E9, 0.0, 2024-03-13 22:35:04.408
5.0, 9.27495189011097, 12.44264715258032, 20.57318965625018, 3.7660792553797364, 0.8640000410377979, 0.0, 0.0, 0.0, 0.0, 0.0, 0.0, 0.0, 1.7103945044221883E9, 0.0, 2024-03-13 22:35:04.422
5.0, 9.203893790952861, 3.9942131526768208, 11.474013064056635, 4.4467410473152995, 0.8640000410377979, 0.0, 0.0, 0.0, 0.0, 0.0, 0.0, 0.0, 1.7103945044221883E9, 0.0, 2024-03-13 22:35:04.422
6.0, 18.624701779335737, 14.780084624886513, 10.217406678944826, 12.0798768568784, 0.8640000410377979, 0.0, 0.0, 0.0, 0.0, 0.0, 0.0, 0.0, 1.710394504437506E9, 0.0, 2024-03-13 22:35:04.437
6.0, 15.550504015758634, 8.224040002562106, 21.870934940874577, 12.723139649257064, 0.8640000410377979, 0.0, 0.0, 0.0, 0.0, 0.0, 0.0, 0.0, 1.710394504437506E9, 0.0, 2024-03-13 22:35:04.437
7.0, 5.538791834376752, 6.305471325293183, 13.70673333760351, 6.4588072234764695, 0.8640000410377979, 0.0, 0.0, 0.0, 0.0, 0.0, 0.0, 0.0, 1.7103945044385235E9, 0.0, 2024-03-13 22:35:04.438
7.0, 10.991565969772637, 18.86405537649989, 3.5977837573736906, 8.605509798042476, 0.8640000410377979, 0.0, 0.0, 0.0, 0.0, 0.0, 0.0, 0.0, 1.7103945044385235E9, 0.0, 2024-03-13 22:35:04.438
8.0, 7.9472874058410525, 8.912181594409049, 9.985532881692052, 4.8917891420423985, 0.8640000410377979, 0.0, 0.0, 0.0, 0.0, 0.0, 0.0, 0.0, 1.7103945044518108E9, 0.0, 2024-03-13 22:35:04.451
8.0, -3.0779376635327935, -5.751966131851077, 13.104609444737434, -0.14211619831621647, 0.8640000410377979, 0.0, 0.0, 0.0, 0.0, 0.0, 0.0, 0.0, 1.7103945044518108E9, 0.0, 2024-03-13 22:35:04.451
9.0, -9.379669088870287, -2.7600461672991514, -5.860423230566084, -5.22838013805449, 0.8640000410377979, 0.0, 0.0, 0.0, 0.0, 0.0, 0.0, 0.0, 1.7103945044677625E9, 0.0, 2024-03-13 22:35:04.467
9.0, -11.548811063170433, -7.034751816652715, -1.5857175812125206, -2.221500573679805, 0.8640000410377979, 0.0, 0.0, 0.0, 0.0, 0.0, 0.0, 0.0, 1.7103945044677625E9, 0.0, 2024-03-13 22:35:04.467
10.0, -16.365802206099033, -11.63856866210699, 9.600323186255991, 3.1564755626022816, 0.8640000410377979, 0.0, 0.4480000212788582, 0.0, 0.0, 0.0, 0.0, 0.0, 1.7103945044685133E9, 0.0, 2024-03-13 22:35:04.468
10.0, -20.296437059529126, -22.372081534937024, 2.976960364729166, -5.931481329724193, 0.8640000410377979, 0.0, 0.4480000212788582, 0.0, 0.0, 0.0, 0.0, 0.0, 1.7103945044685133E9, 0.0, 2024-03-13 22:35:04.468
11.0, -10.258545578457415, -8.908441694453359, -3.4781069587916136, -4.5664178458973765, 0.8640000410377979, 0.3840000182390213, 0.4480000212788582, 0.0, 0.0, 0.0, 0.0, 0.0, 1.7103945044822216E9, 0.0, 2024-03-13 22:35:04.482
11.0, -8.590550198219717, -4.749672943726182, 16.44434010516852, 1.3164447844028473, 0.8640000410377979, 0.3840000182390213, 0.4480000212788582, 0.0, 0.0, 0.0, 0.0, 0.0, 1.7103945044822216E9, 0.0, 2024-03-13 22:35:04.482
12.0, -5.205940738320351, -4.734713343903422, 16.717352801933885, 2.1878414740785956, 0.8800000417977571, 0.3840000182390213, 0.4480000212788582, 0.0, 0.0, 0.0, 0.0, 0.0, 1.7103945044979029E9, 0.0, 2024-03-13 22:35:04.497
12.0, 2.9993997644633055, 4.697314344346523, 3.373389760032296, 6.197014226578176, 0.8800000417977571, 0.3840000182390213, 0.4480000212788582, 0.0, 0.0, 0.0, 0.0, 0.0, 1.7103945044979029E9, 0.0, 2024-03-13 22:35:04.497
13.0, 8.85982299502939, -0.8564370898529887, 15.29619081877172, 8.624209297820926, 0.8800000417977571, 0.3840000182390213, 0.4480000212788582, 0.0, 0.0, 0.0, 0.0, 0.0, 1.71039450449849E9, 0.0, 2024-03-13 22:35:04.498
13.0, 1.6754751801490784, -1.8998691774904728, 23.621208120137453, 8.512012299150229, 0.8800000417977571, 0.3840000182390213, 0.4480000212788582, 0.0, 0.0, 0.0, 0.0, 0.0, 1.71039450449849E9, 0.0, 2024-03-13 22:35:04.498
14.0, -0.2730126967653632, -6.556044622324407, 1.8811696777120233, 0.6170834926888347, 0.8800000417977571, 0.3840000182390213, 0.4480000212788582, 0.0, 0.0, 0.0, 0.0, 0.0, 1.710394504512081E9, 0.0, 2024-03-13 22:35:04.512
14.0, 9.719999984838068, 5.202200838364661, 7.850050006993115, 4.869349742308259, 0.8800000417977571, 0.3840000182390213, 0.4480000212788582, 0.0, 0.0, 0.0, 0.0, 0.0, 1.710394504512081E9, 0.0, 2024-03-13 22:35:04.512
15.0, 14.286417830735445, 10.950427070260048, 25.038630203343928, 12.764278548769653, 0.8800000417977571, 0.3840000182390213, 0.4480000212788582, 0.0, 0.0, 0.0, 0.0, 0.0, 1.7103945045275075E9, 0.0, 2024-03-13 22:35:04.527
15.0, 1.0995305869728327, 0.9910734882578254, 6.694420920684934, 5.183501338586211, 0.8800000417977571, 0.3840000182390213, 0.4480000212788582, 0.0, 0.0, 0.0, 0.0, 0.0, 1.7103945045275075E9, 0.0, 2024-03-13 22:35:04.527
16.0, 4.282185449264944, -3.1527356626465917, 1.5969372810795903, 4.936667941510677, 0.8800000417977571, 0.3840000182390213, 0.4480000212788582, 0.0, 0.0, 0.0, 0.0, 0.0, 1.710394504528166E9, 0.0, 2024-03-13 22:35:04.528
16.0, 3.8782762540504336, -1.3501038840040565, 9.080477092415094, 3.2761523611843586, 0.8800000417977571, 0.3840000182390213, 0.4480000212788582, 0.0, 0.0, 0.0, 0.0, 0.0, 1.710394504528166E9, 0.0, 2024-03-13 22:35:04.528
17.0, -3.22005386184901, 6.264332425780594, 13.317783742211759, 3.339730660431087, 0.8800000417977571, 0.3840000182390213, 0.4480000212788582, 0.0, 0.0, 0.0, 0.0, 0.0, 1.7103945045418155E9, 0.0, 2024-03-13 22:35:04.541
17.0, 3.855836854316294, 3.2350134616717696, 8.44095419999212, 4.712273944169283, 0.8800000417977571, 0.3840000182390213, 0.4480000212788582, 0.0, 0.0, 0.0, 0.0, 0.0, 1.7103945045418155E9, 0.0, 2024-03-13 22:35:04.541
18.0, -0.44504809472709894, 1.2790457848459482, 15.333589818328619, 6.010019228793681, 0.8800000417977571, 0.3840000182390213, 0.4480000212788582, 0.0, 0.0, 0.0, 0.0, 0.0, 1.7103945045575304E9, 0.0, 2024-03-13 22:35:04.557
18.0, -6.8215775191783905, -4.802031543105841, 18.650881079025567, 5.370496336370707, 0.8800000417977571, 0.3840000182390213, 0.4480000212788582, 0.0, 0.0, 0.0, 0.0, 0.0, 1.7103945045575304E9, 0.0, 2024-03-13 22:35:04.557
19.0, -9.323570589534938, -14.177960732020438, 5.6547287330031395, -2.214020773768425, 0.8800000417977571, 0.3840000182390213, 0.4480000212788582, 0.0, 0.0, 0.0, 0.0, 0.0, 1.7103945045581913E9, 0.0, 2024-03-13 22:35:04.558
19.0, -1.9260484771803021, -0.9611542886123061, 10.4492804761976, 8.287618301808834, 0.8800000417977571, 0.3840000182390213, 0.4480000212788582, 0.0, 0.0, 0.0, 0.0, 0.0, 1.7103945045581913E9, 0.0, 2024-03-13 22:35:04.558
20.0, 4.521539046429098, 2.614190069027245, 27.70517887175083, 15.737499013543129, 0.8800000417977571, 0.3840000182390213, 0.4480000212788582, 0.0, 0.0, 0.0, 0.0, 0.0, 1.7103945045717812E9, 0.0, 2024-03-13 22:35:04.571
20.0, 10.583916874602437, 6.260592525824904, 19.043570574373007, 17.046463998034596, 0.8800000417977571, 0.3840000182390213, 0.4480000212788582, 0.0, 0.0, 0.0, 0.0, 0.0, 1.7103945045717812E9, 0.0, 2024-03-13 22:35:04.571
21.0, 14.828703324310482, 5.071304339915514, 16.06661020964384, 18.250711783766747, 0.8800000417977571, 0.3680000174790621, 0.4480000212788582, 0.0, 0.0, 0.0, 0.0, 0.0, 1.7103945045874531E9, 0.0, 2024-03-13 22:35:04.587
21.0, 15.236352419480681, 17.192320096306503, 32.49973061494529, 23.957799116149545, 0.8800000417977571, 0.3680000174790621, 0.4480000212788582, 0.0, 0.0, 0.0, 0.0, 0.0, 1.7103945045874531E9, 0.0, 2024-03-13 22:35:04.587
22.0, 10.999045769684017, 7.857529806904495, 28.94308575708419, 17.461592893116176, 0.8800000417977571, 0.3680000174790621, 0.4480000212788582, 0.0, 0.0, 0.0, 0.0, 0.0, 1.7103945045882075E9, 0.0, 2024-03-13 22:35:04.588
22.0, 4.121369751170278, 10.602616374380887, 11.810604060068727, 9.514305487275124, 0.8800000417977571, 0.3680000174790621, 0.4480000212788582, 0.0, 0.0, 0.0, 0.0, 0.0, 1.7103945045882075E9, 0.0, 2024-03-13 22:35:04.588
23.0, 12.932574046775699, 10.628795674070716, 20.11318196170032, 18.213312784209847, 0.8800000417977571, 0.3680000174790621, 0.4480000212788582, 0.0, 0.0, 0.0, 0.0, 0.0, 1.710394504602301E9, 0.0, 2024-03-13 22:35:04.602
23.0, 7.057191216386855, 2.1093035750091076, 31.80410922318697, 20.599368955940008, 0.8800000417977571, 0.3680000174790621, 0.4480000212788582, 0.0, 0.0, 0.0, 0.0, 0.0, 1.710394504602301E9, 0.0, 2024-03-13 22:35:04.602
24.0, 0.19073489774018526, 5.957660629414022, 8.138022303581238, 12.04995765723288, 0.8800000417977571, 0.3680000174790621, 0.4480000212788582, 0.0, 0.0, 0.0, 0.0, 0.0, 1.7103945046178083E9, 0.0, 2024-03-13 22:35:04.617
24.0, 9.181454391218722, 14.05080413352698, 9.469426687806845, 18.362908782437444, 0.8800000417977571, 0.3680000174790621, 0.4480000212788582, 0.0, 0.0, 0.0, 0.0, 0.0, 1.7103945046178083E9, 0.0, 2024-03-13 22:35:04.617
25.0, -1.8624701779335737, 3.867056554183364, 24.52252400945872, 11.26831856649369, 0.8800000417977571, 0.3680000174790621, 0.4480000212788582, 0.0, 0.0, 0.0, 0.0, 0.0, 1.7103945046184216E9, 0.0, 2024-03-13 22:35:04.618
25.0, -10.909288170747459, -10.105209680274129, 7.65931510925293, -3.186394762247801, 0.8800000417977571, 0.3680000174790621, 0.4480000212788582, 0.0, 0.0, 0.0, 0.0, 0.0, 1.7103945046184216E9, 0.0, 2024-03-13 22:35:04.618
26.0, -2.41971527133137, -0.34033089596778154, -1.125709886662662, -0.6582223922014236, 0.8800000417977571, 0.3680000174790621, 0.4480000212788582, 0.0, 0.0, 0.0, 0.0, 0.0, 1.7103945046323235E9, 0.0, 2024-03-13 22:35:04.632
26.0, -2.262639473192394, -1.731573679484427, 16.49669870454818, 2.7114274678751826, 0.8800000417977571, 0.3680000174790621, 0.4480000212788582, 0.0, 0.0, 0.0, 0.0, 0.0, 1.7103945046323235E9, 0.0, 2024-03-13 22:35:04.632
27.0, -4.353243548423052, -5.583670633845031, 13.904948035255075, 2.2402000734582543, 0.8800000417977571, 0.3680000174790621, 0.4480000212788582, 0.0, 0.0, 0.0, 0.0, 0.0, 1.710394504648043E9, 0.0, 2024-03-13 22:35:04.648
27.0, 5.3742362363263965, -3.7585994554683566, 3.3546902602538466, 4.577637545764446, 0.8800000417977571, 0.3680000174790621, 0.4480000212788582, 0.0, 0.0, 0.0, 0.0, 0.0, 1.710394504648043E9, 0.0, 2024-03-13 22:35:04.648
28.0, 4.121369751170278, -2.0008464762941003, 13.055990745313466, 3.5117660583928227, 0.8800000417977571, 0.3680000174790621, 0.4480000212788582, 0.0, 0.0, 0.0, 0.0, 0.0, 1.7103945046484287E9, 0.0, 2024-03-13 22:35:04.648
28.0, 5.729526732116938, -2.1616621743887663, 22.641354331746697, 6.537345122545958, 0.8800000417977571, 0.3680000174790621, 0.4480000212788582, 0.0, 0.0, 0.0, 0.0, 0.0, 1.7103945046484287E9, 0.0, 2024-03-13 22:35:04.648
29.0, -2.0644247755408287, -9.929434382356703, 1.7128741797059774, -3.3920892598107457, 0.8800000417977571, 0.3680000174790621, 0.4480000212788582, 0.0, 0.0, 0.0, 0.0, 0.0, 1.7103945046618388E9, 0.0, 2024-03-13 22:35:04.661
29.0, -3.0480184638872743, -5.546271634288132, 0.9536744887009263, -2.5917506692931056, 0.8800000417977571, 0.3680000174790621, 0.4480000212788582, 0.0, 0.0, 0.0, 0.0, 0.0, 1.7103945046618388E9, 0.0, 2024-03-13 22:35:04.661
30.0, -2.139222774654627, -2.8759830659255385, 20.07204306218773, 6.140915727242827, 0.8800000417977571, 0.3680000174790621, 0.4480000212788582, 0.0, 0.0, 0.0, 0.0, 0.0, 1.710394504677501E9, 0.0, 2024-03-13 22:35:04.677
30.0, -1.7016544798389077, 8.900961894541979, 16.403201205655932, 9.035598292946815, 0.8800000417977571, 0.3680000174790621, 0.4480000212788582, 0.0, 0.0, 0.0, 0.0, 0.0, 1.710394504677501E9, 0.0, 2024-03-13 22:35:04.677
31.0, -2.255159673281014, -7.816390907391906, 6.107256627641618, 8.45217389985919, 0.8800000417977571, 0.3840000182390213, 0.4480000212788582, 0.0, 0.0, 0.0, 0.0, 0.0, 1.7103945046781964E9, 0.0, 2024-03-13 22:35:04.678
31.0, -0.5310657937079668, -3.9268949534744024, 15.857175812125206, 10.531558275222778, 0.8800000417977571, 0.3840000182390213, 0.4480000212788582, 0.0, 0.0, 0.0, 0.0, 0.0, 1.7103945046781964E9, 0.0, 2024-03-13 22:35:04.678
32.0, -7.614436309784651, -3.6426625568419695, 12.678260849788785, 1.5744978813454509, 0.8800000417977571, 0.3840000182390213, 0.4480000212788582, 0.0, 0.0, 0.0, 0.0, 0.0, 1.7103945046918297E9, 0.0, 2024-03-13 22:35:04.691
32.0, -3.3285109605640173, -7.689234308898449, -7.479799911379814, -1.6231165807694197, 0.8800000417977571, 0.3840000182390213, 0.4480000212788582, 0.0, 0.0, 0.0, 0.0, 0.0, 1.7103945046918297E9, 0.0, 2024-03-13 22:35:04.691
33.0, 3.9530742531642318, -0.1645555980503559, 3.586564057506621, 2.262639473192394, 0.8800000417977571, 0.3840000182390213, 0.4480000212788582, 0.0, 0.0, 0.0, 0.0, 0.0, 1.7103945047074392E9, 0.0, 2024-03-13 22:35:04.707
33.0, 5.789365131407976, 7.951027305796742, 15.946933411061764, 11.608649462461472, 0.8800000417977571, 0.3840000182390213, 0.4480000212788582, 0.0, 0.0, 0.0, 0.0, 0.0, 1.7103945047074392E9, 0.0, 2024-03-13 22:35:04.707
34.0, -2.3486571721732616, 1.4772604824975133, -1.9597075767815113, 3.253712961450219, 0.8800000417977571, 0.3840000182390213, 0.4480000212788582, 0.0, 0.0, 0.0, 0.0, 0.0, 1.7103945047081995E9, 0.0, 2024-03-13 22:35:04.708
34.0, 8.938360894098878, 6.44010772369802, 5.751966131851077, 8.672827997244895, 0.8800000417977571, 0.3840000182390213, 0.4480000212788582, 0.0, 0.0, 0.0, 0.0, 0.0, 1.7103945047081995E9, 0.0, 2024-03-13 22:35:04.708
35.0, 9.749919184483588, 10.333343577571213, 19.166987272910774, 15.359769118018448, 0.8800000417977571, 0.3840000182390213, 0.4480000212788582, 0.0, 0.0, 0.0, 0.0, 0.0, 1.710394504722062E9, 0.0, 2024-03-13 22:35:04.722
35.0, 5.972620229236782, 4.192427850328386, 13.646894938312471, 10.138868779875338, 0.8800000417977571, 0.3840000182390213, 0.4480000212788582, 0.0, 0.0, 0.0, 0.0, 0.0, 1.710394504722062E9, 0.0, 2024-03-13 22:35:04.722
36.0, 8.87478259485215, 10.583916874602437, 4.629996145144105, 7.176868014968932, 0.8800000417977571, 0.3840000182390213, 0.4480000212788582, 0.0, 0.0, 0.0, 0.0, 0.0, 1.7103945047375193E9, 0.0, 2024-03-13 22:35:04.737
36.0, 5.692127732560039, 10.239846078678966, 11.870442459359765, 9.25625239033252, 0.8800000417977571, 0.3840000182390213, 0.4480000212788582, 0.0, 0.0, 0.0, 0.0, 0.0, 1.7103945047375193E9, 0.0, 2024-03-13 22:35:04.737
37.0, -4.674874944612384, 1.5034397821873426, 4.981546740978956, -0.06731819920241833, 0.8800000417977571, 0.3840000182390213, 0.4480000212788582, 0.0, 0.0, 0.0, 0.0, 0.0, 1.7103945047381792E9, 0.0, 2024-03-13 22:35:04.738
37.0, -0.8601769898086786, -3.2237937618047, -4.981546740978956, -1.0284724878147244, 0.8800000417977571, 0.3840000182390213, 0.4480000212788582, 0.0, 0.0, 0.0, 0.0, 0.0, 1.7103945047381792E9, 0.0, 2024-03-13 22:35:04.738
38.0, 3.455667559057474, -0.4300884949043393, 10.752212372608483, 7.012312416918576, 0.8800000417977571, 0.3840000182390213, 0.4480000212788582, 0.0, 0.0, 0.0, 0.0, 0.0, 1.7103945047518568E9, 0.0, 2024-03-13 22:35:04.751
38.0, 0.44130819477140903, 0.4749672943726182, 19.922447063960135, 11.313197365961969, 0.8800000417977571, 0.3840000182390213, 0.4480000212788582, 0.0, 0.0, 0.0, 0.0, 0.0, 1.7103945047518568E9, 0.0, 2024-03-13 22:35:04.751
39.0, -13.725432837381959, -13.6730742380023, 5.21716043818742, 0.6470026923343539, 0.8800000417977571, 0.3840000182390213, 0.4480000212788582, 0.0, 0.0, 0.0, 0.0, 0.0, 1.7103945047678657E9, 0.0, 2024-03-13 22:35:04.767
39.0, -6.511165822856128, -10.49415927566588, 6.873936118558049, 1.9484878769144416, 0.8800000417977571, 0.3840000182390213, 0.4480000212788582, 0.0, 0.0, 0.0, 0.0, 0.0, 1.7103945047678657E9, 0.0, 2024-03-13 22:35:04.767
40.0, -2.81988456659019, -3.911935353651643, 12.917614446952939, 0.22439399734139442, 0.8800000417977571, 0.3840000182390213, 0.4480000212788582, 0.0, 0.0, 0.0, 0.0, 0.0, 1.7103945047683733E9, 0.0, 2024-03-13 22:35:04.768
40.0, -11.189780667424202, -6.567264322191477, 1.5483185816556215, -1.2753058848902583, 0.8800000417977571, 0.3840000182390213, 0.4480000212788582, 0.0, 0.0, 0.0, 0.0, 0.0, 1.7103945047683733E9, 0.0, 2024-03-13 22:35:04.768
41.0, -2.5132127702236176, -1.406202383339405, -0.4338283948600292, 3.777298955246806, 0.8800000417977571, 0.3840000182390213, 0.4480000212788582, 0.0, 0.0, 0.0, 0.0, 0.0, 1.710394504782356E9, 0.0, 2024-03-13 22:35:04.782
41.0, -3.896975753828883, 8.571850698441267, 9.488126187585294, 5.400415536016226, 0.8800000417977571, 0.3840000182390213, 0.4480000212788582, 0.0, 0.0, 0.0, 0.0, 0.0, 1.710394504782356E9, 0.0, 2024-03-13 22:35:04.782
42.0, -1.9933666763827205, -0.4861869942396879, 8.605509798042476, 2.258899573236704, 0.8800000417977571, 0.3840000182390213, 0.4480000212788582, 0.0, 0.0, 0.0, 0.0, 0.0, 1.7103945047979472E9, 0.0, 2024-03-13 22:35:04.797
42.0, -10.531558275222778, -15.599122715182602, -11.631088862195611, -6.129696027375758, 0.8800000417977571, 0.3840000182390213, 0.4480000212788582, 0.0, 0.0, 0.0, 0.0, 0.0, 1.7103945047979472E9, 0.0, 2024-03-13 22:35:04.797
43.0, -4.480400146916509, -0.12341669853776693, 3.1602154625579715, -0.8414774900302291, 0.8800000417977571, 0.3840000182390213, 0.4480000212788582, 0.0, 0.0, 0.0, 0.0, 0.0, 1.7103945047984097E9, 0.0, 2024-03-13 22:35:04.798
43.0, -8.942100794054568, -6.470026923343539, 8.03330510482192, 0.7405001912266016, 0.8800000417977571, 0.3840000182390213, 0.4480000212788582, 0.0, 0.0, 0.0, 0.0, 0.0, 1.7103945047984097E9, 0.0, 2024-03-13 22:35:04.798
44.0, -4.229826849885285, 3.747379755601287, -1.9223085772246122, -1.5595382815226912, 0.8800000417977571, 0.3840000182390213, 0.4480000212788582, 0.0, 0.0, 0.0, 0.0, 0.0, 1.7103945048120322E9, 0.0, 2024-03-13 22:35:04.812
44.0, 0.3665101956576109, -0.8713966896757483, 1.8662100778892636, -0.12715659849345684, 0.8800000417977571, 0.3840000182390213, 0.4480000212788582, 0.0, 0.0, 0.0, 0.0, 0.0, 1.7103945048120322E9, 0.0, 2024-03-13 22:35:04.812
45.0, -9.787318184040487, -4.054051551967859, 13.587056539021432, 3.459407459013164, 0.8800000417977571, 0.3840000182390213, 0.4480000212788582, 0.0, 0.0, 0.0, 0.0, 0.0, 1.7103945048274252E9, 0.0, 2024-03-13 22:35:04.827
45.0, -10.711073473095894, -7.894928806461394, -0.22065409738570452, -6.369049624539912, 0.8800000417977571, 0.3840000182390213, 0.4480000212788582, 0.0, 0.0, 0.0, 0.0, 0.0, 1.7103945048274252E9, 0.0, 2024-03-13 22:35:04.827
46.0, 2.688988068141043, -7.120769515633583, -4.188687950372696, -0.029919199645519257, 0.8800000417977571, 0.3840000182390213, 0.4480000212788582, 0.0, 0.0, 0.0, 0.0, 0.0, 1.710394504828133E9, 0.0, 2024-03-13 22:35:04.828
46.0, 3.7249403558671474, 5.987579829059541, 15.468226216733456, 3.4407079592347145, 0.8800000417977571, 0.3840000182390213, 0.4480000212788582, 0.0, 0.0, 0.0, 0.0, 0.0, 1.710394504828133E9, 0.0, 2024-03-13 22:35:04.828
47.0, -6.750519420020282, -2.2402000734582543, 13.014851845800877, 1.6979145798832178, 0.8800000417977571, 0.3840000182390213, 0.4480000212788582, 0.0, 0.0, 0.0, 0.0, 0.0, 1.7103945048418229E9, 0.0, 2024-03-13 22:35:04.841
47.0, -3.414528659544885, -0.725540591403842, 0.9985532881692052, 5.164801838807762, 0.8800000417977571, 0.3840000182390213, 0.4480000212788582, 0.0, 0.0, 0.0, 0.0, 0.0, 1.7103945048418229E9, 0.0, 2024-03-13 22:35:04.841
48.0, 3.066717963665724, 6.795398219488561, 15.460746416822076, 9.043078092858195, 0.8800000417977571, 0.3840000182390213, 0.4480000212788582, 0.0, 0.0, 0.0, 0.0, 0.0, 1.7103945048575733E9, 0.0, 2024-03-13 22:35:04.857
48.0, -3.4481877591460943, -8.366156200878322, 16.15262790862471, 3.5566448578611016, 0.8800000417977571, 0.3840000182390213, 0.4480000212788582, 0.0, 0.0, 0.0, 0.0, 0.0, 1.7103945048575733E9, 0.0, 2024-03-13 22:35:04.857
49.0, -13.235505943186581, -13.153228144161403, -0.3739899955689907, -6.2979915253818035, 0.8800000417977571, 0.3840000182390213, 0.4480000212788582, 0.0, 0.0, 0.0, 0.0, 0.0, 1.7103945048581922E9, 0.0, 2024-03-13 22:35:04.858
49.0, 0.684401691891253, -12.50248555187136, 3.7137206560000777, -4.211127350106835, 0.8800000417977571, 0.3840000182390213, 0.4480000212788582, 0.0, 0.0, 0.0, 0.0, 0.0, 1.7103945048581922E9, 0.0, 2024-03-13 22:35:04.858
50.0, 3.9156752536073327, -7.25914581399411, 15.599122715182602, 5.176021538674831, 0.8800000417977571, 0.3840000182390213, 0.4480000212788582, 0.0, 0.0, 0.0, 0.0, 0.0, 1.7103945048721027E9, 0.0, 2024-03-13 22:35:04.872
50.0, -0.003739899955689907, 0.7442400911822915, 14.192920331843197, 5.789365131407976, 0.8800000417977571, 0.3840000182390213, 0.4480000212788582, 0.0, 0.0, 0.0, 0.0, 0.0, 1.7103945048721027E9, 0.0, 2024-03-13 22:35:04.872
51.0, 2.094343975186348, 8.03704500477761, 6.881415918469429, 10.740992672741413, 0.8800000417977571, 0.3840000182390213, 0.4480000212788582, 0.0, 0.0, 0.0, 0.0, 0.0, 1.7103945048874445E9, 0.0, 2024-03-13 22:35:04.887
51.0, 2.457114270888269, 7.311504413373768, 23.056483226828277, 15.427087317220867, 0.8800000417977571, 0.3840000182390213, 0.4480000212788582, 0.0, 0.0, 0.0, 0.0, 0.0, 1.7103945048874445E9, 0.0, 2024-03-13 22:35:04.887
52.0, -1.170588686130941, 3.545425157994032, 24.720738707110286, 12.345409753732383, 0.8800000417977571, 0.3840000182390213, 0.4480000212788582, 0.0, 0.0, 0.0, 0.0, 0.0, 1.710394504888158E9, 0.0, 2024-03-13 22:35:04.888
52.0, 4.783332043327391, 5.62480953335762, 8.182901103049517, 7.958507105708122, 0.8800000417977571, 0.3840000182390213, 0.4480000212788582, 0.0, 0.0, 0.0, 0.0, 0.0, 1.710394504888158E9, 0.0, 2024-03-13 22:35:04.888
53.0, 13.587056539021432, 10.153828379698098, 27.649080372415483, 19.66065406706184, 0.8800000417977571, 0.3840000182390213, 0.4480000212788582, 0.0, 0.0, 0.0, 0.0, 0.0, 1.7103945049020019E9, 0.0, 2024-03-13 22:35:04.902
53.0, 12.281831454485655, 12.696960349567235, 34.29862249363214, 19.877568264491856, 0.8800000417977571, 0.3840000182390213, 0.4480000212788582, 0.0, 0.0, 0.0, 0.0, 0.0, 1.7103945049020019E9, 0.0, 2024-03-13 22:35:04.902
54.0, -0.9835936883464456, -3.1938745621591806, 2.131742974743247, -2.9246017653495073, 0.8800000417977571, 0.3840000182390213, 0.4480000212788582, 0.0, 0.0, 0.0, 0.0, 0.0, 1.710394504917747E9, 0.0, 2024-03-13 22:35:04.917
54.0, -3.9979530526325107, -4.5664178458973765, -1.368803383782506, -2.1915813740342855, 0.8800000417977571, 0.3840000182390213, 0.4480000212788582, 0.0, 0.0, 0.0, 0.0, 0.0, 1.710394504917747E9, 0.0, 2024-03-13 22:35:04.917
55.0, -4.618776445277035, -7.928587906062603, 9.013158893212676, -0.7891188906505704, 0.8800000417977571, 0.3840000182390213, 0.4480000212788582, 0.0, 0.0, 0.0, 0.0, 0.0, 1.7103945049183855E9, 0.0, 2024-03-13 22:35:04.918
55.0, -10.89806847088039, -6.327910725027323, -1.0770911872386932, -5.819284331053495, 0.8800000417977571, 0.3840000182390213, 0.4480000212788582, 0.0, 0.0, 0.0, 0.0, 0.0, 1.7103945049183855E9, 0.0, 2024-03-13 22:35:04.918
56.0, -10.976606369949877, -8.358676400966942, -9.65268178563565, -9.749919184483588, 0.8800000417977571, 0.3840000182390213, 0.4480000212788582, 0.0, 0.0, 0.0, 0.0, 0.0, 1.7103945049318554E9, 0.0, 2024-03-13 22:35:04.931
56.0, -8.549411298707128, -14.447233528830111, 2.6665486684069037, -6.140915727242827, 0.8800000417977571, 0.3840000182390213, 0.4480000212788582, 0.0, 0.0, 0.0, 0.0, 0.0, 1.7103945049318554E9, 0.0, 2024-03-13 22:35:04.931
57.0, -16.95296649914235, -13.011111945845187, -3.582824157550931, -15.70383991394192, 0.8800000417977571, 0.3840000182390213, 0.4480000212788582, 0.0, 0.0, 0.0, 0.0, 0.0, 1.710394504947778E9, 0.0, 2024-03-13 22:35:04.947
57.0, -11.346856465563178, -16.339622906409204, -21.130434749647975, -17.37557519413531, 0.8800000417977571, 0.3840000182390213, 0.4480000212788582, 0.0, 0.0, 0.0, 0.0, 0.0, 1.710394504947778E9, 0.0, 2024-03-13 22:35:04.947
58.0, -9.054297792725265, -15.486925716511905, -6.948734117671847, -10.987826069816947, 0.8800000417977571, 0.3840000182390213, 0.4480000212788582, 0.0, 0.0, 0.0, 0.0, 0.0, 1.7103945049484663E9, 0.0, 2024-03-13 22:35:04.948
58.0, -10.258545578457415, -7.6256560096517205, 3.825917654670775, -6.249372825957835, 0.8800000417977571, 0.3840000182390213, 0.4480000212788582, 0.0, 0.0, 0.0, 0.0, 0.0, 1.7103945049484663E9, 0.0, 2024-03-13 22:35:04.948
59.0, -13.340223141945899, -17.977699087001383, -15.632781814783812, -16.384501705877483, 0.8800000417977571, 0.3840000182390213, 0.4480000212788582, 0.0, 0.0, 0.0, 0.0, 0.0, 1.7103945049618287E9, 0.0, 2024-03-13 22:35:04.961
59.0, -7.0646710162982345, -15.66644091438502, -13.69177373778075, -8.238999602384865, 0.8800000417977571, 0.3840000182390213, 0.4480000212788582, 0.0, 0.0, 0.0, 0.0, 0.0, 1.7103945049618287E9, 0.0, 2024-03-13 22:35:04.961
60.0, -11.926540958695114, -11.365555965341628, 5.594890333712101, -6.211973826400936, 0.8800000417977571, 0.3840000182390213, 0.4480000212788582, 0.0, 0.0, 0.0, 0.0, 0.0, 1.7103945049775229E9, 0.0, 2024-03-13 22:35:04.977
60.0, -12.135975356213748, -13.557137339375913, -1.2379068853333592, -7.139469015412033, 0.8800000417977571, 0.3840000182390213, 0.4480000212788582, 0.0, 0.0, 0.0, 0.0, 0.0, 1.7103945049775229E9, 0.0, 2024-03-13 22:35:04.977
61.0, -1.0733512872830033, -5.23585993796587, -2.6740284683182836, -4.532758746296167, 0.8800000417977571, 0.3840000182390213, 0.4480000212788582, 0.0, 0.0, 0.0, 0.0, 0.0, 1.7103945049781845E9, 0.0, 2024-03-13 22:35:04.978
61.0, -8.134282403625548, -13.355182741768658, 5.190981138497591, -0.6283031925559044, 0.8800000417977571, 0.3840000182390213, 0.4480000212788582, 0.0, 0.0, 0.0, 0.0, 0.0, 1.7103945049781845E9, 0.0, 2024-03-13 22:35:04.978
62.0, -14.428534029051661, -11.870442459359765, 10.812050771899521, -4.356983448378742, 0.8800000417977571, 0.3840000182390213, 0.4480000212788582, 0.0, 0.0, 0.0, 0.0, 0.0, 1.7103945049917712E9, 0.0, 2024-03-13 22:35:04.991
62.0, -10.87936897110194, -10.05659098085016, -9.64520198572427, -9.084216992370784, 0.8800000417977571, 0.3840000182390213, 0.4480000212788582, 0.0, 0.0, 0.0, 0.0, 0.0, 1.7103945049917712E9, 0.0, 2024-03-13 22:35:04.991
63.0, -8.291358201764524, -10.957906870171428, 0.17577529791742563, -5.202200838364661, 0.8800000417977571, 0.3840000182390213, 0.4480000212788582, 0.0, 0.0, 0.0, 0.0, 0.0, 1.7103945050074952E9, 0.0, 2024-03-13 22:35:05.007
63.0, -10.778391672298312, -6.0548980282619596, 2.82362446654588, -7.004832617007196, 0.8800000417977571, 0.3840000182390213, 0.4480000212788582, 0.0, 0.0, 0.0, 0.0, 0.0, 1.7103945050074952E9, 0.0, 2024-03-13 22:35:05.007
64.0, -21.227672148495913, -22.9742054278031, -14.604309326969087, -14.376175429672003, 0.8800000417977571, 0.3840000182390213, 0.4480000212788582, 0.0, 0.0, 0.0, 0.0, 0.0, 1.7103945050081563E9, 0.0, 2024-03-13 22:35:05.008
64.0, -13.545917639508843, -12.816637148149312, -6.118476327508688, -8.758845696225762, 0.8800000417977571, 0.3840000182390213, 0.4480000212788582, 0.0, 0.0, 0.0, 0.0, 0.0, 1.7103945050081563E9, 0.0, 2024-03-13 22:35:05.008
65.0, -17.31573679484427, -18.804216977208853, 5.288218537345529, -11.058884168975055, 0.8800000417977571, 0.3840000182390213, 0.4480000212788582, 0.0, 0.0, 0.0, 0.0, 0.0, 1.7103945050218716E9, 0.0, 2024-03-13 22:35:05.021
65.0, -11.343116565607488, -11.507672163657844, 1.4323816830292344, -6.769218919798732, 0.8800000417977571, 0.3840000182390213, 0.4480000212788582, 0.0, 0.0, 0.0, 0.0, 0.0, 1.7103945050218716E9, 0.0, 2024-03-13 22:35:05.021
66.0, -8.758845696225762, -10.86440937127918, -9.783578284084797, -8.590550198219717, 0.8800000417977571, 0.3840000182390213, 0.4480000212788582, 0.0, 0.0, 0.0, 0.0, 0.0, 1.7103945050374308E9, 0.0, 2024-03-13 22:35:05.037
66.0, -16.709873002022505, -9.895775282755494, 5.789365131407976, -7.2666256139054894, 0.8800000417977571, 0.3840000182390213, 0.4480000212788582, 0.0, 0.0, 0.0, 0.0, 0.0, 1.7103945050374308E9, 0.0, 2024-03-13 22:35:05.037
67.0, -23.673566719517112, -20.303916859440506, -2.688988068141043, -14.424794129095972, 0.8800000417977571, 0.3840000182390213, 0.4480000212788582, 0.0, 0.0, 0.0, 0.0, 0.0, 1.7103945050381515E9, 0.0, 2024-03-13 22:35:05.038
67.0, -30.259530541487038, -36.67719886545092, -23.157460525631905, -26.21669868938625, 0.8800000417977571, 0.3840000182390213, 0.4480000212788582, 0.0, 0.0, 0.0, 0.0, 0.0, 1.7103945050381515E9, 0.0, 2024-03-13 22:35:05.038
68.0, -17.136221596971154, -28.355921464040875, -6.484986523166299, -16.339622906409204, 0.8800000417977571, 0.3840000182390213, 0.4480000212788582, 0.0, 0.0, 0.0, 0.0, 0.0, 1.7103945050520856E9, 0.0, 2024-03-13 22:35:05.052
68.0, -18.250711783766747, -18.8603154765442, -1.372543283738196, -12.360369353555143, 0.8800000417977571, 0.3840000182390213, 0.4480000212788582, 0.0, 0.0, 0.0, 0.0, 0.0, 1.7103945050520856E9, 0.0, 2024-03-13 22:35:05.052
69.0, -27.914613269269466, -23.422993422485888, -19.630734867416322, -20.87238165270537, 0.8800000417977571, 0.3840000182390213, 0.4480000212788582, 0.0, 0.0, 0.0, 0.0, 0.0, 1.7103945050671868E9, 0.0, 2024-03-13 22:35:05.067
69.0, -9.23007309064269, -19.7130126664415, -7.146948815323412, -9.058037692680955, 0.8800000417977571, 0.3840000182390213, 0.4480000212788582, 0.0, 0.0, 0.0, 0.0, 0.0, 1.7103945050671868E9, 0.0, 2024-03-13 22:35:05.067
70.0, -15.116675620898604, -18.95381297543645, 4.0428318521007895, -4.880569442175329, 0.8800000417977571, 0.3840000182390213, 0.4480000212788582, 0.0, 0.0, 0.0, 0.0, 0.0, 1.7103945050828724E9, 0.0, 2024-03-13 22:35:05.082
70.0, -13.67681413795799, -20.09074256196618, 0.02617929968982935, -4.510319346562028, 0.8800000417977571, 0.3840000182390213, 0.4480000212788582, 0.0, 0.0, 0.0, 0.0, 0.0, 1.7103945050828724E9, 0.0, 2024-03-13 22:35:05.082
71.0, -6.462547123432159, -9.835936883464456, -2.258899573236704, -1.2154674855992198, 0.8800000417977571, 0.3840000182390213, 0.4480000212788582, 0.0, 0.0, 0.0, 0.0, 0.0, 1.7103945050837276E9, 0.0, 2024-03-13 22:35:05.083
71.0, -9.364709489047527, -15.67018081434071, 7.595736810006201, -0.17203539796173573, 0.8800000417977571, 0.3840000182390213, 0.4480000212788582, 0.0, 0.0, 0.0, 0.0, 0.0, 1.7103945050837276E9, 0.0, 2024-03-13 22:35:05.083
72.0, -9.65642168559134, -12.46882645227015, 8.938360894098878, 0.018699499778449535, 0.8800000417977571, 0.3840000182390213, 0.4480000212788582, 0.0, 0.0, 0.0, 0.0, 0.0, 1.7103945050976613E9, 0.0, 2024-03-13 22:35:05.097
72.0, -15.845956112258136, -21.440846445970237, -6.9412543177604675, -7.591996910050511, 0.8800000417977571, 0.3840000182390213, 0.4480000212788582, 0.0, 0.0, 0.0, 0.0, 0.0, 1.7103945050976613E9, 0.0, 2024-03-13 22:35:05.097
73.0, -9.749919184483588, -10.610096174292266, 5.336837236769497, -2.045725275762379, 0.8800000417977571, 0.3840000182390213, 0.4480000212788582, 0.0, 0.0, 0.0, 0.0, 0.0, 1.7103945050983846E9, 0.0, 2024-03-13 22:35:05.098
73.0, -16.006771810352802, -11.167341267690063, 9.360969589091837, -3.339730660431087, 0.8800000417977571, 0.3840000182390213, 0.4480000212788582, 0.0, 0.0, 0.0, 0.0, 0.0, 1.7103945050983846E9, 0.0, 2024-03-13 22:35:05.098
74.0, -10.88684877101332, -13.66185453813523, -4.0465717520564795, -6.484986523166299, 0.8800000417977571, 0.3840000182390213, 0.4480000212788582, 0.0, 0.0, 0.0, 0.0, 0.0, 1.7103945051117687E9, 0.0, 2024-03-13 22:35:05.111
74.0, 2.1429626746103168, -1.2603462850674987, 2.730126967653632, 2.00458637624979, 0.8800000417977571, 0.3840000182390213, 0.4480000212788582, 0.0, 0.0, 0.0, 0.0, 0.0, 1.7103945051117687E9, 0.0, 2024-03-13 22:35:05.111
75.0, -8.773805296048522, -9.68634088523686, 10.84196997154504, -0.40390919521450996, 0.8800000417977571, 0.3840000182390213, 0.4480000212788582, 0.0, 0.0, 0.0, 0.0, 0.0, 1.710394505127452E9, 0.0, 2024-03-13 22:35:05.127
75.0, -5.9763601291924715, -5.0114659406244755, 7.861269706860185, -0.6881415918469429, 0.8800000417977571, 0.3840000182390213, 0.4480000212788582, 0.0, 0.0, 0.0, 0.0, 0.0, 1.710394505127452E9, 0.0, 2024-03-13 22:35:05.127
76.0, -4.480400146916509, -5.8978222301229835, -0.5946440929546952, 1.4735205825418234, 0.8800000417977571, 0.3840000182390213, 0.4480000212788582, 0.0, 0.0, 0.0, 0.0, 0.0, 1.710394505128193E9, 0.0, 2024-03-13 22:35:05.128
76.0, -2.539392069913447, 3.1976144621148705, 7.921108106151223, 4.596337045542896, 0.8800000417977571, 0.3840000182390213, 0.4480000212788582, 0.0, 0.0, 0.0, 0.0, 0.0, 1.710394505128193E9, 0.0, 2024-03-13 22:35:05.128
77.0, -8.770065396092832, -5.665948432870209, 14.133081932552159, 4.895529041998088, 0.8800000417977571, 0.3840000182390213, 0.4480000212788582, 0.0, 0.0, 0.0, 0.0, 0.0, 1.7103945051419907E9, 0.0, 2024-03-13 22:35:05.141
77.0, -7.131989215500653, -11.761985360644758, -7.442400911822915, -9.196413991041481, 0.8800000417977571, 0.3840000182390213, 0.4480000212788582, 0.0, 0.0, 0.0, 0.0, 0.0, 1.7103945051419907E9, 0.0, 2024-03-13 22:35:05.141
78.0, 2.8011850668117404, 5.490173134952784, 5.108703339472413, 5.276998837478459, 0.8800000417977571, 0.3840000182390213, 0.4480000212788582, 0.0, 0.0, 0.0, 0.0, 0.0, 1.7103945051574385E9, 0.0, 2024-03-13 22:35:05.157
78.0, -4.480400146916509, -6.357829924672842, 5.168541738763452, -1.727833779528737, 0.8800000417977571, 0.3840000182390213, 0.4480000212788582, 0.0, 0.0, 0.0, 0.0, 0.0, 1.7103945051574385E9, 0.0, 2024-03-13 22:35:05.157
79.0, -15.69636011403054, -11.67596766166389, -11.537591363303363, -8.519492099061608, 0.8800000417977571, 0.3840000182390213, 0.4480000212788582, 0.0, 0.0, 0.0, 0.0, 0.0, 1.7103945051581554E9, 0.0, 2024-03-13 22:35:05.158
79.0, -12.05369755718857, -8.03330510482192, -8.336237001232803, -8.687787597067654, 0.8800000417977571, 0.3840000182390213, 0.4480000212788582, 0.0, 0.0, 0.0, 0.0, 0.0, 1.7103945051581554E9, 0.0, 2024-03-13 22:35:05.158
80.0, -16.395721405744553, -4.671135044656694, 7.569557510316372, -5.116183139383793, 0.8800000417977571, 0.3840000182390213, 0.4480000212788582, 0.0, 0.0, 0.0, 0.0, 0.0, 1.7103945051718092E9, 0.0, 2024-03-13 22:35:05.171
80.0, -23.105101926252246, -7.782731807790697, -5.060084640048444, -10.976606369949877, 0.8800000417977571, 0.3840000182390213, 0.4480000212788582, 0.0, 0.0, 0.0, 0.0, 0.0, 1.7103945051718092E9, 0.0, 2024-03-13 22:35:05.171
81.0, -15.70383991394192, -19.937406663782895, -14.798784124664962, -9.708780284970999, 0.8800000417977571, 0.3840000182390213, 0.4480000212788582, 0.0, 0.0, 0.0, 0.0, 0.0, 1.7103945051874027E9, 0.0, 2024-03-13 22:35:05.187
81.0, -9.383408988825977, -10.935467470437288, 1.2940053846687078, -3.3546902602538466, 0.8800000417977571, 0.3840000182390213, 0.4480000212788582, 0.0, 0.0, 0.0, 0.0, 0.0, 1.7103945051874027E9, 0.0, 2024-03-13 22:35:05.187
82.0, -16.46677950490266, -16.608895703218877, 4.345763748511672, -3.3696498600766063, 0.8800000417977571, 0.3840000182390213, 0.4480000212788582, 0.0, 0.0, 0.0, 0.0, 0.0, 1.7103945051881323E9, 0.0, 2024-03-13 22:35:05.188
82.0, -7.65557520929724, -2.0307656759396195, -8.657868397422135, -4.547718346118927, 0.8800000417977571, 0.3840000182390213, 0.4480000212788582, 0.0, 0.0, 0.0, 0.0, 0.0, 1.7103945051881323E9, 0.0, 2024-03-13 22:35:05.188
83.0, 3.8894959539175034, -9.312350889667869, 8.295098101720214, 2.973220464773476, 0.8800000417977571, 0.3840000182390213, 0.4480000212788582, 0.0, 0.0, 0.0, 0.0, 0.0, 1.7103945052017927E9, 0.0, 2024-03-13 22:35:05.201
83.0, -2.382316271774471, -0.8377375900745392, 9.64894188567996, -3.4070488596335053, 0.8800000417977571, 0.3840000182390213, 0.4480000212788582, 0.0, 0.0, 0.0, 0.0, 0.0, 1.7103945052017927E9, 0.0, 2024-03-13 22:35:05.201
84.0, -6.05115812830627, -1.1743285860866308, -1.3501038840040565, -5.284478637389839, 0.8800000417977571, 0.3840000182390213, 0.4480000212788582, 0.0, 0.0, 0.0, 0.0, 0.0, 1.7103945052178254E9, 0.0, 2024-03-13 22:35:05.217
84.0, 6.354090024717152, 9.080477092415094, 6.088557127863169, 5.505132734775543, 0.8800000417977571, 0.3840000182390213, 0.4480000212788582, 0.0, 0.0, 0.0, 0.0, 0.0, 1.7103945052178254E9, 0.0, 2024-03-13 22:35:05.217
85.0, 6.159615227021277, 4.184948050417006, 19.612035367637873, 8.706487096846104, 0.8800000417977571, 0.3840000182390213, 0.4480000212788582, 0.0, 0.0, 0.0, 0.0, 0.0, 1.7103945052183003E9, 0.0, 2024-03-13 22:35:05.218
85.0, -8.265178902074695, -7.775252007879317, 11.324417065829039, -0.46000769454985857, 0.8800000417977571, 0.3840000182390213, 0.4480000212788582, 0.0, 0.0, 0.0, 0.0, 0.0, 1.7103945052183003E9, 0.0, 2024-03-13 22:35:05.218
86.0, -6.305471325293183, 7.419961512088776, 4.259746049530804, 1.2603462850674987, 0.8800000417977571, 0.3840000182390213, 0.4480000212788582, 0.0, 0.0, 0.0, 0.0, 0.0, 1.710394505231779E9, 0.0, 2024-03-13 22:35:05.231
86.0, -1.7353135794401169, 0.1047171987593174, 17.087602897547185, 7.876229306682944, 0.8800000417977571, 0.3840000182390213, 0.4480000212788582, 0.0, 0.0, 0.0, 0.0, 0.0, 1.710394505231779E9, 0.0, 2024-03-13 22:35:05.231
87.0, -14.136821832507849, -8.586810298264027, 13.441200440749526, 3.343470560386777, 0.8800000417977571, 0.3840000182390213, 0.4480000212788582, 0.0, 0.0, 0.0, 0.0, 0.0, 1.710394505247825E9, 0.0, 2024-03-13 22:35:05.247
87.0, -16.44060020521283, -6.668241620995104, -0.9162754891440272, -1.372543283738196, 0.8800000417977571, 0.3840000182390213, 0.4480000212788582, 0.0, 0.0, 0.0, 0.0, 0.0, 1.710394505247825E9, 0.0, 2024-03-13 22:35:05.247
88.0, -10.011712181381881, -10.550257775001228, 8.512012299150229, -1.8811696777120233, 0.8800000417977571, 0.3840000182390213, 0.4480000212788582, 0.0, 0.0, 0.0, 0.0, 0.0, 1.7103945052484424E9, 0.0, 2024-03-13 22:35:05.248
88.0, -10.591396674513817, -9.005679093301296, 14.327556730248034, -1.3949826834723353, 0.8800000417977571, 0.3840000182390213, 0.4480000212788582, 0.0, 0.0, 0.0, 0.0, 0.0, 1.7103945052484424E9, 0.0, 2024-03-13 22:35:05.248
89.0, -14.170480932109058, -9.723739884793758, -2.6029703691601753, -13.366402441635728, 0.8800000417977571, 0.3840000182390213, 0.4480000212788582, 0.0, 0.0, 0.0, 0.0, 0.0, 1.7103945052618785E9, 0.0, 2024-03-13 22:35:05.261
89.0, -9.166494791395962, -4.4093420477584, -11.848003059625626, -10.03041168116033, 0.8800000417977571, 0.3840000182390213, 0.4480000212788582, 0.0, 0.0, 0.0, 0.0, 0.0, 1.7103945052618785E9, 0.0, 2024-03-13 22:35:05.261
90.0, -6.4999461229890585, -9.832196983508766, 8.706487096846104, -4.678614844568074, 0.8800000417977571, 0.3840000182390213, 0.43200002051889896, 0.0, 0.0, 0.0, 0.0, 0.0, 1.7103945052774997E9, 0.0, 2024-03-13 22:35:05.277
90.0, -18.766817977651954, -21.186533248983324, -8.88974219467491, -17.809403588995337, 0.8800000417977571, 0.3840000182390213, 0.43200002051889896, 0.0, 0.0, 0.0, 0.0, 0.0, 1.7103945052774997E9, 0.0, 2024-03-13 22:35:05.277
91.0, -19.73545206617564, -32.07338201999664, -14.847402824088931, -19.062270074151456, 0.8800000417977571, 0.3840000182390213, 0.43200002051889896, 0.0, 0.0, 0.0, 0.0, 0.0, 1.7103945052782264E9, 0.0, 2024-03-13 22:35:05.278
91.0, -20.11318196170032, -22.58151593245566, -0.8676567897200584, -17.65980759076774, 0.8800000417977571, 0.3840000182390213, 0.43200002051889896, 0.0, 0.0, 0.0, 0.0, 0.0, 1.7103945052782264E9, 0.0, 2024-03-13 22:35:05.278
92.0, -33.48706420324743, -33.38234700448811, -4.03535205218941, -14.824963424354792, 0.8800000417977571, 0.3840000182390213, 0.43200002051889896, 0.0, 0.0, 0.0, 0.0, 0.0, 1.7103945052917552E9, 0.0, 2024-03-13 22:35:05.291
92.0, -38.34145434573293, -39.41106573306024, -17.181100396439433, -21.73255864251405, 0.8800000417977571, 0.3840000182390213, 0.43200002051889896, 0.0, 0.0, 0.0, 0.0, 0.0, 1.7103945052917552E9, 0.0, 2024-03-13 22:35:05.291
93.0, -34.25748359411955, -37.05118886101991, -6.870196218602359, -15.67766061425209, 0.8800000417977571, 0.3840000182390213, 0.43200002051889896, 0.0, 0.0, 0.0, 0.0, 0.0, 1.710394505307474E9, 0.0, 2024-03-13 22:35:05.307
93.0, -26.078322391025722, -24.16723351366818, -0.6208233926445246, -13.25420544296503, 0.8800000417977571, 0.3840000182390213, 0.43200002051889896, 0.0, 0.0, 0.0, 0.0, 0.0, 1.710394505307474E9, 0.0, 2024-03-13 22:35:05.307
94.0, -22.59273563232273, -30.24457094166428, -18.022577886469662, -20.240338560193777, 0.8800000417977571, 0.3840000182390213, 0.43200002051889896, 0.0, 0.0, 0.0, 0.0, 0.0, 1.710394505308242E9, 0.0, 2024-03-13 22:35:05.308
94.0, -13.931127334944904, -22.626394731923938, -8.736406296491623, -15.105455921031535, 0.8800000417977571, 0.3840000182390213, 0.43200002051889896, 0.0, 0.0, 0.0, 0.0, 0.0, 1.710394505308242E9, 0.0, 2024-03-13 22:35:05.308
95.0, -4.540238546207547, -6.634582521393895, 5.968880329281092, -5.202200838364661, 0.8800000417977571, 0.3840000182390213, 0.43200002051889896, 0.0, 0.0, 0.0, 0.0, 0.0, 1.7103945053218083E9, 0.0, 2024-03-13 22:35:05.321
95.0, -8.684047697111964, -13.987225834280252, -9.888295482844114, -12.420207752846181, 0.8800000417977571, 0.3840000182390213, 0.43200002051889896, 0.0, 0.0, 0.0, 0.0, 0.0, 1.7103945053218083E9, 0.0, 2024-03-13 22:35:05.321
96.0, -0.4674874944612384, -4.611296645365655, -7.25540591403842, -5.692127732560039, 0.8800000417977571, 0.3840000182390213, 0.43200002051889896, 0.0, 0.0, 0.0, 0.0, 0.0, 1.7103945053372793E9, 0.0, 2024-03-13 22:35:05.337
96.0, 0.17577529791742563, -2.775005767121911, 7.63687570951879, -0.33285109605640173, 0.8800000417977571, 0.3840000182390213, 0.43200002051889896, 0.0, 0.0, 0.0, 0.0, 0.0, 1.7103945053372793E9, 0.0, 2024-03-13 22:35:05.337
97.0, 2.8311042664572597, 0.8975759893655777, 13.085909944958985, 3.171435162425041, 0.8800000417977571, 0.3840000182390213, 0.43200002051889896, 0.0, 0.0, 0.0, 0.0, 0.0, 1.7103945053524685E9, 0.0, 2024-03-13 22:35:05.352
97.0, 0.7292804913595319, -2.131742974743247, -0.1047171987593174, -2.0419853758066893, 0.8800000417977571, 0.3840000182390213, 0.43200002051889896, 0.0, 0.0, 0.0, 0.0, 0.0, 1.7103945053524685E9, 0.0, 2024-03-13 22:35:05.352
98.0, -5.5761908339336514, -15.221392819657922, 5.920261629857123, -5.363016536459327, 0.8800000417977571, 0.3840000182390213, 0.43200002051889896, 0.0, 0.0, 0.0, 0.0, 0.0, 1.7103945053534536E9, 0.0, 2024-03-13 22:35:05.353
98.0, -9.009418993256986, -8.736406296491623, 14.929680623114109, -0.8265178902074695, 0.8800000417977571, 0.3840000182390213, 0.43200002051889896, 0.0, 0.0, 0.0, 0.0, 0.0, 1.7103945053534536E9, 0.0, 2024-03-13 22:35:05.353
99.0, -14.05454403348267, -17.858022288419306, 2.1093035750091076, -3.178914962336421, 0.8800000417977571, 0.3840000182390213, 0.43200002051889896, 0.0, 0.0, 0.0, 0.0, 0.0, 1.7103945053679576E9, 0.0, 2024-03-13 22:35:05.367
99.0, -12.06491725705564, -11.051404369063675, -3.908195453695953, -6.062377828173339, 0.8800000417977571, 0.3840000182390213, 0.43200002051889896, 0.0, 0.0, 0.0, 0.0, 0.0, 1.7103945053679576E9, 0.0, 2024-03-13 22:35:05.367
100.0, -6.82905731908977, -8.919661394320428, 13.448680240660906, 2.374836471863091, 0.8800000417977571, 0.3840000182390213, 0.43200002051889896, 0.0, 0.0, 0.0, 0.0, 0.0, 1.7103945053683722E9, 0.0, 2024-03-13 22:35:05.368
100.0, -15.864655612036586, -13.25046554300934, -0.7741592908278108, -9.559184286743402, 0.8800000417977571, 0.3840000182390213, 0.43200002051889896, 0.0, 0.0, 0.0, 0.0, 0.0, 1.7103945053683722E9, 0.0, 2024-03-13 22:35:05.368
0.0, -723.0834771329537, -349.334705111105, -476.5474021038972, -397.02403939608485, 0.8800000417977571, 0.3840000182390213, 0.43200002051889896, 0.0, 0.0, 0.0, 0.0, 0.0, 1.7103945053826983E9, 0.0, 2024-03-13 22:35:05.382
1.0, -727.3432231824845, -355.76733303489164, -465.309002737049, -393.83390473388135, 0.8800000417977571, 0.3840000182390213, 0.43200002051889896, 0.0, 0.0, 0.0, 0.0, 0.0, 1.7103945053831763E9, 0.0, 2024-03-13 22:35:05.383
1.0, -733.9404067043215, -353.7440471588634, -469.6959053850733, -390.53531297296286, 0.8800000417977571, 0.3840000182390213, 0.43200002051889896, 0.0, 0.0, 0.0, 0.0, 0.0, 1.7103945053831763E9, 0.0, 2024-03-13 22:35:05.383
2.0, -730.5408376445994, -356.67986862408, -476.1247934089042, -386.1783295245841, 0.8800000417977571, 0.3840000182390213, 0.43200002051889896, 0.0, 0.0, 0.0, 0.0, 0.0, 1.7103945053968976E9, 0.0, 2024-03-13 22:35:05.396
2.0, -728.5063320687041, -352.24808717658743, -458.59214241662994, -379.0052014095709, 0.8800000417977571, 0.3840000182390213, 0.43200002051889896, 0.0, 0.0, 0.0, 0.0, 0.0, 1.7103945053968976E9, 0.0, 2024-03-13 22:35:05.396
3.0, -732.1153355259448, -362.95542074972764, -449.1526349284686, -379.7083026012406, 0.8800000417977571, 0.3840000182390213, 0.43200002051889896, 0.0, 0.0, 0.0, 0.0, 0.0, 1.7103945054124224E9, 0.0, 2024-03-13 22:35:05.412
3.0, -726.023038498126, -341.04708680929616, -461.3484486839734, -382.4384295688942, 0.8800000417977571, 0.3840000182390213, 0.43200002051889896, 0.0, 0.0, 0.0, 0.0, 0.0, 1.7103945054124224E9, 0.0, 2024-03-13 22:35:05.412
4.0, -716.3703567124903, -343.27606718288735, -465.00233094068244, -381.6904495777562, 0.8800000417977571, 0.3840000182390213, 0.43200002051889896, 0.0, 0.0, 0.0, 0.0, 0.0, 1.710394505413358E9, 0.0, 2024-03-13 22:35:05.413
4.0, -712.3163051605225, -341.5519733033143, -454.1566210691817, -377.86079202312976, 0.8800000417977571, 0.3840000182390213, 0.43200002051889896, 0.0, 0.0, 0.0, 0.0, 0.0, 1.710394505413358E9, 0.0, 2024-03-13 22:35:05.413
5.0, -721.6884944494814, -350.83066509338096, -464.6433005449362, -386.0736123258248, 0.8800000417977571, 0.3840000182390213, 0.43200002051889896, 0.0, 0.0, 0.0, 0.0, 0.0, 1.7103945054269533E9, 0.0, 2024-03-13 22:35:05.426
5.0, -708.9915340999141, -344.2858401709236, -468.2448242022656, -382.57306596729904, 0.8800000417977571, 0.3840000182390213, 0.43200002051889896, 0.0, 0.0, 0.0, 0.0, 0.0, 1.7103945054269533E9, 0.0, 2024-03-13 22:35:05.426
6.0, -709.8330115899444, -340.8787913112901, -451.6022693994455, -379.20341610722244, 0.8800000417977571, 0.3840000182390213, 0.43200002051889896, 0.0, 0.0, 0.0, 0.0, 0.0, 1.71039450544244E9, 0.0, 2024-03-13 22:35:05.442
6.0, -714.9454548293725, -347.8050860292278, -457.578629528638, -381.27158078271896, 0.8800000417977571, 0.3840000182390213, 0.43200002051889896, 0.0, 0.0, 0.0, 0.0, 0.0, 1.71039450544244E9, 0.0, 2024-03-13 22:35:05.442
7.0, -718.7751123839989, -342.629064490553, -468.77215009601787, -387.71542840637267, 0.8800000417977571, 0.3840000182390213, 0.43200002051889896, 0.0, 0.0, 0.0, 0.0, 0.0, 1.7103945054431636E9, 0.0, 2024-03-13 22:35:05.443
7.0, -721.1611685557291, -342.83475898811594, -464.7517576436512, -386.46630182117224, 0.8800000417977571, 0.3840000182390213, 0.43200002051889896, 0.0, 0.0, 0.0, 0.0, 0.0, 1.7103945054431636E9, 0.0, 2024-03-13 22:35:05.443
8.0, -728.386655270122, -347.83126532891765, -465.14444713899866, -390.2959593757987, 0.8800000417977571, 0.3840000182390213, 0.43200002051889896, 0.0, 0.0, 0.0, 0.0, 0.0, 1.710394505456778E9, 0.0, 2024-03-13 22:35:05.456
8.0, -723.3677095295861, -365.375136021059, -478.27149598347023, -398.54243877809495, 0.8800000417977571, 0.3840000182390213, 0.43200002051889896, 0.0, 0.0, 0.0, 0.0, 0.0, 1.710394505456778E9, 0.0, 2024-03-13 22:35:05.456
9.0, -720.9479942582548, -353.4523349623196, -473.2039315435104, -389.64521678350866, 0.8800000417977571, 0.3840000182390213, 0.43200002051889896, 0.0, 0.0, 0.0, 0.0, 0.0, 1.7103945054726613E9, 0.0, 2024-03-13 22:35:05.472
9.0, -720.5291254632175, -344.94032266316935, -457.1298415339552, -382.04574007354677, 0.8800000417977571, 0.3840000182390213, 0.43200002051889896, 0.0, 0.0, 0.0, 0.0, 0.0, 1.7103945054726613E9, 0.0, 2024-03-13 22:35:05.472
10.0, -712.996966952458, -338.2945204419084, -460.11428169859573, -377.6663172254339, 0.8800000417977571, 0.3840000182390213, 0.4480000212788582, 0.0, 0.0, 0.0, 0.0, 0.0, 1.710394505473362E9, 0.0, 2024-03-13 22:35:05.473
10.0, -710.7642466789111, -337.3670252528973, -466.3075560252182, -378.5825927145779, 0.8800000417977571, 0.3840000182390213, 0.4480000212788582, 0.0, 0.0, 0.0, 0.0, 0.0, 1.710394505473362E9, 0.0, 2024-03-13 22:35:05.473
11.0, -707.1627230215818, -329.90218494134024, -443.0042394013144, -368.028595039621, 0.8800000417977571, 0.3840000182390213, 0.4480000212788582, 0.0, 0.0, 0.0, 0.0, 0.0, 1.7103945055032012E9, 0.0, 2024-03-13 22:35:05.503
11.0, -714.5116264345124, -328.74655585503206, -452.84391618473455, -372.97274278104305, 0.8800000417977571, 0.3840000182390213, 0.4480000212788582, 0.0, 0.0, 0.0, 0.0, 0.0, 1.7103945055032012E9, 0.0, 2024-03-13 22:35:05.503
12.0, -701.5940119875595, -328.62687905645, -462.47789847059175, -371.60767929721624, 0.8800000417977571, 0.3840000182390213, 0.4480000212788582, 0.0, 0.0, 0.0, 0.0, 0.0, 1.7103945055039756E9, 0.0, 2024-03-13 22:35:05.503
12.0, -699.1406376166269, -328.3239471600391, -456.20982614485547, -368.97852962836623, 0.8800000417977571, 0.3840000182390213, 0.4480000212788582, 0.0, 0.0, 0.0, 0.0, 0.0, 1.7103945055039756E9, 0.0, 2024-03-13 22:35:05.503
13.0, -699.4435695130378, -322.51962242880836, -443.0079793012701, -363.3649397948757, 0.8800000417977571, 0.3840000182390213, 0.4480000212788582, 0.0, 0.0, 0.0, 0.0, 0.0, 1.7103945055049727E9, 0.0, 2024-03-13 22:35:05.504
13.0, -701.6052316874266, -325.0216154991649, -454.57922976417467, -365.5116423694417, 0.8800000417977571, 0.3840000182390213, 0.4480000212788582, 0.0, 0.0, 0.0, 0.0, 0.0, 1.7103945055049727E9, 0.0, 2024-03-13 22:35:05.504
14.0, -706.2389677325264, -330.4444704349153, -455.66754065128043, -367.811680842191, 0.8800000417977571, 0.3840000182390213, 0.4480000212788582, 0.0, 0.0, 0.0, 0.0, 0.0, 1.7103945055169954E9, 0.0, 2024-03-13 22:35:05.516
14.0, -706.6877557272092, -328.144431962166, -445.77550526848063, -362.4037855062634, 0.8800000417977571, 0.3840000182390213, 0.4480000212788582, 0.0, 0.0, 0.0, 0.0, 0.0, 1.7103945055169954E9, 0.0, 2024-03-13 22:35:05.516
15.0, -711.7777595669031, -340.7404150129296, -458.80531671410426, -375.4298570519313, 0.8800000417977571, 0.3840000182390213, 0.4480000212788582, 0.0, 0.0, 0.0, 0.0, 0.0, 1.7103945055326853E9, 0.0, 2024-03-13 22:35:05.532
15.0, -707.4768746178597, -333.41769089968875, -469.78566298400983, -381.08458578493446, 0.8800000417977571, 0.3840000182390213, 0.4480000212788582, 0.0, 0.0, 0.0, 0.0, 0.0, 1.7103945055326853E9, 0.0, 2024-03-13 22:35:05.532
16.0, -702.8842774722725, -334.2853476894088, -451.2694183033891, -373.12233877927065, 0.8800000417977571, 0.3840000182390213, 0.4480000212788582, 0.0, 0.0, 0.0, 0.0, 0.0, 1.710394505533226E9, 0.0, 2024-03-13 22:35:05.533
16.0, -701.7436079857871, -336.59660586202517, -452.5222847885452, -375.94222334586084, 0.8800000417977571, 0.3840000182390213, 0.4480000212788582, 0.0, 0.0, 0.0, 0.0, 0.0, 1.710394505533226E9, 0.0, 2024-03-13 22:35:05.533
17.0, -701.1040850933641, -336.3946512644179, -464.32914894865826, -377.2212691307068, 0.8800000417977571, 0.3840000182390213, 0.4480000212788582, 0.0, 0.0, 0.0, 0.0, 0.0, 1.7103945055468175E9, 0.0, 2024-03-13 22:35:05.546
17.0, -698.8601451199502, -329.16168475011364, -453.1580677810125, -369.04210792761296, 0.8800000417977571, 0.3840000182390213, 0.4480000212788582, 0.0, 0.0, 0.0, 0.0, 0.0, 1.7103945055468175E9, 0.0, 2024-03-13 22:35:05.546
18.0, -703.5424998644739, -325.2946281959303, -446.18315436365083, -369.2777216248214, 0.8800000417977571, 0.3840000182390213, 0.4480000212788582, 0.0, 0.0, 0.0, 0.0, 0.0, 1.7103945055624704E9, 0.0, 2024-03-13 22:35:05.562
18.0, -698.9125037193298, -318.6114269751124, -459.24288500892, -366.5513345571235, 0.8800000417977571, 0.3840000182390213, 0.4480000212788582, 0.0, 0.0, 0.0, 0.0, 0.0, 1.7103945055624704E9, 0.0, 2024-03-13 22:35:05.562
19.0, -683.7434694990516, -308.96622498938814, -446.54218475939706, -352.6538663217798, 0.8800000417977571, 0.3840000182390213, 0.4480000212788582, 0.0, 0.0, 0.0, 0.0, 0.0, 1.7103945055631988E9, 0.0, 2024-03-13 22:35:05.563
19.0, -687.2402759576216, -304.6802996401675, -431.13005704199895, -347.03653658833355, 0.8800000417977571, 0.3840000182390213, 0.4480000212788582, 0.0, 0.0, 0.0, 0.0, 0.0, 1.7103945055631988E9, 0.0, 2024-03-13 22:35:05.563
20.0, -682.8010147102177, -304.384847543668, -438.32188465679064, -348.4988374710083, 0.8800000417977571, 0.3840000182390213, 0.4480000212788582, 0.0, 0.0, 0.0, 0.0, 0.0, 1.7103945055767982E9, 0.0, 2024-03-13 22:35:05.576
20.0, -684.6298257885501, -316.6031006989069, -453.99580537108704, -357.354920566082, 0.8800000417977571, 0.3840000182390213, 0.4480000212788582, 0.0, 0.0, 0.0, 0.0, 0.0, 1.7103945055767982E9, 0.0, 2024-03-13 22:35:05.576
21.0, -688.0219150483608, -310.40608647232875, -438.43034175550565, -351.8236085316166, 0.8800000417977571, 0.3840000182390213, 0.4480000212788582, 0.0, 0.0, 0.0, 0.0, 0.0, 1.710394505592451E9, 0.0, 2024-03-13 22:35:05.592
21.0, -693.4298103842884, -317.3922195895575, -442.562931206543, -356.6518193744123, 0.8800000417977571, 0.3840000182390213, 0.4480000212788582, 0.0, 0.0, 0.0, 0.0, 0.0, 1.710394505592451E9, 0.0, 2024-03-13 22:35:05.592
22.0, -696.7284021452069, -320.6795916506089, -459.02597081148997, -365.74351616669446, 0.8800000417977571, 0.3840000182390213, 0.4480000212788582, 0.0, 0.0, 0.0, 0.0, 0.0, 1.7103945055931437E9, 0.0, 2024-03-13 22:35:05.593
22.0, -693.8262397795916, -318.652565874625, -446.3439700617455, -362.5159825049341, 0.8800000417977571, 0.3840000182390213, 0.4480000212788582, 0.0, 0.0, 0.0, 0.0, 0.0, 1.7103945055931437E9, 0.0, 2024-03-13 22:35:05.593
23.0, -693.5831462824717, -323.00206952309236, -434.39872960327193, -357.70647116191685, 0.8800000417977571, 0.3840000182390213, 0.4480000212788582, 0.0, 0.0, 0.0, 0.0, 0.0, 1.7103945056067624E9, 0.0, 2024-03-13 22:35:05.606
23.0, -700.1429308047518, -334.64437808515504, -455.58526285225525, -366.5475946571678, 0.8800000417977571, 0.3840000182390213, 0.4480000212788582, 0.0, 0.0, 0.0, 0.0, 0.0, 1.7103945056067624E9, 0.0, 2024-03-13 22:35:05.606
24.0, -693.0446006888524, -329.8423465420492, -455.8358361492865, -370.440830511041, 0.8800000417977571, 0.3840000182390213, 0.4480000212788582, 0.0, 0.0, 0.0, 0.0, 0.0, 1.7103945056388123E9, 0.0, 2024-03-13 22:35:05.638
24.0, -697.6259781345725, -332.08254661550745, -448.0531043414958, -367.8079409422353, 0.8800000417977571, 0.3840000182390213, 0.4480000212788582, 0.0, 0.0, 0.0, 0.0, 0.0, 1.7103945056388123E9, 0.0, 2024-03-13 22:35:05.638
25.0, -699.417390213348, -328.96347005246207, -454.10426246980205, -374.67439726088196, 0.8800000417977571, 0.3840000182390213, 0.4480000212788582, 0.0, 0.0, 0.0, 0.0, 0.0, 1.710394505639537E9, 0.0, 2024-03-13 22:35:05.639
25.0, -698.4263167250901, -327.9424773645587, -464.9798915409483, -376.7313422365114, 0.8800000417977571, 0.3840000182390213, 0.4480000212788582, 0.0, 0.0, 0.0, 0.0, 0.0, 1.710394505639537E9, 0.0, 2024-03-13 22:35:05.639
26.0, -696.6386445462704, -334.6967366845347, -450.73461260972545, -373.0587604800239, 0.8800000417977571, 0.3840000182390213, 0.4480000212788582, 0.0, 0.0, 0.0, 0.0, 0.0, 1.7103945056402695E9, 0.0, 2024-03-13 22:35:05.640
26.0, -700.2364283036441, -333.6607843968086, -454.6091489638202, -372.5015153866261, 0.8800000417977571, 0.3840000182390213, 0.4480000212788582, 0.0, 0.0, 0.0, 0.0, 0.0, 1.7103945056402695E9, 0.0, 2024-03-13 22:35:05.640
27.0, -697.655897334218, -322.63555932743475, -457.1635006335564, -362.7927351016551, 0.8800000417977571, 0.3840000182390213, 0.4480000212788582, 0.0, 0.0, 0.0, 0.0, 0.0, 1.7103945056410365E9, 0.0, 2024-03-13 22:35:05.641
27.0, -690.8642390146852, -325.48910299362615, -445.999899265822, -362.59452040400356, 0.8800000417977571, 0.3840000182390213, 0.4480000212788582, 0.0, 0.0, 0.0, 0.0, 0.0, 1.7103945056410365E9, 0.0, 2024-03-13 22:35:05.641
28.0, -694.218929274939, -321.19195794453844, -438.54627865413204, -356.6929582739249, 0.8800000417977571, 0.3840000182390213, 0.4480000212788582, 0.0, 0.0, 0.0, 0.0, 0.0, 1.7103945056517584E9, 0.0, 2024-03-13 22:35:05.651
28.0, -690.5463475184515, -317.2089644917287, -440.50972613086924, -355.4662710884586, 0.8800000417977571, 0.3840000182390213, 0.4480000212788582, 0.0, 0.0, 0.0, 0.0, 0.0, 1.7103945056517584E9, 0.0, 2024-03-13 22:35:05.651
29.0, -678.2009377647191, -313.07263514073566, -430.7149281469174, -340.4505727663636, 0.8800000417977571, 0.3840000182390213, 0.4480000212788582, 0.0, 0.0, 0.0, 0.0, 0.0, 1.710394505667112E9, 0.0, 2024-03-13 22:35:05.667
29.0, -688.5529808420688, -310.6753592691384, -429.0319731668569, -345.4321195073426, 0.8800000417977571, 0.3840000182390213, 0.4480000212788582, 0.0, 0.0, 0.0, 0.0, 0.0, 1.710394505667112E9, 0.0, 2024-03-13 22:35:05.667
30.0, -692.5584136946127, -314.093627828639, -440.042238636408, -349.47495135944337, 0.8800000417977571, 0.3840000182390213, 0.4480000212788582, 0.0, 0.0, 0.0, 0.0, 0.0, 1.710394505682678E9, 0.0, 2024-03-13 22:35:05.682
30.0, -687.453450255096, -305.9817848247476, -446.44120746059343, -351.07936844043434, 0.8800000417977571, 0.3840000182390213, 0.4480000212788582, 0.0, 0.0, 0.0, 0.0, 0.0, 1.710394505682678E9, 0.0, 2024-03-13 22:35:05.682
31.0, -674.1655857125297, -294.5937894596718, -432.95138832041994, -344.43730611912906, 0.8800000417977571, 0.3840000182390213, 0.4480000212788582, 0.0, 0.0, 0.0, 0.0, 0.0, 1.7103945056834087E9, 0.0, 2024-03-13 22:35:05.683
31.0, -678.1597988652065, -301.06755628297105, -432.9663479202427, -352.22377782687545, 0.8800000417977571, 0.3840000182390213, 0.4480000212788582, 0.0, 0.0, 0.0, 0.0, 0.0, 1.7103945056834087E9, 0.0, 2024-03-13 22:35:05.683
32.0, -676.5666014840826, -302.69815266365185, -456.191126645077, -357.15670586843044, 0.8800000417977571, 0.3840000182390213, 0.4480000212788582, 0.0, 0.0, 0.0, 0.0, 0.0, 1.7103945056971247E9, 0.0, 2024-03-13 22:35:05.697
32.0, -676.6488792831078, -308.7193915923126, -449.5677638235502, -361.11725992150605, 0.8800000417977571, 0.3840000182390213, 0.4480000212788582, 0.0, 0.0, 0.0, 0.0, 0.0, 1.7103945056971247E9, 0.0, 2024-03-13 22:35:05.697
33.0, -687.5581674538553, -314.7181911212392, -443.01919900113717, -361.99987631104887, 0.8800000417977571, 0.3840000182390213, 0.4480000212788582, 0.0, 0.0, 0.0, 0.0, 0.0, 1.710394505712452E9, 0.0, 2024-03-13 22:35:05.712
33.0, -685.041214783676, -313.9028929308988, -455.47680575354025, -362.9797300994396, 0.8800000417977571, 0.3840000182390213, 0.4480000212788582, 0.0, 0.0, 0.0, 0.0, 0.0, 1.710394505712452E9, 0.0, 2024-03-13 22:35:05.712
34.0, -683.3171209041029, -315.0921811168082, -450.1885872161947, -365.63879896793514, 0.8800000417977571, 0.3840000182390213, 0.4480000212788582, 0.0, 0.0, 0.0, 0.0, 0.0, 1.7103945057131622E9, 0.0, 2024-03-13 22:35:05.713
34.0, -688.7063167402521, -315.4212923129089, -442.66016860539094, -369.5395146217197, 0.8800000417977571, 0.3840000182390213, 0.4480000212788582, 0.0, 0.0, 0.0, 0.0, 0.0, 1.7103945057131622E9, 0.0, 2024-03-13 22:35:05.713
35.0, -693.1006991881877, -319.2771291672252, -452.4213074897416, -373.26819487754256, 0.8800000417977571, 0.3840000182390213, 0.4480000212788582, 0.0, 0.0, 0.0, 0.0, 0.0, 1.710394505726792E9, 0.0, 2024-03-13 22:35:05.726
35.0, -685.0262551838532, -315.7691030087881, -460.5069711939432, -372.8792452821508, 0.8800000417977571, 0.3840000182390213, 0.4480000212788582, 0.0, 0.0, 0.0, 0.0, 0.0, 1.710394505726792E9, 0.0, 2024-03-13 22:35:05.726
36.0, -681.1292794300243, -316.6517193983309, -442.3759362087585, -363.15550539735705, 0.8800000417977571, 0.3840000182390213, 0.4480000212788582, 0.0, 0.0, 0.0, 0.0, 0.0, 1.7103945057424831E9, 0.0, 2024-03-13 22:35:05.742
36.0, -687.0944198593497, -320.03632885823026, -444.1598684876226, -362.66931840311736, 0.8800000417977571, 0.3840000182390213, 0.4480000212788582, 0.0, 0.0, 0.0, 0.0, 0.0, 1.7103945057424831E9, 0.0, 2024-03-13 22:35:05.742
37.0, -682.9954895079136, -315.33153471397236, -456.74089193856344, -362.4598840055987, 0.8800000417977571, 0.3840000182390213, 0.4480000212788582, 0.0, 0.0, 0.0, 0.0, 0.0, 1.710394505743148E9, 0.0, 2024-03-13 22:35:05.743
37.0, -680.8375672334805, -308.04246970033273, -443.310911197681, -356.9846704704687, 0.8800000417977571, 0.3840000182390213, 0.4480000212788582, 0.0, 0.0, 0.0, 0.0, 0.0, 1.710394505743148E9, 0.0, 2024-03-13 22:35:05.743
38.0, -690.0900797238573, -321.3153746430762, -435.28882579272613, -360.93400482367724, 0.8800000417977571, 0.3840000182390213, 0.4480000212788582, 0.0, 0.0, 0.0, 0.0, 0.0, 1.7103945057567384E9, 0.0, 2024-03-13 22:35:05.756
38.0, -696.8106799442321, -323.3872792185284, -456.40430094255134, -365.66871816758066, 0.8800000417977571, 0.3840000182390213, 0.4480000212788582, 0.0, 0.0, 0.0, 0.0, 0.0, 1.7103945057567384E9, 0.0, 2024-03-13 22:35:05.756
39.0, -692.4985752953216, -317.9569444828667, -447.2378061511554, -362.99842959921807, 0.8800000417977571, 0.3840000182390213, 0.4480000212788582, 0.0, 0.0, 0.0, 0.0, 0.0, 1.7103945057724571E9, 0.0, 2024-03-13 22:35:05.772
39.0, -694.7574748685583, -323.55931461649016, -439.98614013707265, -360.63855272717774, 0.8800000417977571, 0.3840000182390213, 0.4480000212788582, 0.0, 0.0, 0.0, 0.0, 0.0, 1.7103945057724571E9, 0.0, 2024-03-13 22:35:05.772
40.0, -698.9274633191526, -326.48391638183966, -453.8948280722834, -368.6868174318224, 0.8800000417977571, 0.3840000182390213, 0.4480000212788582, 0.0, 0.0, 0.0, 0.0, 0.0, 1.710394505773198E9, 0.0, 2024-03-13 22:35:05.773
40.0, -703.2507876679301, -339.1472176318057, -464.6881793444045, -376.34239264111966, 0.8800000417977571, 0.3840000182390213, 0.4480000212788582, 0.0, 0.0, 0.0, 0.0, 0.0, 1.710394505773198E9, 0.0, 2024-03-13 22:35:05.773
41.0, -698.501114724204, -321.8464404367842, -447.46594004845247, -368.9860094282776, 0.8800000417977571, 0.3840000182390213, 0.4480000212788582, 0.0, 0.0, 0.0, 0.0, 0.0, 1.7103945057868292E9, 0.0, 2024-03-13 22:35:05.786
41.0, -697.4801220363006, -328.08085366291925, -454.0219846707769, -371.0728736035526, 0.8800000417977571, 0.3840000182390213, 0.4480000212788582, 0.0, 0.0, 0.0, 0.0, 0.0, 1.7103945057868292E9, 0.0, 2024-03-13 22:35:05.786
42.0, -702.9216764718294, -336.8845781586133, -469.3967133886181, -381.52963387966156, 0.8640000410377979, 0.3840000182390213, 0.4480000212788582, 0.0, 0.0, 0.0, 0.0, 0.0, 1.7103945058028824E9, 0.0, 2024-03-13 22:35:05.802
42.0, -702.5364667763934, -334.2890875893645, -453.54327747644857, -373.26819487754256, 0.8640000410377979, 0.3840000182390213, 0.4480000212788582, 0.0, 0.0, 0.0, 0.0, 0.0, 1.7103945058028824E9, 0.0, 2024-03-13 22:35:05.802
43.0, -706.2127884328365, -327.071080674883, -449.05913742957637, -376.05442034453154, 0.8640000410377979, 0.3840000182390213, 0.4480000212788582, 0.0, 0.0, 0.0, 0.0, 0.0, 1.7103945058032598E9, 0.0, 2024-03-13 22:35:05.803
43.0, -699.5782059114426, -329.38233884749934, -458.47994541795924, -374.3303264649585, 0.8640000410377979, 0.3840000182390213, 0.4480000212788582, 0.0, 0.0, 0.0, 0.0, 0.0, 1.7103945058032598E9, 0.0, 2024-03-13 22:35:05.803
44.0, -693.6504644816741, -319.73713686177507, -455.2673713560216, -374.5509805623442, 0.8640000410377979, 0.3840000182390213, 0.4480000212788582, 0.0, 0.0, 0.0, 0.0, 0.0, 1.71039450581723E9, 0.0, 2024-03-13 22:35:05.817
44.0, -690.2321959221736, -323.3124812194146, -442.2300801104866, -365.42188477050513, 0.8640000410377979, 0.3840000182390213, 0.4480000212788582, 0.0, 0.0, 0.0, 0.0, 0.0, 1.71039450581723E9, 0.0, 2024-03-13 22:35:05.817
45.0, -697.0238542417064, -318.59272747533396, -444.9415075783618, -367.1796377496794, 0.8640000410377979, 0.3840000182390213, 0.4480000212788582, 0.0, 0.0, 0.0, 0.0, 0.0, 1.7103945058328192E9, 0.0, 2024-03-13 22:35:05.832
45.0, -686.8550662621856, -305.8209691266529, -445.02752527734265, -355.74676358513534, 0.8640000410377979, 0.3840000182390213, 0.4480000212788582, 0.0, 0.0, 0.0, 0.0, 0.0, 1.7103945058328192E9, 0.0, 2024-03-13 22:35:05.832
46.0, -684.0351816955954, -316.07203490519896, -434.0097800078802, -357.60175396315753, 0.8640000410377979, 0.3840000182390213, 0.4480000212788582, 0.0, 0.0, 0.0, 0.0, 0.0, 1.7103945058332963E9, 0.0, 2024-03-13 22:35:05.833
46.0, -686.9597834609449, -311.15406646346673, -428.84123826911673, -354.2096647033468, 0.8640000410377979, 0.3840000182390213, 0.4480000212788582, 0.0, 0.0, 0.0, 0.0, 0.0, 1.7103945058332963E9, 0.0, 2024-03-13 22:35:05.833
47.0, -689.4655164312571, -308.7941895914264, -449.6014229231514, -360.52635572850704, 0.8640000410377979, 0.3840000182390213, 0.4480000212788582, 0.0, 0.0, 0.0, 0.0, 0.0, 1.7103945058468091E9, 0.0, 2024-03-13 22:35:05.846
47.0, -681.0208223313093, -307.3580680084415, -438.8940893500112, -357.3175215665251, 0.8640000410377979, 0.3840000182390213, 0.4480000212788582, 0.0, 0.0, 0.0, 0.0, 0.0, 1.7103945058468091E9, 0.0, 2024-03-13 22:35:05.846
48.0, -677.0976672777906, -305.62275442900136, -422.9957746383734, -344.11193482298404, 0.8640000410377979, 0.3840000182390213, 0.4480000212788582, 0.0, 0.0, 0.0, 0.0, 0.0, 1.7103945058624413E9, 0.0, 2024-03-13 22:35:05.862
48.0, -686.3838388677686, -313.3568675373681, -444.17108818748966, -354.22462430316955, 0.8640000410377979, 0.3840000182390213, 0.4480000212788582, 0.0, 0.0, 0.0, 0.0, 0.0, 1.7103945058624413E9, 0.0, 2024-03-13 22:35:05.862
49.0, -682.845893509686, -312.3134354497306, -442.92196160228923, -355.6196069866419, 0.8640000410377979, 0.3840000182390213, 0.4480000212788582, 0.0, 0.0, 0.0, 0.0, 0.0, 1.7103945058632083E9, 0.0, 2024-03-13 22:35:05.863
49.0, -687.2664552573115, -305.61901452904567, -428.1942355767824, -352.9380987184122, 0.8640000410377979, 0.3840000182390213, 0.4480000212788582, 0.0, 0.0, 0.0, 0.0, 0.0, 1.7103945058632083E9, 0.0, 2024-03-13 22:35:05.863
50.0, -695.5465937592089, -316.6218001986854, -445.0050858776085, -359.86065353639424, 0.8640000410377979, 0.3840000182390213, 0.4480000212788582, 0.0, 0.0, 0.0, 0.0, 0.0, 1.7103945058767812E9, 0.0, 2024-03-13 22:35:05.876
50.0, -689.0653471359983, -315.74292370909825, -454.1940200687386, -358.11786015704274, 0.8640000410377979, 0.3840000182390213, 0.4480000212788582, 0.0, 0.0, 0.0, 0.0, 0.0, 1.7103945058767812E9, 0.0, 2024-03-13 22:35:05.876
51.0, -691.4850624073297, -317.5006766882725, -436.39957607956603, -351.55059583485126, 0.8640000410377979, 0.3840000182390213, 0.4480000212788582, 0.0, 0.0, 0.0, 0.0, 0.0, 1.7103945059088318E9, 0.0, 2024-03-13 22:35:05.908
51.0, -697.5175210358575, -316.2141511035152, -437.9404148613103, -354.0563288051635, 0.8640000410377979, 0.3840000182390213, 0.4480000212788582, 0.0, 0.0, 0.0, 0.0, 0.0, 1.7103945059088318E9, 0.0, 2024-03-13 22:35:05.908
52.0, -689.5814533298835, -319.56510146381333, -451.91268109576777, -360.14488593302667, 0.8640000410377979, 0.3840000182390213, 0.4480000212788582, 0.0, 0.0, 0.0, 0.0, 0.0, 1.7103945059096844E9, 0.0, 2024-03-13 22:35:05.909
52.0, -691.4701028075069, -315.5073100118898, -442.3759362087585, -359.8793530361727, 0.8640000410377979, 0.3840000182390213, 0.4480000212788582, 0.0, 0.0, 0.0, 0.0, 0.0, 1.7103945059096844E9, 0.0, 2024-03-13 22:35:05.909
53.0, -693.579406382516, -315.70178480958566, -435.8124117865227, -360.22716373205185, 0.8640000410377979, 0.3840000182390213, 0.4480000212788582, 0.0, 0.0, 0.0, 0.0, 0.0, 1.7103945059104283E9, 0.0, 2024-03-13 22:35:05.910
53.0, -700.8273324966431, -321.48741004103795, -459.7552513028495, -371.40946459956467, 0.8640000410377979, 0.3840000182390213, 0.4480000212788582, 0.0, 0.0, 0.0, 0.0, 0.0, 1.7103945059104283E9, 0.0, 2024-03-13 22:35:05.910
54.0, -691.1634310111403, -318.63012647489086, -451.25819860352203, -364.29991478379816, 0.8640000410377979, 0.3840000182390213, 0.4480000212788582, 0.0, 0.0, 0.0, 0.0, 0.0, 1.7103945059113147E9, 0.0, 2024-03-13 22:35:05.911
54.0, -696.6984829455614, -319.82315456075594, -438.2657861574553, -362.6468790033832, 0.8640000410377979, 0.3840000182390213, 0.4480000212788582, 0.0, 0.0, 0.0, 0.0, 0.0, 1.7103945059113147E9, 0.0, 2024-03-13 22:35:05.911
55.0, -702.2410146798939, -333.82907989481464, -448.460753436666, -367.3666327474639, 0.8640000410377979, 0.3840000182390213, 0.4480000212788582, 0.0, 0.0, 0.0, 0.0, 0.0, 1.7103945059220245E9, 0.0, 2024-03-13 22:35:05.922
55.0, -693.2203759867698, -319.1387528688647, -451.37039560219273, -362.5459017045796, 0.8640000410377979, 0.3840000182390213, 0.4480000212788582, 0.0, 0.0, 0.0, 0.0, 0.0, 1.7103945059220245E9, 0.0, 2024-03-13 22:35:05.922
56.0, -684.5961666889489, -311.44951855996624, -427.9586218795739, -353.63372011017054, 0.8640000410377979, 0.3840000182390213, 0.4480000212788582, 0.0, 0.0, 0.0, 0.0, 0.0, 1.7103945059368203E9, 0.0, 2024-03-13 22:35:05.936
56.0, -685.1197526827455, -313.55134233506396, -437.51032636640593, -355.8701802836731, 0.8640000410377979, 0.3840000182390213, 0.4480000212788582, 0.0, 0.0, 0.0, 0.0, 0.0, 1.7103945059368203E9, 0.0, 2024-03-13 22:35:05.936
57.0, -679.1359127536416, -308.5772753939964, -445.91762146679685, -357.9794838586822, 0.8640000410377979, 0.3840000182390213, 0.4480000212788582, 0.0, 0.0, 0.0, 0.0, 0.0, 1.7103945059525528E9, 0.0, 2024-03-13 22:35:05.952
57.0, -680.7253702348098, -303.54710995359346, -433.28797931643203, -350.33886824920774, 0.8640000410377979, 0.3840000182390213, 0.4480000212788582, 0.0, 0.0, 0.0, 0.0, 0.0, 1.7103945059525528E9, 0.0, 2024-03-13 22:35:05.952
58.0, -684.8018611865118, -305.0131507362239, -426.14851030102, -351.1354669397697, 0.8640000410377979, 0.3840000182390213, 0.4480000212788582, 0.0, 0.0, 0.0, 0.0, 0.0, 1.710394505953195E9, 0.0, 2024-03-13 22:35:05.953
58.0, -686.7615687632933, -301.7220387752168, -444.42914128443226, -352.07792172860354, 0.8640000410377979, 0.3840000182390213, 0.4480000212788582, 0.0, 0.0, 0.0, 0.0, 0.0, 1.710394505953195E9, 0.0, 2024-03-13 22:35:05.953
59.0, -676.5778211839497, -305.39836043165997, -439.5971905416809, -347.70597868040204, 0.8640000410377979, 0.3840000182390213, 0.4480000212788582, 0.0, 0.0, 0.0, 0.0, 0.0, 1.7103945059670613E9, 0.0, 2024-03-13 22:35:05.967
59.0, -684.5812070891261, -312.7659633443691, -433.60587081266567, -354.0488490052521, 0.8640000410377979, 0.3840000182390213, 0.4480000212788582, 0.0, 0.0, 0.0, 0.0, 0.0, 1.7103945059670613E9, 0.0, 2024-03-13 22:35:05.967
60.0, -690.6323652174324, -316.22537080338225, -446.91991465492174, -362.74411640223116, 0.8640000410377979, 0.3840000182390213, 0.4480000212788582, 0.0, 0.0, 0.0, 0.0, 0.0, 1.7103945059824457E9, 0.0, 2024-03-13 22:35:05.982
60.0, -685.1945506818593, -314.6508729220368, -449.1900339280255, -359.4717039410025, 0.8640000410377979, 0.3840000182390213, 0.4480000212788582, 0.0, 0.0, 0.0, 0.0, 0.0, 1.7103945059824457E9, 0.0, 2024-03-13 22:35:05.982
61.0, -688.6015995414928, -315.9411384067498, -441.50453951908275, -358.0505419578403, 0.8640000410377979, 0.3840000182390213, 0.4480000212788582, 0.0, 0.0, 0.0, 0.0, 0.0, 1.710394505983299E9, 0.0, 2024-03-13 22:35:05.983
61.0, -697.8279327321798, -324.33347390731797, -438.4565210551955, -360.19724453240633, 0.8640000410377979, 0.3840000182390213, 0.4480000212788582, 0.0, 0.0, 0.0, 0.0, 0.0, 1.710394505983299E9, 0.0, 2024-03-13 22:35:05.983
62.0, -697.8391524320468, -324.45315070590004, -457.51505122939125, -360.3543203305453, 0.8800000417977571, 0.3840000182390213, 0.4480000212788582, 0.0, 0.0, 0.0, 0.0, 0.0, 1.7103945059968455E9, 0.0, 2024-03-13 22:35:05.996
62.0, -686.7316495636478, -311.6477332576178, -439.68694814061746, -350.3874869486317, 0.8800000417977571, 0.3840000182390213, 0.4480000212788582, 0.0, 0.0, 0.0, 0.0, 0.0, 1.7103945059968455E9, 0.0, 2024-03-13 22:35:05.996
63.0, -687.947117049247, -304.44842584291473, -435.05321209551767, -353.7234777091071, 0.8800000417977571, 0.3840000182390213, 0.4480000212788582, 0.0, 0.0, 0.0, 0.0, 0.0, 1.7103945060124905E9, 0.0, 2024-03-13 22:35:06.012
63.0, -691.7692948039621, -310.7277178685181, -449.7921578208916, -361.33417411893606, 0.8800000417977571, 0.3840000182390213, 0.4480000212788582, 0.0, 0.0, 0.0, 0.0, 0.0, 1.7103945060124905E9, 0.0, 2024-03-13 22:35:06.012
64.0, -678.2532963640988, -313.2446705386974, -450.13622861681506, -353.03907601721585, 0.8800000417977571, 0.3840000182390213, 0.4480000212788582, 0.0, 0.0, 0.0, 0.0, 0.0, 1.7103945060132403E9, 0.0, 2024-03-13 22:35:06.013
64.0, -686.9186445614323, -312.30221574986354, -430.75606704642996, -347.66483978088945, 0.8800000417977571, 0.3840000182390213, 0.4480000212788582, 0.0, 0.0, 0.0, 0.0, 0.0, 1.7103945060132403E9, 0.0, 2024-03-13 22:35:06.013
65.0, -690.2247161222622, -306.92797951353714, -440.1544356350787, -352.7623234204948, 0.8800000417977571, 0.3840000182390213, 0.4480000212788582, 0.0, 0.0, 0.0, 0.0, 0.0, 1.710394506026801E9, 0.0, 2024-03-13 22:35:06.026
65.0, -688.3435464445502, -307.5001842067577, -452.4961054888554, -356.0683949813247, 0.8800000417977571, 0.3840000182390213, 0.4480000212788582, 0.0, 0.0, 0.0, 0.0, 0.0, 1.710394506026801E9, 0.0, 2024-03-13 22:35:06.026
66.0, -685.6358588766307, -307.51514380658045, -436.339737680275, -354.18348540365696, 0.8800000417977571, 0.3840000182390213, 0.4480000212788582, 0.0, 0.0, 0.0, 0.0, 0.0, 1.7103945060425053E9, 0.0, 2024-03-13 22:35:06.042
66.0, -689.5851932298392, -308.00507070077583, -442.76862570410594, -360.3917193301022, 0.8800000417977571, 0.3840000182390213, 0.4480000212788582, 0.0, 0.0, 0.0, 0.0, 0.0, 1.7103945060425053E9, 0.0, 2024-03-13 22:35:06.042
67.0, -690.9801759133115, -312.3059556498192, -456.4977984414436, -363.2901417957619, 0.8800000417977571, 0.3840000182390213, 0.4480000212788582, 0.0, 0.0, 0.0, 0.0, 0.0, 1.7103945060431938E9, 0.0, 2024-03-13 22:35:06.043
67.0, -684.0576210953295, -314.92014571884647, -437.4056091676466, -354.89032649528235, 0.8800000417977571, 0.3840000182390213, 0.4480000212788582, 0.0, 0.0, 0.0, 0.0, 0.0, 1.7103945060431938E9, 0.0, 2024-03-13 22:35:06.043
68.0, -696.3020535502583, -314.8378679198213, -433.5983910127543, -355.58968778699636, 0.8800000417977571, 0.3840000182390213, 0.4480000212788582, 0.0, 0.0, 0.0, 0.0, 0.0, 1.7103945060569243E9, 0.0, 2024-03-13 22:35:06.056
68.0, -692.3153201974928, -315.88877980737016, -447.58187694707885, -360.56375472806394, 0.8800000417977571, 0.3840000182390213, 0.4480000212788582, 0.0, 0.0, 0.0, 0.0, 0.0, 1.7103945060569243E9, 0.0, 2024-03-13 22:35:06.056
69.0, -692.7267091926187, -319.01159627037123, -447.3051243503578, -363.11062659788877, 0.8800000417977571, 0.3840000182390213, 0.4480000212788582, 0.0, 0.0, 0.0, 0.0, 0.0, 1.710394506072656E9, 0.0, 2024-03-13 22:35:06.072
69.0, -695.0454471651465, -307.4553054072894, -433.2917192163877, -356.2067712796852, 0.8800000417977571, 0.3840000182390213, 0.4480000212788582, 0.0, 0.0, 0.0, 0.0, 0.0, 1.710394506072656E9, 0.0, 2024-03-13 22:35:06.072
70.0, -699.9484560070559, -322.93849122384563, -454.65402776328847, -364.56170778069645, 0.8800000417977571, 0.3840000182390213, 0.4480000212788582, 0.0, 0.0, 0.0, 0.0, 0.0, 1.7103945060734754E9, 0.0, 2024-03-13 22:35:06.073
70.0, -704.2643005559221, -326.540014881175, -459.2765441085212, -362.8376139011234, 0.8800000417977571, 0.3840000182390213, 0.4480000212788582, 0.0, 0.0, 0.0, 0.0, 0.0, 1.7103945060734754E9, 0.0, 2024-03-13 22:35:06.073
71.0, -707.630210516043, -323.9557440117933, -445.32671727379784, -361.70442421454936, 0.8800000417977571, 0.3840000182390213, 0.4480000212788582, 0.0, 0.0, 0.0, 0.0, 0.0, 1.7103945060867918E9, 0.0, 2024-03-13 22:35:06.086
71.0, -709.9003297891468, -323.3910191184841, -453.4909188770689, -369.09072662703693, 0.8800000417977571, 0.3840000182390213, 0.4480000212788582, 0.0, 0.0, 0.0, 0.0, 0.0, 1.7103945060867918E9, 0.0, 2024-03-13 22:35:06.086
72.0, -704.1072247577831, -325.04405489889905, -462.59757526917383, -368.2043703375384, 0.8640000410377979, 0.3840000182390213, 0.4480000212788582, 0.0, 0.0, 0.0, 0.0, 0.0, 1.7103945061029985E9, 0.0, 2024-03-13 22:35:06.102
72.0, -697.6259781345725, -329.06070745131, -445.40151527291164, -361.79044191353023, 0.8640000410377979, 0.3840000182390213, 0.4480000212788582, 0.0, 0.0, 0.0, 0.0, 0.0, 1.7103945061029985E9, 0.0, 2024-03-13 22:35:06.102
73.0, -703.0937118697912, -322.463523929473, -443.16879499936476, -365.1750513734296, 0.8640000410377979, 0.3840000182390213, 0.4480000212788582, 0.0, 0.0, 0.0, 0.0, 0.0, 1.7103945061033697E9, 0.0, 2024-03-13 22:35:06.103
73.0, -711.2092947736382, -328.6904573556967, -458.0161978234537, -370.63904520869255, 0.8640000410377979, 0.3840000182390213, 0.4480000212788582, 0.0, 0.0, 0.0, 0.0, 0.0, 1.7103945061033697E9, 0.0, 2024-03-13 22:35:06.103
74.0, -701.4294563895091, -330.5117886341177, -456.4529196419753, -370.018221816048, 0.8640000410377979, 0.3840000182390213, 0.4480000212788582, 0.0, 0.0, 0.0, 0.0, 0.0, 1.7103945061172128E9, 0.0, 2024-03-13 22:35:06.117
74.0, -710.3902566833422, -327.53108836943284, -444.02897198917344, -372.01158849243075, 0.8640000410377979, 0.3840000182390213, 0.4480000212788582, 0.0, 0.0, 0.0, 0.0, 0.0, 1.7103945061172128E9, 0.0, 2024-03-13 22:35:06.117
75.0, -713.5616918457672, -326.8504265774973, -463.427833059337, -376.09181934408844, 0.8640000410377979, 0.3840000182390213, 0.4480000212788582, 0.0, 0.0, 0.0, 0.0, 0.0, 1.710394506132877E9, 0.0, 2024-03-13 22:35:06.132
75.0, -710.2257010852918, -338.3917578407563, -471.2105648671277, -377.83461272343993, 0.8640000410377979, 0.3840000182390213, 0.4480000212788582, 0.0, 0.0, 0.0, 0.0, 0.0, 1.710394506132877E9, 0.0, 2024-03-13 22:35:06.132
76.0, -706.8336118254811, -331.7609152193181, -448.0418846416287, -372.72216948401183, 0.8640000410377979, 0.3840000182390213, 0.4480000212788582, 0.0, 0.0, 0.0, 0.0, 0.0, 1.7103945061332948E9, 0.0, 2024-03-13 22:35:06.133
76.0, -706.6316572278738, -332.5425543100573, -446.57584385899827, -374.27048806566745, 0.8640000410377979, 0.3840000182390213, 0.4480000212788582, 0.0, 0.0, 0.0, 0.0, 0.0, 1.7103945061332948E9, 0.0, 2024-03-13 22:35:06.133
77.0, -711.0297795757651, -337.1388913556002, -471.44617856433615, -382.3224926702678, 0.8640000410377979, 0.3840000182390213, 0.4480000212788582, 0.0, 0.0, 0.0, 0.0, 0.0, 1.710394506147158E9, 0.0, 2024-03-13 22:35:06.147
77.0, -707.2225614208728, -335.3960979762487, -455.35712895495817, -378.7770675122738, 0.8640000410377979, 0.3840000182390213, 0.4480000212788582, 0.0, 0.0, 0.0, 0.0, 0.0, 1.710394506147158E9, 0.0, 2024-03-13 22:35:06.147
78.0, -707.787286314182, -334.93235038174316, -439.8963825381361, -375.108225655742, 0.8640000410377979, 0.3840000182390213, 0.4480000212788582, 0.0, 0.0, 0.0, 0.0, 0.0, 1.7103945061624608E9, 0.0, 2024-03-13 22:35:06.162
78.0, -706.7363744266331, -326.52505528135225, -456.28836404392496, -373.35047267656773, 0.8640000410377979, 0.3840000182390213, 0.4480000212788582, 0.0, 0.0, 0.0, 0.0, 0.0, 1.7103945061624608E9, 0.0, 2024-03-13 22:35:06.162
79.0, -701.7623074855655, -328.63809875631705, -453.5357976765372, -368.96730992849916, 0.8640000410377979, 0.3840000182390213, 0.4480000212788582, 0.0, 0.0, 0.0, 0.0, 0.0, 1.7103945061632526E9, 0.0, 2024-03-13 22:35:06.163
79.0, -705.4797680415213, -325.7247166908346, -443.36700969701633, -369.89854501746595, 0.8640000410377979, 0.3840000182390213, 0.4480000212788582, 0.0, 0.0, 0.0, 0.0, 0.0, 1.7103945061632526E9, 0.0, 2024-03-13 22:35:06.163
80.0, -710.5548122813925, -335.78504757164046, -457.14106123382226, -374.5808997619897, 0.8640000410377979, 0.3840000182390213, 0.4480000212788582, 0.0, 0.0, 0.0, 0.0, 0.0, 1.7103945061768136E9, 0.0, 2024-03-13 22:35:06.176
80.0, -707.245000820607, -336.996775157284, -471.29658256610855, -386.24190782383084, 0.8640000410377979, 0.3840000182390213, 0.4480000212788582, 0.0, 0.0, 0.0, 0.0, 0.0, 1.7103945061768136E9, 0.0, 2024-03-13 22:35:06.176
81.0, -707.2973594199866, -337.5540202506818, -458.50986461760476, -380.0598531970754, 0.8640000410377979, 0.3840000182390213, 0.4480000212788582, 0.0, 0.0, 0.0, 0.0, 0.0, 1.7103945061924767E9, 0.0, 2024-03-13 22:35:06.192
81.0, -704.7056087506935, -328.70915685547516, -451.83788309665397, -374.4013845641166, 0.8640000410377979, 0.3840000182390213, 0.4480000212788582, 0.0, 0.0, 0.0, 0.0, 0.0, 1.7103945061924767E9, 0.0, 2024-03-13 22:35:06.192
82.0, -711.6842620680109, -333.78420109534636, -467.2687103138305, -380.48994169197977, 0.8640000410377979, 0.3840000182390213, 0.4480000212788582, 0.0, 0.0, 0.0, 0.0, 0.0, 1.7103945061932096E9, 0.0, 2024-03-13 22:35:06.193
82.0, -698.4898950243369, -319.2098109680228, -447.5182986478321, -368.0547743393108, 0.8640000410377979, 0.3840000182390213, 0.4480000212788582, 0.0, 0.0, 0.0, 0.0, 0.0, 1.7103945061932096E9, 0.0, 2024-03-13 22:35:06.193
83.0, -704.7617072500288, -317.67645198618993, -438.58367765368894, -362.51972240488976, 0.8640000410377979, 0.3840000182390213, 0.4480000212788582, 0.0, 0.0, 0.0, 0.0, 0.0, 1.7103945062070289E9, 0.0, 2024-03-13 22:35:06.207
83.0, -704.9636618476361, -325.1674715974368, -456.69975303905085, -367.4750898461789, 0.8640000410377979, 0.3840000182390213, 0.4480000212788582, 0.0, 0.0, 0.0, 0.0, 0.0, 1.7103945062070289E9, 0.0, 2024-03-13 22:35:06.207
84.0, -698.609571822919, -325.6274792919867, -450.95900660706684, -367.6209459444508, 0.8640000410377979, 0.3840000182390213, 0.4480000212788582, 0.0, 0.0, 0.0, 0.0, 0.0, 1.710394506222475E9, 0.0, 2024-03-13 22:35:06.222
84.0, -703.4864013651386, -332.4303573113866, -437.7048011641018, -366.5401148572564, 0.8640000410377979, 0.3840000182390213, 0.4480000212788582, 0.0, 0.0, 0.0, 0.0, 0.0, 1.710394506222475E9, 0.0, 2024-03-13 22:35:06.222
85.0, -695.026747665368, -322.59816032787785, -448.1241624406539, -364.63276587985456, 0.8640000410377979, 0.3840000182390213, 0.4480000212788582, 0.0, 0.0, 0.0, 0.0, 0.0, 1.710394506223199E9, 0.0, 2024-03-13 22:35:06.223
85.0, -680.4411378381774, -311.26252356218174, -448.5991297350265, -360.9153053238988, 0.8640000410377979, 0.3840000182390213, 0.4480000212788582, 0.0, 0.0, 0.0, 0.0, 0.0, 1.710394506223199E9, 0.0, 2024-03-13 22:35:06.223
86.0, -704.7168284505606, -331.7347359196283, -455.06915665837005, -378.79576701205224, 0.8640000410377979, 0.3840000182390213, 0.4480000212788582, 0.0, 0.0, 0.0, 0.0, 0.0, 1.7103945062369857E9, 0.0, 2024-03-13 22:35:06.236
86.0, -710.9213224770501, -338.178583543282, -453.7153128744103, -381.006047885865, 0.8640000410377979, 0.3840000182390213, 0.4480000212788582, 0.0, 0.0, 0.0, 0.0, 0.0, 1.7103945062369857E9, 0.0, 2024-03-13 22:35:06.236
87.0, -717.5820842981339, -353.05964546697214, -470.0212766812183, -382.7002225657925, 0.8640000410377979, 0.3840000182390213, 0.4480000212788582, 0.0, 0.0, 0.0, 0.0, 0.0, 1.710394506252482E9, 0.0, 2024-03-13 22:35:06.252
87.0, -720.2561127664521, -350.1051245019771, -453.4273405778222, -380.2992067942396, 0.8640000410377979, 0.3840000182390213, 0.4480000212788582, 0.0, 0.0, 0.0, 0.0, 0.0, 1.710394506252482E9, 0.0, 2024-03-13 22:35:06.252
88.0, -723.0610377332196, -346.5896185436286, -446.44120746059343, -374.999768557027, 0.8640000410377979, 0.3840000182390213, 0.4480000212788582, 0.0, 0.0, 0.0, 0.0, 0.0, 1.7103945062531965E9, 0.0, 2024-03-13 22:35:06.253
88.0, -723.5397449275479, -354.61544384853914, -468.88808699464425, -389.1552898893133, 0.8640000410377979, 0.3840000182390213, 0.4480000212788582, 0.0, 0.0, 0.0, 0.0, 0.0, 1.7103945062531965E9, 0.0, 2024-03-13 22:35:06.253
89.0, -721.0377518571913, -349.1477101133205, -466.973258217331, -384.7758670412004, 0.8640000410377979, 0.3840000182390213, 0.4480000212788582, 0.0, 0.0, 0.0, 0.0, 0.0, 1.7103945062672565E9, 0.0, 2024-03-13 22:35:06.267
89.0, -725.4470939049497, -348.4408690216951, -453.87612857250497, -383.57909905537963, 0.8640000410377979, 0.3840000182390213, 0.4480000212788582, 0.0, 0.0, 0.0, 0.0, 0.0, 1.7103945062672565E9, 0.0, 2024-03-13 22:35:06.267
90.0, -729.1682943608612, -357.2520733173005, -468.9928041934036, -392.91014944482595, 0.8640000410377979, 0.3840000182390213, 0.4480000212788582, 0.0, 0.0, 0.0, 0.0, 0.0, 1.7103945062979093E9, 0.0, 2024-03-13 22:35:06.297
90.0, -724.1605683201924, -356.6387297245674, -471.66683266172186, -386.0287335263565, 0.8640000410377979, 0.3840000182390213, 0.4480000212788582, 0.0, 0.0, 0.0, 0.0, 0.0, 1.7103945062979093E9, 0.0, 2024-03-13 22:35:06.297
91.0, -727.0141119863838, -348.7849398176186, -457.06252333475277, -383.6314576547593, 0.8640000410377979, 0.3840000182390213, 0.4480000212788582, 0.0, 0.0, 0.0, 0.0, 0.0, 1.710394506298736E9, 0.0, 2024-03-13 22:35:06.298
91.0, -730.8774286406115, -341.38367780530825, -458.9698723121546, -383.27242725901306, 0.8640000410377979, 0.3840000182390213, 0.4480000212788582, 0.0, 0.0, 0.0, 0.0, 0.0, 1.710394506298736E9, 0.0, 2024-03-13 22:35:06.298
92.0, -729.3478095587343, -349.0803919141181, -470.7168980729766, -384.98156153876334, 0.8640000410377979, 0.3840000182390213, 0.4480000212788582, 0.0, 0.0, 0.0, 0.0, 0.0, 1.7103945063133817E9, 0.0, 2024-03-13 22:35:06.313
92.0, -723.9062551232055, -344.667309966404, -466.22153832623735, -381.9185834750533, 0.8640000410377979, 0.3840000182390213, 0.4480000212788582, 0.0, 0.0, 0.0, 0.0, 0.0, 1.7103945063133817E9, 0.0, 2024-03-13 22:35:06.313
93.0, -733.2784444121644, -347.72654813015833, -461.980491776485, -386.107271425426, 0.8640000410377979, 0.3840000182390213, 0.4480000212788582, 0.0, 0.0, 0.0, 0.0, 0.0, 1.7103945063140693E9, 0.0, 2024-03-13 22:35:06.314
93.0, -729.1308953613043, -344.53267356799915, -468.36450100084767, -387.5097339088097, 0.8640000410377979, 0.3840000182390213, 0.4480000212788582, 0.0, 0.0, 0.0, 0.0, 0.0, 1.7103945063140693E9, 0.0, 2024-03-13 22:35:06.314
94.0, -722.5037926398218, -336.8808382586576, -456.17990694520995, -373.3242933768779, 0.8640000410377979, 0.3840000182390213, 0.4480000212788582, 0.0, 0.0, 0.0, 0.0, 0.0, 1.7103945063147664E9, 0.0, 2024-03-13 22:35:06.314
94.0, -723.285431730561, -341.9222233989276, -446.7104802574031, -374.26674816571176, 0.8640000410377979, 0.3840000182390213, 0.4480000212788582, 0.0, 0.0, 0.0, 0.0, 0.0, 1.7103945063147664E9, 0.0, 2024-03-13 22:35:06.314
95.0, -733.6524344077334, -352.50240037357435, -458.43880651844665, -382.5244472678751, 0.8640000410377979, 0.3840000182390213, 0.4480000212788582, 0.0, 0.0, 0.0, 0.0, 0.0, 1.7103945063267992E9, 0.0, 2024-03-13 22:35:06.326
95.0, -725.4882328044623, -348.49322762107477, -464.80785614298657, -381.0696261851117, 0.8640000410377979, 0.3840000182390213, 0.4480000212788582, 0.0, 0.0, 0.0, 0.0, 0.0, 1.7103945063267992E9, 0.0, 2024-03-13 22:35:06.326
96.0, -734.0152047034353, -352.91004946874455, -459.2054860093631, -389.13285048957914, 0.8640000410377979, 0.3840000182390213, 0.4480000212788582, 0.0, 0.0, 0.0, 0.0, 0.0, 1.7103945063424737E9, 0.0, 2024-03-13 22:35:06.342
96.0, -735.8963743811473, -357.06133841956034, -468.9105263943784, -390.08652497828007, 0.8640000410377979, 0.3840000182390213, 0.4480000212788582, 0.0, 0.0, 0.0, 0.0, 0.0, 1.7103945063424737E9, 0.0, 2024-03-13 22:35:06.342
97.0, -729.3852085582912, -355.23626724118367, -474.37826012959704, -385.1872560363263, 0.8640000410377979, 0.3840000182390213, 0.4480000212788582, 0.0, 0.0, 0.0, 0.0, 0.0, 1.710394506343156E9, 0.0, 2024-03-13 22:35:06.343
97.0, -722.488833039999, -352.08727147849277, -462.246024673339, -386.8402918167412, 0.8640000410377979, 0.3840000182390213, 0.4480000212788582, 0.0, 0.0, 0.0, 0.0, 0.0, 1.710394506343156E9, 0.0, 2024-03-13 22:35:06.343
98.0, -726.9542735870928, -356.31709832837805, -457.5636699288152, -390.5166134731844, 0.8640000410377979, 0.3840000182390213, 0.4480000212788582, 0.0, 0.0, 0.0, 0.0, 0.0, 1.7103945063568125E9, 0.0, 2024-03-13 22:35:06.356
98.0, -725.8584829000756, -354.6229236484505, -475.9452782110311, -392.7081948472187, 0.8640000410377979, 0.3840000182390213, 0.4480000212788582, 0.0, 0.0, 0.0, 0.0, 0.0, 1.7103945063568125E9, 0.0, 2024-03-13 22:35:06.356
99.0, -721.475320152007, -347.20670203631744, -462.2684640730731, -384.45423564501107, 0.8640000410377979, 0.3840000182390213, 0.4480000212788582, 0.0, 0.0, 0.0, 0.0, 0.0, 1.7103945063724568E9, 0.0, 2024-03-13 22:35:06.372
99.0, -719.1528422795236, -337.85695214709267, -443.54652489488944, -372.38557848799974, 0.8640000410377979, 0.3840000182390213, 0.4480000212788582, 0.0, 0.0, 0.0, 0.0, 0.0, 1.7103945063724568E9, 0.0, 2024-03-13 22:35:06.372
100.0, -724.4896795162931, -338.27956084208563, -451.81544369691983, -377.56160002667457, 0.8640000410377979, 0.3840000182390213, 0.4480000212788582, 0.0, 0.0, 0.0, 0.0, 0.0, 1.7103945063731418E9, 0.0, 2024-03-13 22:35:06.373
100.0, -724.2241466194391, -347.621830931399, -467.14903351524845, -385.7744203293696, 0.8640000410377979, 0.3840000182390213, 0.4480000212788582, 0.0, 0.0, 0.0, 0.0, 0.0, 1.7103945063731418E9, 0.0, 2024-03-13 22:35:06.373
0.0, -726.4381673932076, -350.0415462027304, -455.8994144485332, -379.89529759902507, 0.8640000410377979, 0.3840000182390213, 0.4480000212788582, 0.0, 0.0, 0.0, 0.0, 0.0, 1.710394506387544E9, 0.0, 2024-03-13 22:35:06.387
1.0, -725.0394448097795, -343.5864788792096, -448.92076113121584, -377.520461127162, 0.8640000410377979, 0.3840000182390213, 0.4480000212788582, 0.0, 0.0, 0.0, 0.0, 0.0, 1.7103945063882306E9, 0.0, 2024-03-13 22:35:06.388
1.0, -715.469040823169, -339.6708036256023, -456.0415306468494, -378.68357001338154, 0.8640000410377979, 0.3840000182390213, 0.4480000212788582, 0.0, 0.0, 0.0, 0.0, 0.0, 1.7103945063882306E9, 0.0, 2024-03-13 22:35:06.388
2.0, -714.7360204318538, -335.657890973147, -456.63243483984843, -378.71722911298275, 0.8640000410377979, 0.3840000182390213, 0.4480000212788582, 0.0, 0.0, 0.0, 0.0, 0.0, 1.7103945064020684E9, 0.0, 2024-03-13 22:35:06.402
2.0, -719.8970823707059, -340.4300033166073, -448.58043023524806, -378.1786835193634, 0.8640000410377979, 0.3840000182390213, 0.4480000212788582, 0.0, 0.0, 0.0, 0.0, 0.0, 1.7103945064020684E9, 0.0, 2024-03-13 22:35:06.402
3.0, -718.4796602874994, -343.08159238519147, -465.4548588353209, -380.1757900957018, 0.8640000410377979, 0.3840000182390213, 0.4480000212788582, 0.0, 0.0, 0.0, 0.0, 0.0, 1.7103945064177547E9, 0.0, 2024-03-13 22:35:06.417
3.0, -713.961861141026, -338.9901418336667, -464.6881793444045, -384.4093568455428, 0.8640000410377979, 0.3840000182390213, 0.4480000212788582, 0.0, 0.0, 0.0, 0.0, 0.0, 1.7103945064177547E9, 0.0, 2024-03-13 22:35:06.417
4.0, -722.1298026442528, -335.175443878863, -453.06457028212026, -384.50285434443504, 0.8640000410377979, 0.3840000182390213, 0.4480000212788582, 0.0, 0.0, 0.0, 0.0, 0.0, 1.7103945064182212E9, 0.0, 2024-03-13 22:35:06.418
4.0, -724.9160281112418, -344.8056862647645, -459.36630170745775, -382.86851806379855, 0.8640000410377979, 0.3840000182390213, 0.4480000212788582, 0.0, 0.0, 0.0, 0.0, 0.0, 1.7103945064182212E9, 0.0, 2024-03-13 22:35:06.418
5.0, -716.3329577129334, -347.38995713414624, -465.51469723461196, -380.08977239672095, 0.8640000410377979, 0.3840000182390213, 0.4480000212788582, 0.0, 0.0, 0.0, 0.0, 0.0, 1.7103945064320512E9, 0.0, 2024-03-13 22:35:06.432
5.0, -722.5224921396002, -345.83789865253493, -452.1669942927547, -381.6343510784209, 0.8640000410377979, 0.3840000182390213, 0.4480000212788582, 0.0, 0.0, 0.0, 0.0, 0.0, 1.7103945064320512E9, 0.0, 2024-03-13 22:35:06.432
6.0, -729.1907337605953, -348.7101418185048, -456.9129273365252, -384.38317754585296, 0.8640000410377979, 0.3840000182390213, 0.4480000212788582, 0.0, 0.0, 0.0, 0.0, 0.0, 1.7103945064474058E9, 0.0, 2024-03-13 22:35:06.447
6.0, -719.6951277730986, -344.775767065119, -467.37342751258984, -381.49597478006035, 0.8640000410377979, 0.3840000182390213, 0.4480000212788582, 0.0, 0.0, 0.0, 0.0, 0.0, 1.7103945064474058E9, 0.0, 2024-03-13 22:35:06.447
7.0, -714.5864244336262, -341.01342770969495, -449.6500416225754, -375.6205919496715, 0.8640000410377979, 0.3840000182390213, 0.4480000212788582, 0.0, 0.0, 0.0, 0.0, 0.0, 1.710394506462849E9, 0.0, 2024-03-13 22:35:06.462
7.0, -723.8688561236486, -338.7395685366355, -439.5336122424342, -367.46013024635613, 0.8640000410377979, 0.3840000182390213, 0.4480000212788582, 0.0, 0.0, 0.0, 0.0, 0.0, 1.710394506462849E9, 0.0, 2024-03-13 22:35:06.462
8.0, -724.8823690116405, -355.53171933768317, -460.1703801979311, -380.4338431926444, 0.8640000410377979, 0.3840000182390213, 0.4480000212788582, 0.0, 0.0, 0.0, 0.0, 0.0, 1.7103945064633665E9, 0.0, 2024-03-13 22:35:06.463
8.0, -717.6381827974692, -340.75911451270804, -453.0159515826963, -370.20147691387683, 0.8640000410377979, 0.3840000182390213, 0.4480000212788582, 0.0, 0.0, 0.0, 0.0, 0.0, 1.7103945064633665E9, 0.0, 2024-03-13 22:35:06.463
9.0, -731.3336964352056, -354.42844885075465, -451.81170379696414, -378.23478201869875, 0.8640000410377979, 0.3840000182390213, 0.4480000212788582, 0.0, 0.0, 0.0, 0.0, 0.0, 1.7103945064938028E9, 0.0, 2024-03-13 22:35:06.493
9.0, -733.2560050124303, -360.98449347307906, -457.8703417251818, -383.4033237574622, 0.8640000410377979, 0.3840000182390213, 0.4480000212788582, 0.0, 0.0, 0.0, 0.0, 0.0, 1.7103945064938028E9, 0.0, 2024-03-13 22:35:06.493
10.0, -723.5360050275922, -344.8094261647202, -463.45027245907113, -376.4433699399233, 0.8640000410377979, 0.3840000182390213, 0.4480000212788582, 0.0, 0.0, 0.0, 0.0, 0.0, 1.710394506494558E9, 0.0, 2024-03-13 22:35:06.494
10.0, -723.393888829276, -348.79241961752996, -453.236605680082, -376.75752153620124, 0.8640000410377979, 0.3840000182390213, 0.4480000212788582, 0.0, 0.0, 0.0, 0.0, 0.0, 1.710394506494558E9, 0.0, 2024-03-13 22:35:06.494
11.0, -735.2269322890788, -361.1864480706863, -460.9819384883158, -389.95188857987523, 0.8640000410377979, 0.3840000182390213, 0.4480000212788582, 0.0, 0.0, 0.0, 0.0, 0.0, 1.7103945064952776E9, 0.0, 2024-03-13 22:35:06.495
11.0, -738.3310492523015, -361.8558901627548, -481.2858553477563, -391.1224772660062, 0.8640000410377979, 0.3840000182390213, 0.4480000212788582, 0.0, 0.0, 0.0, 0.0, 0.0, 1.7103945064952776E9, 0.0, 2024-03-13 22:35:06.495
12.0, -719.6801681732759, -349.7872330057435, -453.87986847246066, -381.13320448435843, 0.8640000410377979, 0.3840000182390213, 0.4480000212788582, 0.0, 0.0, 0.0, 0.0, 0.0, 1.71039450649624E9, 0.0, 2024-03-13 22:35:06.496
12.0, -732.1714340252802, -352.3677639751695, -452.44374688947573, -382.12801787257195, 0.8640000410377979, 0.3840000182390213, 0.4480000212788582, 0.0, 0.0, 0.0, 0.0, 0.0, 1.71039450649624E9, 0.0, 2024-03-13 22:35:06.496
13.0, -730.1556279491633, -350.56887209648266, -474.7185910255648, -389.6639162832871, 0.8640000410377979, 0.3840000182390213, 0.4480000212788582, 0.0, 0.0, 0.0, 0.0, 0.0, 1.710394506506853E9, 0.0, 2024-03-13 22:35:06.506
13.0, -709.5188599936664, -345.68830265430734, -462.4180600713007, -377.04175393283367, 0.8640000410377979, 0.3840000182390213, 0.4480000212788582, 0.0, 0.0, 0.0, 0.0, 0.0, 1.710394506506853E9, 0.0, 2024-03-13 22:35:06.506
14.0, -722.11484304443, -346.7392145418562, -455.1626541572623, -380.97238878626376, 0.8640000410377979, 0.3840000182390213, 0.4480000212788582, 0.0, 0.0, 0.0, 0.0, 0.0, 1.7103945065219612E9, 0.0, 2024-03-13 22:35:06.521
14.0, -725.8697025999427, -352.73053427087143, -462.85188846616074, -387.8089259052649, 0.8640000410377979, 0.3840000182390213, 0.4480000212788582, 0.0, 0.0, 0.0, 0.0, 0.0, 1.7103945065219612E9, 0.0, 2024-03-13 22:35:06.521
15.0, -722.3878557411954, -347.6554900310002, -471.2404840667732, -387.46859500929713, 0.8640000410377979, 0.3840000182390213, 0.4480000212788582, 0.0, 0.0, 0.0, 0.0, 0.0, 1.710394506537733E9, 0.0, 2024-03-13 22:35:06.537
15.0, -716.8602836066857, -345.149757060688, -453.77889117365703, -380.97986858617514, 0.8640000410377979, 0.3840000182390213, 0.4480000212788582, 0.0, 0.0, 0.0, 0.0, 0.0, 1.710394506537733E9, 0.0, 2024-03-13 22:35:06.537
16.0, -721.415481752716, -349.7760133058764, -457.21959913289174, -382.1429774723947, 0.8640000410377979, 0.3840000182390213, 0.4480000212788582, 0.0, 0.0, 0.0, 0.0, 0.0, 1.7103945065382073E9, 0.0, 2024-03-13 22:35:06.538
16.0, -720.9741735579446, -349.23746771225706, -467.287409813609, -383.49308135639876, 0.8640000410377979, 0.3840000182390213, 0.4480000212788582, 0.0, 0.0, 0.0, 0.0, 0.0, 1.7103945065382073E9, 0.0, 2024-03-13 22:35:06.538
17.0, -719.7474863724783, -350.24350080033764, -460.62664799252525, -386.42516292165965, 0.8640000410377979, 0.3840000182390213, 0.4480000212788582, 0.0, 0.0, 0.0, 0.0, 0.0, 1.7103945065520864E9, 0.0, 2024-03-13 22:35:06.552
17.0, -715.6111570214853, -344.3232391704805, -445.50249257171527, -381.5221540797502, 0.8640000410377979, 0.3840000182390213, 0.4480000212788582, 0.0, 0.0, 0.0, 0.0, 0.0, 1.7103945065520864E9, 0.0, 2024-03-13 22:35:06.552
18.0, -725.6901874020696, -348.0780987259932, -476.0537353097461, -392.4052629508078, 0.8640000410377979, 0.3840000182390213, 0.4480000212788582, 0.0, 0.0, 0.0, 0.0, 0.0, 1.7103945065678601E9, 0.0, 2024-03-13 22:35:06.567
18.0, -716.5610916102305, -346.9299494395964, -465.52217703452334, -385.9165365276858, 0.8640000410377979, 0.3840000182390213, 0.4480000212788582, 0.0, 0.0, 0.0, 0.0, 0.0, 1.7103945065678601E9, 0.0, 2024-03-13 22:35:06.567
19.0, -716.8453240068629, -347.71532843029127, -453.03465108247474, -379.244555006735, 0.8640000410377979, 0.3840000182390213, 0.4480000212788582, 0.0, 0.0, 0.0, 0.0, 0.0, 1.7103945065683484E9, 0.0, 2024-03-13 22:35:06.568
19.0, -726.8084174888209, -354.01705985562876, -462.7209919677116, -385.516367232427, 0.8640000410377979, 0.3840000182390213, 0.4480000212788582, 0.0, 0.0, 0.0, 0.0, 0.0, 1.7103945065683484E9, 0.0, 2024-03-13 22:35:06.568
20.0, -726.7597987893969, -346.61579784331843, -472.3811535532586, -386.56727911997586, 0.8640000410377979, 0.3840000182390213, 0.4640000220388174, 0.0, 0.0, 0.0, 0.0, 0.0, 1.7103945065822299E9, 0.0, 2024-03-13 22:35:06.582
20.0, -720.9779134579003, -346.1445704489015, -458.5771828168072, -379.79432030022144, 0.8640000410377979, 0.3840000182390213, 0.4640000220388174, 0.0, 0.0, 0.0, 0.0, 0.0, 1.7103945065822299E9, 0.0, 2024-03-13 22:35:06.582
21.0, -727.3656625822186, -357.7008613119833, -455.84705584915355, -379.8878177991137, 0.8640000410377979, 0.3840000182390213, 0.4640000220388174, 0.0, 0.0, 0.0, 0.0, 0.0, 1.7103945065974844E9, 0.0, 2024-03-13 22:35:06.597
21.0, -722.163461743854, -342.146617396269, -464.6021616454236, -379.89529759902507, 0.8640000410377979, 0.3840000182390213, 0.4640000220388174, 0.0, 0.0, 0.0, 0.0, 0.0, 1.7103945065974844E9, 0.0, 2024-03-13 22:35:06.597
22.0, -712.0582520635799, -334.6144588855095, -450.06143061770126, -368.3689259355888, 0.8640000410377979, 0.3840000182390213, 0.4640000220388174, 0.0, 0.0, 0.0, 0.0, 0.0, 1.710394506598425E9, 0.0, 2024-03-13 22:35:06.598
22.0, -713.6439696447924, -340.57585941487923, -441.0370520246215, -370.7250629076734, 0.8640000410377979, 0.3840000182390213, 0.4640000220388174, 0.0, 0.0, 0.0, 0.0, 0.0, 1.710394506598425E9, 0.0, 2024-03-13 22:35:06.598
23.0, -712.9520881529897, -332.63231190899387, -455.09907585801557, -370.52684821002185, 0.8640000410377979, 0.3840000182390213, 0.4640000220388174, 0.0, 0.0, 0.0, 0.0, 0.0, 1.7103945066118398E9, 0.0, 2024-03-13 22:35:06.611
23.0, -719.4071554765105, -343.4742818805389, -454.0855629700236, -369.01592862792313, 0.8640000410377979, 0.3840000182390213, 0.4640000220388174, 0.0, 0.0, 0.0, 0.0, 0.0, 1.7103945066118398E9, 0.0, 2024-03-13 22:35:06.611
24.0, -722.4439542405307, -337.64751774957404, -444.2197068869136, -369.6143126208335, 0.8640000410377979, 0.3840000182390213, 0.4640000220388174, 0.0, 0.0, 0.0, 0.0, 0.0, 1.710394506627828E9, 0.0, 2024-03-13 22:35:06.627
24.0, -724.2204067194834, -337.6886566490866, -449.76971842115745, -376.0693799443543, 0.8640000410377979, 0.3840000182390213, 0.4640000220388174, 0.0, 0.0, 0.0, 0.0, 0.0, 1.710394506627828E9, 0.0, 2024-03-13 22:35:06.627
25.0, -714.3582905363292, -343.42566318111494, -459.28776380838826, -377.04175393283367, 0.8640000410377979, 0.3840000182390213, 0.4640000220388174, 0.0, 0.0, 0.0, 0.0, 0.0, 1.710394506628217E9, 0.0, 2024-03-13 22:35:06.628
25.0, -709.5525190932676, -341.53327380353585, -446.84137675585225, -368.511042133905, 0.8640000410377979, 0.3840000182390213, 0.4640000220388174, 0.0, 0.0, 0.0, 0.0, 0.0, 1.710394506628217E9, 0.0, 2024-03-13 22:35:06.628
26.0, -714.9604144291952, -342.4308497929014, -457.91896042460576, -383.2911267587915, 0.8640000410377979, 0.3840000182390213, 0.4640000220388174, 0.0, 0.0, 0.0, 0.0, 0.0, 1.710394506641899E9, 0.0, 2024-03-13 22:35:06.641
26.0, -720.2860319660977, -348.23891442408785, -477.1420461968519, -397.420468791388, 0.8640000410377979, 0.3840000182390213, 0.4640000220388174, 0.0, 0.0, 0.0, 0.0, 0.0, 1.710394506641899E9, 0.0, 2024-03-13 22:35:06.641
27.0, -720.173834967427, -345.53496675612405, -468.9853243934922, -390.4081563744694, 0.8640000410377979, 0.3840000182390213, 0.4640000220388174, 0.0, 0.0, 0.0, 0.0, 0.0, 1.7103945066574824E9, 0.0, 2024-03-13 22:35:06.657
27.0, -717.7877787956968, -345.9613153510727, -457.4252936304547, -384.5439932439476, 0.8640000410377979, 0.3840000182390213, 0.4640000220388174, 0.0, 0.0, 0.0, 0.0, 0.0, 1.7103945066574824E9, 0.0, 2024-03-13 22:35:06.657
28.0, -714.5602451339364, -345.7070021540858, -465.73535133199766, -384.6300109429285, 0.8640000410377979, 0.3840000182390213, 0.4640000220388174, 0.0, 0.0, 0.0, 0.0, 0.0, 1.7103945066581855E9, 0.0, 2024-03-13 22:35:06.658
28.0, -704.4138965541497, -335.48959547514096, -455.0205379589461, -375.22790245432407, 0.8640000410377979, 0.3840000182390213, 0.4640000220388174, 0.0, 0.0, 0.0, 0.0, 0.0, 1.7103945066581855E9, 0.0, 2024-03-13 22:35:06.658
29.0, -705.90611663647, -331.30838732467964, -440.7042009285651, -372.74460888374597, 0.8640000410377979, 0.3840000182390213, 0.4640000220388174, 0.0, 0.0, 0.0, 0.0, 0.0, 1.7103945066718757E9, 0.0, 2024-03-13 22:35:06.671
29.0, -706.5680789286271, -336.08797946805134, -450.2222463157959, -368.2155900374055, 0.8640000410377979, 0.3840000182390213, 0.4640000220388174, 0.0, 0.0, 0.0, 0.0, 0.0, 1.7103945066718757E9, 0.0, 2024-03-13 22:35:06.671
30.0, -696.9527961425483, -329.04200795153156, -451.5573905999772, -362.1382526094094, 0.8640000410377979, 0.3840000182390213, 0.4640000220388174, 0.0, 0.0, 0.0, 0.0, 0.0, 1.71039450668745E9, 0.0, 2024-03-13 22:35:06.687
30.0, -704.735527950339, -328.2753284606151, -440.72664032829925, -361.1770983207971, 0.8640000410377979, 0.3840000182390213, 0.4640000220388174, 0.0, 0.0, 0.0, 0.0, 0.0, 1.71039450668745E9, 0.0, 2024-03-13 22:35:06.687
31.0, -718.3562435889617, -336.57042656233534, -442.51431250711903, -366.2147435611114, 0.8640000410377979, 0.3840000182390213, 0.4640000220388174, 0.0, 0.0, 0.0, 0.0, 0.0, 1.7103945066881692E9, 0.0, 2024-03-13 22:35:06.688
31.0, -715.7420535199344, -340.16447041975334, -462.0926887751557, -376.5518270386383, 0.8640000410377979, 0.3840000182390213, 0.4640000220388174, 0.0, 0.0, 0.0, 0.0, 0.0, 1.7103945066881692E9, 0.0, 2024-03-13 22:35:06.688
32.0, -701.8819842841476, -328.1706112618558, -447.8586295437999, -369.12438572663814, 0.8640000410377979, 0.3840000182390213, 0.4640000220388174, 0.0, 0.0, 0.0, 0.0, 0.0, 1.7103945067019112E9, 0.0, 2024-03-13 22:35:06.701
32.0, -705.1843159450218, -332.1349052148871, -445.77176536852494, -367.93883744068444, 0.8640000410377979, 0.3840000182390213, 0.4640000220388174, 0.0, 0.0, 0.0, 0.0, 0.0, 1.7103945067019112E9, 0.0, 2024-03-13 22:35:06.701
33.0, -707.7424075147137, -335.01836808072403, -462.7583909672685, -375.09326605591923, 0.8640000410377979, 0.3840000182390213, 0.4640000220388174, 0.0, 0.0, 0.0, 0.0, 0.0, 1.7103945067175255E9, 0.0, 2024-03-13 22:35:06.717
33.0, -696.5788061469793, -329.6665712441318, -454.0593836703338, -371.15889130253345, 0.8640000410377979, 0.3840000182390213, 0.4640000220388174, 0.0, 0.0, 0.0, 0.0, 0.0, 1.7103945067175255E9, 0.0, 2024-03-13 22:35:06.717
34.0, -702.3906106781214, -332.71458970801905, -450.8318500085734, -368.26046883687377, 0.8640000410377979, 0.3840000182390213, 0.4640000220388174, 0.0, 0.0, 0.0, 0.0, 0.0, 1.7103945067181964E9, 0.0, 2024-03-13 22:35:06.718
34.0, -702.057759582065, -332.23588251369074, -452.8326964848675, -374.3939047642052, 0.8640000410377979, 0.3840000182390213, 0.4640000220388174, 0.0, 0.0, 0.0, 0.0, 0.0, 1.7103945067181964E9, 0.0, 2024-03-13 22:35:06.718
35.0, -700.2214687038213, -325.66861819149926, -471.96228475822136, -375.1381448553875, 0.8640000410377979, 0.3840000182390213, 0.4640000220388174, 0.0, 0.0, 0.0, 0.0, 0.0, 1.7103945067320936E9, 0.0, 2024-03-13 22:35:06.732
35.0, -703.8117726612836, -328.3950052591972, -449.9417538191192, -369.2141433255747, 0.8640000410377979, 0.3840000182390213, 0.4640000220388174, 0.0, 0.0, 0.0, 0.0, 0.0, 1.7103945067320936E9, 0.0, 2024-03-13 22:35:06.732
36.0, -712.3985829595476, -336.27123456588015, -451.149741504807, -375.7290490483865, 0.8640000410377979, 0.3840000182390213, 0.4640000220388174, 0.0, 0.0, 0.0, 0.0, 0.0, 1.7103945067474294E9, 0.0, 2024-03-13 22:35:06.747
36.0, -706.7401143265888, -337.5091414512135, -465.03599004028365, -374.0236546685919, 0.8640000410377979, 0.3840000182390213, 0.4640000220388174, 0.0, 0.0, 0.0, 0.0, 0.0, 1.7103945067474294E9, 0.0, 2024-03-13 22:35:06.747
37.0, -697.7157357335091, -323.89964551245794, -445.7081870692782, -367.5087489457801, 0.8640000410377979, 0.3840000182390213, 0.4640000220388174, 0.0, 0.0, 0.0, 0.0, 0.0, 1.7103945067482736E9, 0.0, 2024-03-13 22:35:06.748
37.0, -698.6170516228303, -318.74606337351725, -433.43383541470394, -357.4932968644425, 0.8640000410377979, 0.3840000182390213, 0.4640000220388174, 0.0, 0.0, 0.0, 0.0, 0.0, 1.7103945067482736E9, 0.0, 2024-03-13 22:35:06.748
38.0, -700.5244006002322, -333.2419156017713, -453.65547447511926, -363.4958362933248, 0.8640000410377979, 0.3840000182390213, 0.4640000220388174, 0.0, 0.0, 0.0, 0.0, 0.0, 1.7103945067618797E9, 0.0, 2024-03-13 22:35:06.761
38.0, -691.8964514024556, -327.4413307704963, -443.06407780060545, -360.59367392770946, 0.8640000410377979, 0.3840000182390213, 0.4640000220388174, 0.0, 0.0, 0.0, 0.0, 0.0, 1.7103945067618797E9, 0.0, 2024-03-13 22:35:06.761
39.0, -696.3693717494607, -322.7253169263713, -437.34951066831127, -360.44781782943755, 0.8640000410377979, 0.3840000182390213, 0.4640000220388174, 0.0, 0.0, 0.0, 0.0, 0.0, 1.7103945067774777E9, 0.0, 2024-03-13 22:35:06.777
39.0, -702.8281789729372, -326.38293908303604, -444.10003008833155, -362.4037855062634, 0.8640000410377979, 0.3840000182390213, 0.4640000220388174, 0.0, 0.0, 0.0, 0.0, 0.0, 1.7103945067774777E9, 0.0, 2024-03-13 22:35:06.777
40.0, -688.9494102373719, -314.3816001252271, -443.1463555996306, -355.5485488874838, 0.8640000410377979, 0.3840000182390213, 0.4480000212788582, 0.0, 0.0, 0.0, 0.0, 0.0, 1.7103945067781868E9, 0.0, 2024-03-13 22:35:06.778
40.0, -689.8320266269147, -317.2875023907982, -433.0860247188248, -351.9171060305089, 0.8640000410377979, 0.3840000182390213, 0.4480000212788582, 0.0, 0.0, 0.0, 0.0, 0.0, 1.7103945067781868E9, 0.0, 2024-03-13 22:35:06.778
41.0, -701.7922266852111, -319.85307376040146, -433.553512213286, -356.6144203748554, 0.8640000410377979, 0.3840000182390213, 0.4480000212788582, 0.0, 0.0, 0.0, 0.0, 0.0, 1.710394506791755E9, 0.0, 2024-03-13 22:35:06.791
41.0, -700.2925268029794, -326.3268405837007, -459.7290720031597, -367.34045344777405, 0.8640000410377979, 0.3840000182390213, 0.4480000212788582, 0.0, 0.0, 0.0, 0.0, 0.0, 1.710394506791755E9, 0.0, 2024-03-13 22:35:06.791
42.0, -685.4900027783588, -314.8079487201758, -441.42974151996896, -360.2458632318303, 0.8640000410377979, 0.3840000182390213, 0.4480000212788582, 0.0, 0.0, 0.0, 0.0, 0.0, 1.7103945068074493E9, 0.0, 2024-03-13 22:35:06.807
42.0, -686.5745737655088, -311.6477332576178, -433.8564441096969, -359.9429313354194, 0.8640000410377979, 0.3840000182390213, 0.4480000212788582, 0.0, 0.0, 0.0, 0.0, 0.0, 1.7103945068074493E9, 0.0, 2024-03-13 22:35:06.807
43.0, -698.089725729078, -326.94018417643383, -460.1292412984185, -374.2966673653573, 0.8640000410377979, 0.3840000182390213, 0.4480000212788582, 0.0, 0.0, 0.0, 0.0, 0.0, 1.710394506808208E9, 0.0, 2024-03-13 22:35:06.808
43.0, -688.9830693369731, -318.92183867143467, -449.76223862124607, -367.7219232432544, 0.8640000410377979, 0.3840000182390213, 0.4480000212788582, 0.0, 0.0, 0.0, 0.0, 0.0, 1.710394506808208E9, 0.0, 2024-03-13 22:35:06.808
44.0, -696.3618919495493, -318.4281718772836, -443.13887579971924, -368.60827953275293, 0.8640000410377979, 0.3840000182390213, 0.4480000212788582, 0.0, 0.0, 0.0, 0.0, 0.0, 1.7103945068219917E9, 0.0, 2024-03-13 22:35:06.821
44.0, -696.3843313492835, -318.95923767099157, -450.68973381025717, -368.8887720294297, 0.8640000410377979, 0.3840000182390213, 0.4480000212788582, 0.0, 0.0, 0.0, 0.0, 0.0, 1.7103945068219917E9, 0.0, 2024-03-13 22:35:06.821
45.0, -683.3844391033053, -313.5064635355957, -453.18050718074664, -364.0156823871657, 0.8640000410377979, 0.3840000182390213, 0.4480000212788582, 0.0, 0.0, 0.0, 0.0, 0.0, 1.7103945068377316E9, 0.0, 2024-03-13 22:35:06.837
45.0, -688.2014302462339, -311.80854895571247, -435.6740354881622, -359.37820644211024, 0.8640000410377979, 0.3840000182390213, 0.4480000212788582, 0.0, 0.0, 0.0, 0.0, 0.0, 1.7103945068377316E9, 0.0, 2024-03-13 22:35:06.837
46.0, -696.5301874475554, -319.5389221641235, -442.8209843034856, -364.8422002773732, 0.8640000410377979, 0.3840000182390213, 0.4480000212788582, 0.0, 0.0, 0.0, 0.0, 0.0, 1.7103945068382015E9, 0.0, 2024-03-13 22:35:06.838
46.0, -692.9548430899158, -321.2181372442283, -461.65886038029566, -369.9621233167127, 0.8640000410377979, 0.3840000182390213, 0.4480000212788582, 0.0, 0.0, 0.0, 0.0, 0.0, 1.7103945068382015E9, 0.0, 2024-03-13 22:35:06.838
47.0, -685.4301643790677, -315.9186990070157, -443.13139599980786, -363.7239701906219, 0.8640000410377979, 0.3840000182390213, 0.4480000212788582, 0.0, 0.0, 0.0, 0.0, 0.0, 1.710394506852039E9, 0.0, 2024-03-13 22:35:06.852
47.0, -697.9962282301858, -322.63929922739044, -439.4924733429216, -367.3142741480842, 0.8640000410377979, 0.3840000182390213, 0.4480000212788582, 0.0, 0.0, 0.0, 0.0, 0.0, 1.710394506852039E9, 0.0, 2024-03-13 22:35:06.852
48.0, -699.4921882124618, -333.78794099530205, -457.1635006335564, -373.986255669035, 0.8640000410377979, 0.3840000182390213, 0.4480000212788582, 0.0, 0.0, 0.0, 0.0, 0.0, 1.710394506868036E9, 0.0, 2024-03-13 22:35:06.868
48.0, -695.5316341593862, -324.48306990554556, -449.73605932155624, -372.08638649154454, 0.8640000410377979, 0.3840000182390213, 0.4480000212788582, 0.0, 0.0, 0.0, 0.0, 0.0, 1.710394506868036E9, 0.0, 2024-03-13 22:35:06.868
49.0, -699.2191755156964, -336.45448966370896, -443.17627479927614, -370.6240856088698, 0.8640000410377979, 0.3840000182390213, 0.4480000212788582, 0.0, 0.0, 0.0, 0.0, 0.0, 1.710394506868426E9, 0.0, 2024-03-13 22:35:06.868
49.0, -700.3374056024477, -333.04370090411976, -454.261338267941, -376.12173854373395, 0.8640000410377979, 0.3840000182390213, 0.4480000212788582, 0.0, 0.0, 0.0, 0.0, 0.0, 1.710394506868426E9, 0.0, 2024-03-13 22:35:06.868
50.0, -696.3880712492391, -320.00640965858474, -457.5000916295685, -373.4028312759474, 0.8640000410377979, 0.3840000182390213, 0.4640000220388174, 0.0, 0.0, 0.0, 0.0, 0.0, 1.7103945068821037E9, 0.0, 2024-03-13 22:35:06.882
50.0, -690.0040620248765, -316.4273254009895, -447.2714652507566, -372.34817948844284, 0.8640000410377979, 0.3840000182390213, 0.4640000220388174, 0.0, 0.0, 0.0, 0.0, 0.0, 1.7103945068821037E9, 0.0, 2024-03-13 22:35:06.882
51.0, -699.9559358069673, -327.6582449679263, -455.40574765438214, -374.31162696518004, 0.8640000410377979, 0.3840000182390213, 0.4640000220388174, 0.0, 0.0, 0.0, 0.0, 0.0, 1.7103945068977911E9, 0.0, 2024-03-13 22:35:06.897
51.0, -698.6133117228746, -329.1467251502909, -465.7278715320863, -376.90711753442883, 0.8640000410377979, 0.3840000182390213, 0.4640000220388174, 0.0, 0.0, 0.0, 0.0, 0.0, 1.7103945068977911E9, 0.0, 2024-03-13 22:35:06.897
52.0, -697.5848392350599, -327.1832776735537, -453.0458707823418, -376.94451653398573, 0.8640000410377979, 0.3840000182390213, 0.4640000220388174, 0.0, 0.0, 0.0, 0.0, 0.0, 1.710394506898296E9, 0.0, 2024-03-13 22:35:06.898
52.0, -697.7157357335091, -332.38547851191834, -450.65233481070027, -374.71553616039455, 0.8640000410377979, 0.3840000182390213, 0.4640000220388174, 0.0, 0.0, 0.0, 0.0, 0.0, 1.710394506898296E9, 0.0, 2024-03-13 22:35:06.898
53.0, -702.2896333793178, -336.0954592679627, -461.51674418197945, -380.9125503869727, 0.8640000410377979, 0.3840000182390213, 0.4640000220388174, 0.0, 0.0, 0.0, 0.0, 0.0, 1.7103945069117727E9, 0.0, 2024-03-13 22:35:06.911
53.0, -690.7782213157043, -321.5883873398416, -450.9403071072884, -364.5804072804749, 0.8640000410377979, 0.3840000182390213, 0.4640000220388174, 0.0, 0.0, 0.0, 0.0, 0.0, 1.7103945069117727E9, 0.0, 2024-03-13 22:35:06.911
54.0, -684.7906414866447, -317.2089644917287, -435.7862324868329, -356.7901956727728, 0.8640000410377979, 0.3840000182390213, 0.4640000220388174, 0.0, 0.0, 0.0, 0.0, 0.0, 1.7103945069277568E9, 0.0, 2024-03-13 22:35:06.927
54.0, -685.6769977761433, -317.1416462925263, -441.3474637209438, -359.9466712353751, 0.8640000410377979, 0.3840000182390213, 0.4640000220388174, 0.0, 0.0, 0.0, 0.0, 0.0, 1.7103945069277568E9, 0.0, 2024-03-13 22:35:06.927
55.0, -692.988502189517, -325.82195408968255, -453.5769365760498, -363.30884129554033, 0.8640000410377979, 0.3840000182390213, 0.4640000220388174, 0.0, 0.0, 0.0, 0.0, 0.0, 1.7103945069282537E9, 0.0, 2024-03-13 22:35:06.928
55.0, -693.2465552864596, -332.8828852060251, -439.53735214238986, -366.89914525300264, 0.8640000410377979, 0.3840000182390213, 0.4640000220388174, 0.0, 0.0, 0.0, 0.0, 0.0, 1.7103945069282537E9, 0.0, 2024-03-13 22:35:06.928
56.0, -717.6232231976464, -348.9270560159348, -453.0870096818544, -376.2488951422274, 0.8640000410377979, 0.3840000182390213, 0.4640000220388174, 0.0, 0.0, 0.0, 0.0, 0.0, 1.7103945069421177E9, 0.0, 2024-03-13 22:35:06.942
56.0, -709.2682866966352, -341.2527813068591, -466.7189450203441, -381.09206558484584, 0.8640000410377979, 0.3840000182390213, 0.4640000220388174, 0.0, 0.0, 0.0, 0.0, 0.0, 1.7103945069421177E9, 0.0, 2024-03-13 22:35:06.942
57.0, -706.882230524905, -341.7090491014533, -464.8976137419231, -381.4473560806364, 0.8640000410377979, 0.3840000182390213, 0.4640000220388174, 0.0, 0.0, 0.0, 0.0, 0.0, 1.7103945069575057E9, 0.0, 2024-03-13 22:35:06.957
57.0, -711.1344967745245, -346.35774474637583, -452.28667109133676, -382.4384295688942, 0.8640000410377979, 0.3840000182390213, 0.4640000220388174, 0.0, 0.0, 0.0, 0.0, 0.0, 1.7103945069575057E9, 0.0, 2024-03-13 22:35:06.957
58.0, -714.6462628329173, -349.9704881035723, -472.8299415479414, -389.20016868878156, 0.8640000410377979, 0.3840000182390213, 0.4640000220388174, 0.0, 0.0, 0.0, 0.0, 0.0, 1.71039450695822E9, 0.0, 2024-03-13 22:35:06.958
58.0, -701.4593755891547, -340.2991068181582, -465.6530735329725, -378.08892592042685, 0.8640000410377979, 0.3840000182390213, 0.4640000220388174, 0.0, 0.0, 0.0, 0.0, 0.0, 1.71039450695822E9, 0.0, 2024-03-13 22:35:06.958
59.0, -705.8911570366472, -336.6153053618036, -448.4570135367103, -377.12777163181454, 0.8640000410377979, 0.3840000182390213, 0.4640000220388174, 0.0, 0.0, 0.0, 0.0, 0.0, 1.7103945069718182E9, 0.0, 2024-03-13 22:35:06.971
59.0, -712.4883405584842, -350.7072483948432, -458.07229632278904, -389.1777292890474, 0.8640000410377979, 0.3840000182390213, 0.4640000220388174, 0.0, 0.0, 0.0, 0.0, 0.0, 1.7103945069718182E9, 0.0, 2024-03-13 22:35:06.971
60.0, -708.9952739998698, -351.5262864851393, -469.8268018835224, -387.5994915077463, 0.8640000410377979, 0.3840000182390213, 0.4640000220388174, 0.0, 0.0, 0.0, 0.0, 0.0, 1.7103945069875152E9, 0.0, 2024-03-13 22:35:06.987
60.0, -708.1500566098839, -341.86986479954794, -457.1223617340438, -379.3754515051842, 0.8640000410377979, 0.3840000182390213, 0.4640000220388174, 0.0, 0.0, 0.0, 0.0, 0.0, 1.7103945069875152E9, 0.0, 2024-03-13 22:35:06.987
61.0, -706.3324652314186, -339.71942232502624, -449.4817461245693, -371.90687129367143, 0.8640000410377979, 0.3840000182390213, 0.4640000220388174, 0.0, 0.0, 0.0, 0.0, 0.0, 1.7103945069884696E9, 0.0, 2024-03-13 22:35:06.988
61.0, -699.9821151066571, -327.878899065312, -458.76791771454737, -376.04694054462016, 0.8640000410377979, 0.3840000182390213, 0.4640000220388174, 0.0, 0.0, 0.0, 0.0, 0.0, 1.7103945069884696E9, 0.0, 2024-03-13 22:35:06.988
62.0, -703.3480250667781, -330.81846043048427, -450.0876099173911, -370.9980756044388, 0.8640000410377979, 0.3840000182390213, 0.4640000220388174, 0.0, 0.0, 0.0, 0.0, 0.0, 1.7103945070021217E9, 0.0, 2024-03-13 22:35:07.002
62.0, -702.8805375723168, -331.0204150280915, -437.7160208639689, -364.00820258725435, 0.8640000410377979, 0.3840000182390213, 0.4640000220388174, 0.0, 0.0, 0.0, 0.0, 0.0, 1.7103945070021217E9, 0.0, 2024-03-13 22:35:07.002
63.0, -704.567232452333, -327.48994946992025, -461.3783678836189, -371.0018155043945, 0.8640000410377979, 0.3840000182390213, 0.4640000220388174, 0.0, 0.0, 0.0, 0.0, 0.0, 1.710394507017672E9, 0.0, 2024-03-13 22:35:07.017
63.0, -703.8005529614165, -334.5134815867059, -455.7198992506601, -372.30704058893025, 0.8640000410377979, 0.3840000182390213, 0.4640000220388174, 0.0, 0.0, 0.0, 0.0, 0.0, 1.710394507017672E9, 0.0, 2024-03-13 22:35:07.017
64.0, -707.4020766187459, -333.5822464977391, -444.9789065779187, -370.5081487102434, 0.8640000410377979, 0.3840000182390213, 0.4640000220388174, 0.0, 0.0, 0.0, 0.0, 0.0, 1.7103945070182686E9, 0.0, 2024-03-13 22:35:07.018
64.0, -709.0962512986735, -345.17219646042213, -454.0893028699793, -375.8113268474117, 0.8640000410377979, 0.3840000182390213, 0.4640000220388174, 0.0, 0.0, 0.0, 0.0, 0.0, 1.7103945070182686E9, 0.0, 2024-03-13 22:35:07.018
65.0, -704.3877172544599, -332.66971090855077, -462.66863336833194, -378.64243111386895, 0.8640000410377979, 0.3840000182390213, 0.4640000220388174, 0.0, 0.0, 0.0, 0.0, 0.0, 1.7103945070320885E9, 0.0, 2024-03-13 22:35:07.032
65.0, -701.6388907870278, -334.93235038174316, -440.4498877315782, -367.871519241482, 0.8640000410377979, 0.3840000182390213, 0.4640000220388174, 0.0, 0.0, 0.0, 0.0, 0.0, 1.7103945070320885E9, 0.0, 2024-03-13 22:35:07.032
66.0, -711.7216610675678, -343.3620848818682, -449.6014229231514, -375.56823335029185, 0.8640000410377979, 0.3840000182390213, 0.4640000220388174, 0.0, 0.0, 0.0, 0.0, 0.0, 1.7103945070475047E9, 0.0, 2024-03-13 22:35:07.047
66.0, -714.0740581396967, -342.8534584878944, -473.03189614554867, -383.4743818566203, 0.8640000410377979, 0.3840000182390213, 0.4640000220388174, 0.0, 0.0, 0.0, 0.0, 0.0, 1.7103945070475047E9, 0.0, 2024-03-13 22:35:07.047
67.0, -708.052819211036, -332.437837111298, -464.2094721500762, -381.09580548480153, 0.8640000410377979, 0.3840000182390213, 0.4640000220388174, 0.0, 0.0, 0.0, 0.0, 0.0, 1.7103945070483024E9, 0.0, 2024-03-13 22:35:07.048
67.0, -706.605477928184, -332.16482441453263, -463.70084575610235, -381.8101263763383, 0.8640000410377979, 0.3840000182390213, 0.4640000220388174, 0.0, 0.0, 0.0, 0.0, 0.0, 1.7103945070483024E9, 0.0, 2024-03-13 22:35:07.048
68.0, -715.9589677173644, -345.02260046219453, -478.29767528316006, -394.4921271260828, 0.8640000410377979, 0.3840000182390213, 0.4640000220388174, 0.0, 0.0, 0.0, 0.0, 0.0, 1.7103945070781574E9, 0.0, 2024-03-13 22:35:07.078
68.0, -708.0303798113018, -337.8756516468711, -470.85901427129284, -386.8402918167412, 0.8640000410377979, 0.3840000182390213, 0.4640000220388174, 0.0, 0.0, 0.0, 0.0, 0.0, 1.7103945070781574E9, 0.0, 2024-03-13 22:35:07.078
69.0, -701.7997064851224, -339.783000624273, -447.13682885235175, -372.37809868808836, 0.8640000410377979, 0.3840000182390213, 0.4640000220388174, 0.0, 0.0, 0.0, 0.0, 0.0, 1.7103945070788825E9, 0.0, 2024-03-13 22:35:07.078
69.0, -712.2826460609213, -337.7297955485992, -459.6542740040459, -376.83231953531504, 0.8640000410377979, 0.3840000182390213, 0.4640000220388174, 0.0, 0.0, 0.0, 0.0, 0.0, 1.7103945070788825E9, 0.0, 2024-03-13 22:35:07.078
