%OpenBCI Raw EXG Data
%Number of channels = 4
%Sample Rate = 200 Hz
%Board = OpenBCI_GUI$BoardGanglionBLE
Sample Index, EXG Channel 0, EXG Channel 1, EXG Channel 2, EXG Channel 3, Accel Channel 0, Accel Channel 1, Accel Channel 2, Other, Other, Other, Other, Other, Timestamp, Other, Timestamp (Formatted)
0.0, -662.72897164803, -303.98280829843134, -408.60463960887864, -315.81772170821205, 0.0, 0.0, 0.0, 0.0, 0.0, 0.0, 0.0, 0.0, 1.7103941209246955E9, 0.0, 2024-03-13 22:28:40.924
1.0, -657.3883945113048, -305.89763707574457, -412.5090951626189, -314.10484752850607, 0.0, 0.41600001975893974, 0.0, 0.0, 0.0, 0.0, 0.0, 0.0, 1.710394120938204E9, 0.0, 2024-03-13 22:28:40.938
1.0, -658.3121498003602, -303.08523230906576, -400.8368674009107, -313.32694833772257, 0.0, 0.41600001975893974, 0.0, 0.0, 0.0, 0.0, 0.0, 0.0, 1.710394120938204E9, 0.0, 2024-03-13 22:28:40.938
2.0, -666.5287100030109, -309.30842583533376, -405.0292952512391, -321.5734277400188, 0.8800000417977571, 0.41600001975893974, 0.0, 0.0, 0.0, 0.0, 0.0, 0.0, 1.7103941209543536E9, 0.0, 2024-03-13 22:28:40.954
2.0, -668.1406068839133, -314.0730583788827, -421.12956456048414, -327.9162980648689, 0.8800000417977571, 0.41600001975893974, 0.0, 0.0, 0.0, 0.0, 0.0, 0.0, 1.7103941209543536E9, 0.0, 2024-03-13 22:28:40.954
3.0, -660.4775518747047, -307.71522845420986, -406.9516038284637, -321.44627114152536, 0.8800000417977571, 0.41600001975893974, 0.0, 0.0, 0.0, 0.0, 0.0, 0.0, 1.7103941209688067E9, 0.0, 2024-03-13 22:28:40.968
3.0, -666.7119651008397, -316.3282180521637, -406.8730659293942, -324.2437163083814, 0.8800000417977571, 0.41600001975893974, 0.0, 0.0, 0.0, 0.0, 0.0, 0.0, 1.7103941209688067E9, 0.0, 2024-03-13 22:28:40.968
4.0, -664.4605453275144, -317.20709454175085, -416.6267250138335, -328.23044966114685, 0.8800000417977571, 0.41600001975893974, 0.0, 0.0, 0.0, 0.0, 0.0, 0.0, 1.7103941209692402E9, 0.0, 2024-03-13 22:28:40.969
4.0, -662.8785676462576, -307.04578636214137, -417.89455109881237, -324.19509760895744, 0.8800000417977571, 0.41600001975893974, 0.0, 0.0, 0.0, 0.0, 0.0, 0.0, 1.7103941209692402E9, 0.0, 2024-03-13 22:28:40.969
5.0, -661.3489485643804, -314.4844473740086, -407.3330736239441, -327.89385866513476, 0.8800000417977571, 0.41600001975893974, 0.0, 0.0, 0.0, 0.0, 0.0, 0.0, 1.7103941209833808E9, 0.0, 2024-03-13 22:28:40.983
5.0, -662.9496257454157, -306.49228116869926, -409.45733679877594, -320.92268514772877, 0.8800000417977571, 0.41600001975893974, 0.0, 0.0, 0.0, 0.0, 0.0, 0.0, 1.7103941209833808E9, 0.0, 2024-03-13 22:28:40.983
6.0, -661.0235772682354, -309.6599764311686, -411.132811978925, -324.33721380727366, 0.8800000417977571, 0.41600001975893974, 0.0, 0.0, 0.0, 0.0, 0.0, 0.0, 1.7103941209840784E9, 0.0, 2024-03-13 22:28:40.984
6.0, -655.3164899358526, -304.5512730916962, -400.3581602065824, -317.96068438282236, 0.8800000417977571, 0.41600001975893974, 0.0, 0.0, 0.0, 0.0, 0.0, 0.0, 1.7103941209840784E9, 0.0, 2024-03-13 22:28:40.984
7.0, -662.740191347897, -313.8262249818072, -403.7689489661716, -327.2954746722244, 0.8800000417977571, 0.41600001975893974, 0.0, 0.0, 0.0, 0.0, 0.0, 0.0, 1.7103941209977064E9, 0.0, 2024-03-13 22:28:40.997
7.0, -654.5011917455122, -311.54488600883633, -408.9561902047135, -325.2123503969051, 0.8800000417977571, 0.41600001975893974, 0.0, 0.0, 0.0, 0.0, 0.0, 0.0, 1.7103941209977064E9, 0.0, 2024-03-13 22:28:40.997
8.0, -662.2914033532143, -302.82717921212316, -400.7209305022843, -320.4589375532232, 0.8800000417977571, 0.41600001975893974, 0.0, 0.0, 0.0, 0.0, 0.0, 0.0, 1.7103941210133924E9, 0.0, 2024-03-13 22:28:41.013
8.0, -662.0071709565818, -309.1176909375936, -391.1318270158954, -316.4684643005021, 0.8800000417977571, 0.41600001975893974, 0.0, 0.0, 0.0, 0.0, 0.0, 0.0, 1.7103941210133924E9, 0.0, 2024-03-13 22:28:41.013
9.0, -664.7410378241912, -304.6335508907214, -404.04196166293696, -321.1807382446714, 0.8800000417977571, 0.41600001975893974, 0.0, 0.0, 0.0, 0.0, 0.0, 0.0, 1.7103941210140784E9, 0.0, 2024-03-13 22:28:41.014
9.0, -656.6665938198566, -304.20346239581704, -408.5410613096319, -320.0550283580087, 0.8800000417977571, 0.41600001975893974, 0.0, 0.0, 0.0, 0.0, 0.0, 0.0, 1.7103941210140784E9, 0.0, 2024-03-13 22:28:41.014
10.0, -654.9574595401064, -294.9098110059276, -395.52246956387535, -313.77573633240536, 0.8800000417977571, 0.41600001975893974, 0.3840000182390213, 0.0, 0.0, 0.0, 0.0, 0.0, 1.71039412102787E9, 0.0, 2024-03-13 22:28:41.027
10.0, -663.0580828441307, -304.30817959457636, -409.26660190103576, -316.63675979850814, 0.8800000417977571, 0.41600001975893974, 0.3840000182390213, 0.0, 0.0, 0.0, 0.0, 0.0, 1.71039412102787E9, 0.0, 2024-03-13 22:28:41.027
11.0, -658.0316573036835, -303.6574370022863, -412.580153261777, -315.866340407636, 0.8800000417977571, 0.41600001975893974, 0.3840000182390213, 0.0, 0.0, 0.0, 0.0, 0.0, 1.710394121043385E9, 0.0, 2024-03-13 22:28:41.043
11.0, -662.6915726484731, -306.4324427694082, -407.64348532026634, -314.6882719215937, 0.8800000417977571, 0.41600001975893974, 0.3840000182390213, 0.0, 0.0, 0.0, 0.0, 0.0, 1.710394121043385E9, 0.0, 2024-03-13 22:28:41.043
12.0, -659.1050085909665, -304.3754977937788, -408.1334122144617, -316.89107299549505, 0.8800000417977571, 0.41600001975893974, 0.3840000182390213, 0.0, 0.0, 0.0, 0.0, 0.0, 1.7103941210440776E9, 0.0, 2024-03-13 22:28:41.044
12.0, -659.0040312921628, -294.8836317062378, -416.93339681020007, -316.07951470511034, 0.8800000417977571, 0.41600001975893974, 0.3840000182390213, 0.0, 0.0, 0.0, 0.0, 0.0, 1.7103941210440776E9, 0.0, 2024-03-13 22:28:41.044
13.0, -651.2661782838404, -287.4599302941933, -409.1319655026309, -317.2014846918173, 0.8800000417977571, 0.41600001975893974, 0.3840000182390213, 0.0, 0.0, 0.0, 0.0, 0.0, 1.710394121058012E9, 0.0, 2024-03-13 22:28:41.058
13.0, -655.8886946290731, -299.0274408571422, -401.07996089803055, -314.10484752850607, 0.8800000417977571, 0.41600001975893974, 0.3840000182390213, 0.0, 0.0, 0.0, 0.0, 0.0, 1.710394121058012E9, 0.0, 2024-03-13 22:28:41.058
14.0, -657.4594526104629, -307.71522845420986, -411.7386757717468, -321.4238317417912, 0.8800000417977571, 0.41600001975893974, 0.3840000182390213, 0.0, 0.0, 0.0, 0.0, 0.0, 1.7103941210737002E9, 0.0, 2024-03-13 22:28:41.073
14.0, -658.4916649982333, -310.71462821867317, -416.8361594113521, -327.45255047036335, 0.8800000417977571, 0.41600001975893974, 0.3840000182390213, 0.0, 0.0, 0.0, 0.0, 0.0, 1.7103941210737002E9, 0.0, 2024-03-13 22:28:41.073
15.0, -659.0152509920299, -299.0237009571865, -398.52186932833865, -319.1050937692635, 0.8800000417977571, 0.41600001975893974, 0.3840000182390213, 0.0, 0.0, 0.0, 0.0, 0.0, 1.7103941210741112E9, 0.0, 2024-03-13 22:28:41.074
15.0, -666.5548893027008, -307.2926197592169, -419.98515517404303, -328.04345466336235, 0.8800000417977571, 0.41600001975893974, 0.3840000182390213, 0.0, 0.0, 0.0, 0.0, 0.0, 1.7103941210741112E9, 0.0, 2024-03-13 22:28:41.074
16.0, -662.5457165502012, -313.2951591880992, -413.93025714578107, -325.23104989668354, 0.8800000417977571, 0.41600001975893974, 0.3840000182390213, 0.0, 0.0, 0.0, 0.0, 0.0, 1.7103941210879924E9, 0.0, 2024-03-13 22:28:41.087
16.0, -659.1536272903904, -308.27621344756335, -404.3860324588604, -321.49114994099364, 0.8800000417977571, 0.41600001975893974, 0.3840000182390213, 0.0, 0.0, 0.0, 0.0, 0.0, 1.7103941210879924E9, 0.0, 2024-03-13 22:28:41.087
17.0, -661.9735118569806, -311.1409768136218, -400.773289101664, -323.66777171520516, 0.8800000417977571, 0.41600001975893974, 0.3840000182390213, 0.0, 0.0, 0.0, 0.0, 0.0, 1.7103941211034243E9, 0.0, 2024-03-13 22:28:41.103
17.0, -654.1758204493672, -302.82343931216747, -420.516220967751, -326.9177447766997, 0.8800000417977571, 0.41600001975893974, 0.3840000182390213, 0.0, 0.0, 0.0, 0.0, 0.0, 1.7103941211034243E9, 0.0, 2024-03-13 22:28:41.103
18.0, -657.9568593045697, -296.71618268452585, -403.8325272654183, -322.8449937249534, 0.8800000417977571, 0.41600001975893974, 0.3840000182390213, 0.0, 0.0, 0.0, 0.0, 0.0, 1.710394121104082E9, 0.0, 2024-03-13 22:28:41.104
18.0, -657.5192910097539, -297.38188487663865, -397.92722523538396, -317.59417418716475, 0.8800000417977571, 0.41600001975893974, 0.3840000182390213, 0.0, 0.0, 0.0, 0.0, 0.0, 1.710394121104082E9, 0.0, 2024-03-13 22:28:41.104
19.0, -647.7918112250045, -289.4271176708862, -408.9487104048021, -318.92183867143467, 0.8800000417977571, 0.41600001975893974, 0.3840000182390213, 0.0, 0.0, 0.0, 0.0, 0.0, 1.7103941211177213E9, 0.0, 2024-03-13 22:28:41.117
19.0, -656.9246469167992, -305.5236470801756, -410.2838546889834, -322.246609732043, 0.8800000417977571, 0.41600001975893974, 0.3840000182390213, 0.0, 0.0, 0.0, 0.0, 0.0, 1.7103941211177213E9, 0.0, 2024-03-13 22:28:41.117
20.0, -650.9108877880499, -293.2455555256456, -400.182384908665, -312.66124614560977, 0.8800000417977571, 0.41600001975893974, 0.4000000189989805, 0.0, 0.0, 0.0, 0.0, 0.0, 1.7103941211334677E9, 0.0, 2024-03-13 22:28:41.133
20.0, -660.4102336755022, -309.05411263834685, -407.4041317231022, -322.22417033230886, 0.8800000417977571, 0.41600001975893974, 0.4000000189989805, 0.0, 0.0, 0.0, 0.0, 0.0, 1.7103941211334677E9, 0.0, 2024-03-13 22:28:41.133
21.0, -654.2880174480379, -295.86722539458424, -415.3925580284558, -320.5412153522484, 0.8800000417977571, 0.41600001975893974, 0.4000000189989805, 0.0, 0.0, 0.0, 0.0, 0.0, 1.7103941211343377E9, 0.0, 2024-03-13 22:28:41.134
21.0, -655.7465784307569, -299.6220849500969, -412.59885276155546, -325.29836809588596, 0.8800000417977571, 0.41600001975893974, 0.4000000189989805, 0.0, 0.0, 0.0, 0.0, 0.0, 1.7103941211343377E9, 0.0, 2024-03-13 22:28:41.134
22.0, -660.2232386777177, -303.01043430995196, -410.81866038264707, -328.6231391564943, 0.8800000417977571, 0.41600001975893974, 0.4000000189989805, 0.0, 0.0, 0.0, 0.0, 0.0, 1.7103941211477797E9, 0.0, 2024-03-13 22:28:41.147
22.0, -655.5633233329281, -302.7785605126992, -425.1424772129394, -330.53422803385183, 0.8800000417977571, 0.41600001975893974, 0.4000000189989805, 0.0, 0.0, 0.0, 0.0, 0.0, 1.7103941211477797E9, 0.0, 2024-03-13 22:28:41.147
23.0, -663.1515803430229, -301.5780526269227, -410.7625618833117, -321.1059402455576, 0.8800000417977571, 0.41600001975893974, 0.4000000189989805, 0.0, 0.0, 0.0, 0.0, 0.0, 1.7103941211633584E9, 0.0, 2024-03-13 22:28:41.163
23.0, -658.2036927016452, -301.0357671333477, -394.9914037701674, -309.5421695825644, 0.8800000417977571, 0.41600001975893974, 0.4000000189989805, 0.0, 0.0, 0.0, 0.0, 0.0, 1.7103941211633584E9, 0.0, 2024-03-13 22:28:41.163
24.0, -661.2479712655768, -301.2938202302903, -404.4795299577527, -312.8445012434386, 0.8800000417977571, 0.41600001975893974, 0.4000000189989805, 0.0, 0.0, 0.0, 0.0, 0.0, 1.7103941211640801E9, 0.0, 2024-03-13 22:28:41.164
24.0, -663.6003683377057, -301.52943392749876, -406.67485123174265, -312.4181526484899, 0.8800000417977571, 0.41600001975893974, 0.4000000189989805, 0.0, 0.0, 0.0, 0.0, 0.0, 1.7103941211640801E9, 0.0, 2024-03-13 22:28:41.164
25.0, -660.2531578773633, -307.86856435239315, -405.64263884397224, -317.52685598796234, 0.8800000417977571, 0.41600001975893974, 0.4000000189989805, 0.0, 0.0, 0.0, 0.0, 0.0, 1.7103941211776967E9, 0.0, 2024-03-13 22:28:41.177
25.0, -664.5203837268054, -299.6295647500083, -404.0943202623166, -315.63446661038324, 0.8800000417977571, 0.41600001975893974, 0.4000000189989805, 0.0, 0.0, 0.0, 0.0, 0.0, 1.7103941211776967E9, 0.0, 2024-03-13 22:28:41.177
26.0, -660.6944660721347, -305.48998798057437, -403.6604918674566, -316.04211570555344, 0.8800000417977571, 0.41600001975893974, 0.4000000189989805, 0.0, 0.0, 0.0, 0.0, 0.0, 1.7103941211933863E9, 0.0, 2024-03-13 22:28:41.193
26.0, -652.3993679704145, -302.9543358106166, -400.7658093017526, -313.1698725395836, 0.8800000417977571, 0.41600001975893974, 0.4000000189989805, 0.0, 0.0, 0.0, 0.0, 0.0, 1.7103941211933863E9, 0.0, 2024-03-13 22:28:41.193
27.0, -662.0557896560058, -298.63849126175046, -394.00781008182094, -312.3620541491546, 0.8800000417977571, 0.41600001975893974, 0.4000000189989805, 0.0, 0.0, 0.0, 0.0, 0.0, 1.710394121194068E9, 0.0, 2024-03-13 22:28:41.194
27.0, -658.6562205962837, -299.2929737539962, -405.0966134504415, -312.62384714605287, 0.8800000417977571, 0.41600001975893974, 0.4000000189989805, 0.0, 0.0, 0.0, 0.0, 0.0, 1.710394121194068E9, 0.0, 2024-03-13 22:28:41.194
28.0, -657.8072633063421, -301.19284293148667, -393.3907265891321, -312.70238504512236, 0.8800000417977571, 0.41600001975893974, 0.4000000189989805, 0.0, 0.0, 0.0, 0.0, 0.0, 1.7103941212077103E9, 0.0, 2024-03-13 22:28:41.207
28.0, -661.5097642624751, -298.2196224667132, -393.30470889015123, -313.48776403581724, 0.8800000417977571, 0.41600001975893974, 0.4000000189989805, 0.0, 0.0, 0.0, 0.0, 0.0, 1.7103941212077103E9, 0.0, 2024-03-13 22:28:41.207
29.0, -661.173173266463, -300.16811034362763, -400.7545896018855, -307.604901405517, 0.8800000417977571, 0.41600001975893974, 0.4000000189989805, 0.0, 0.0, 0.0, 0.0, 0.0, 1.710394121223647E9, 0.0, 2024-03-13 22:28:41.223
29.0, -663.0805222438648, -302.6551438141614, -403.6455322676338, -317.92702528322116, 0.8800000417977571, 0.41600001975893974, 0.4000000189989805, 0.0, 0.0, 0.0, 0.0, 0.0, 1.710394121223647E9, 0.0, 2024-03-13 22:28:41.223
30.0, -654.4263937463984, -299.102238856256, -386.3858939721249, -305.2450245334767, 0.8800000417977571, 0.41600001975893974, 0.3840000182390213, 0.0, 0.0, 0.0, 0.0, 0.0, 1.7103941212243445E9, 0.0, 2024-03-13 22:28:41.224
30.0, -660.7842236710712, -301.7725274246186, -396.9810305465944, -313.4690645360388, 0.8800000417977571, 0.41600001975893974, 0.3840000182390213, 0.0, 0.0, 0.0, 0.0, 0.0, 1.7103941212243445E9, 0.0, 2024-03-13 22:28:41.224
31.0, -651.2549585839733, -293.4662096230313, -407.5088489218615, -311.71131155686453, 0.8800000417977571, 0.41600001975893974, 0.3840000182390213, 0.0, 0.0, 0.0, 0.0, 0.0, 1.710394121237763E9, 0.0, 2024-03-13 22:28:41.237
31.0, -647.4103414295241, -287.9872561879456, -395.8665403597988, -302.78043046267703, 0.8800000417977571, 0.41600001975893974, 0.3840000182390213, 0.0, 0.0, 0.0, 0.0, 0.0, 1.710394121237763E9, 0.0, 2024-03-13 22:28:41.237
32.0, -652.9940120633692, -284.6437856275588, -389.9724580296315, -304.18289294606075, 0.8800000417977571, 0.41600001975893974, 0.3840000182390213, 0.0, 0.0, 0.0, 0.0, 0.0, 1.7103941212537444E9, 0.0, 2024-03-13 22:28:41.253
32.0, -645.2038004556671, -293.3652323242277, -401.4651705934666, -305.69755242811516, 0.8800000417977571, 0.41600001975893974, 0.3840000182390213, 0.0, 0.0, 0.0, 0.0, 0.0, 1.7103941212537444E9, 0.0, 2024-03-13 22:28:41.253
33.0, -646.6100028390065, -285.9228314124048, -388.10998785169795, -304.384847543668, 0.8800000417977571, 0.41600001975893974, 0.3840000182390213, 0.0, 0.0, 0.0, 0.0, 0.0, 1.7103941212542717E9, 0.0, 2024-03-13 22:28:41.254
33.0, -648.8053241129965, -293.79158091917634, -388.88414714252576, -306.69610571628436, 0.8800000417977571, 0.41600001975893974, 0.3840000182390213, 0.0, 0.0, 0.0, 0.0, 0.0, 1.7103941212542717E9, 0.0, 2024-03-13 22:28:41.254
34.0, -660.268117477186, -289.2962211724371, -398.7313037258573, -309.9872176772915, 0.8800000417977571, 0.41600001975893974, 0.3840000182390213, 0.0, 0.0, 0.0, 0.0, 0.0, 1.7103941212680144E9, 0.0, 2024-03-13 22:28:41.268
34.0, -649.6542814029381, -295.5381141984835, -394.8044087723829, -304.73639813950285, 0.8800000417977571, 0.41600001975893974, 0.3840000182390213, 0.0, 0.0, 0.0, 0.0, 0.0, 1.7103941212680144E9, 0.0, 2024-03-13 22:28:41.268
35.0, -648.3677558181807, -290.406971459277, -382.1224080226384, -300.81698298593983, 0.8800000417977571, 0.41600001975893974, 0.3840000182390213, 0.0, 0.0, 0.0, 0.0, 0.0, 1.7103941212833724E9, 0.0, 2024-03-13 22:28:41.283
35.0, -645.2337196553126, -284.70362402684987, -382.40664041927084, -297.58944932417944, 0.8800000417977571, 0.41600001975893974, 0.3840000182390213, 0.0, 0.0, 0.0, 0.0, 0.0, 1.7103941212833724E9, 0.0, 2024-03-13 22:28:41.283
36.0, -639.5228924229741, -283.19270444475114, -388.7644703439437, -293.1950668762438, 0.8800000417977571, 0.41600001975893974, 0.3840000182390213, 0.0, 0.0, 0.0, 0.0, 0.0, 1.7103941212840543E9, 0.0, 2024-03-13 22:28:41.284
36.0, -648.3864553179592, -287.3140741959214, -378.70039956318215, -293.8719887682237, 0.8800000417977571, 0.41600001975893974, 0.3840000182390213, 0.0, 0.0, 0.0, 0.0, 0.0, 1.7103941212840543E9, 0.0, 2024-03-13 22:28:41.284
37.0, -664.9055934222415, -301.08438583277166, -392.4744510999881, -311.4981372593902, 0.8800000417977571, 0.41600001975893974, 0.3840000182390213, 0.0, 0.0, 0.0, 0.0, 0.0, 1.7103941212978773E9, 0.0, 2024-03-13 22:28:41.297
37.0, -668.5407761791721, -312.49856049753726, -401.5773675921373, -315.5447090114467, 0.8800000417977571, 0.41600001975893974, 0.3840000182390213, 0.0, 0.0, 0.0, 0.0, 0.0, 1.7103941212978773E9, 0.0, 2024-03-13 22:28:41.297
38.0, -662.1006684554741, -308.13035734929144, -391.2066250150092, -309.07842198805884, 0.8800000417977571, 0.41600001975893974, 0.3840000182390213, 0.0, 0.0, 0.0, 0.0, 0.0, 1.7103941213133924E9, 0.0, 2024-03-13 22:28:41.313
38.0, -676.200091288425, -306.35016497038305, -390.6493799216114, -305.55917612975463, 0.8800000417977571, 0.41600001975893974, 0.3840000182390213, 0.0, 0.0, 0.0, 0.0, 0.0, 1.7103941213133924E9, 0.0, 2024-03-13 22:28:41.313
39.0, -669.8011224642396, -307.3225389588624, -403.2191836726852, -313.9477717303671, 0.8800000417977571, 0.41600001975893974, 0.3840000182390213, 0.0, 0.0, 0.0, 0.0, 0.0, 1.7103941213140633E9, 0.0, 2024-03-13 22:28:41.314
39.0, -656.7002529194579, -295.49697529897094, -404.34115365939215, -312.81458204379305, 0.8800000417977571, 0.41600001975893974, 0.3840000182390213, 0.0, 0.0, 0.0, 0.0, 0.0, 1.7103941213140633E9, 0.0, 2024-03-13 22:28:41.314
40.0, -659.508917786181, -297.3332661772147, -394.52391627570614, -309.5421695825644, 0.8800000417977571, 0.41600001975893974, 0.4000000189989805, 0.0, 0.0, 0.0, 0.0, 0.0, 1.7103941213276935E9, 0.0, 2024-03-13 22:28:41.327
40.0, -657.8259628061205, -291.1811307501048, -402.3664864827879, -305.8396686264314, 0.8800000417977571, 0.41600001975893974, 0.4000000189989805, 0.0, 0.0, 0.0, 0.0, 0.0, 1.7103941213276935E9, 0.0, 2024-03-13 22:28:41.327
41.0, -658.7310185953975, -293.9935355167836, -407.30689432425424, -315.03234271751717, 0.8800000417977571, 0.41600001975893974, 0.4000000189989805, 0.0, 0.0, 0.0, 0.0, 0.0, 1.7103941213438945E9, 0.0, 2024-03-13 22:28:41.343
41.0, -667.9199527865276, -304.4128967933357, -402.74421637831256, -320.15226575685665, 0.8800000417977571, 0.41600001975893974, 0.4000000189989805, 0.0, 0.0, 0.0, 0.0, 0.0, 1.7103941213438945E9, 0.0, 2024-03-13 22:28:41.343
42.0, -668.9633848741651, -305.964955274947, -409.44611709890887, -325.3956054947339, 0.8800000417977571, 0.41600001975893974, 0.4000000189989805, 0.0, 0.0, 0.0, 0.0, 0.0, 1.7103941213442664E9, 0.0, 2024-03-13 22:28:41.344
42.0, -666.5661090025678, -311.0811384143308, -421.24176155915484, -327.22815647302195, 0.8800000417977571, 0.41600001975893974, 0.4000000189989805, 0.0, 0.0, 0.0, 0.0, 0.0, 1.7103941213442664E9, 0.0, 2024-03-13 22:28:41.344
43.0, -664.453065527603, -307.2664404595271, -407.93519751681015, -320.78430884936824, 0.8800000417977571, 0.41600001975893974, 0.4000000189989805, 0.0, 0.0, 0.0, 0.0, 0.0, 1.710394121357988E9, 0.0, 2024-03-13 22:28:41.357
43.0, -667.6058011902496, -304.143623996526, -398.56300822785124, -318.1626389804296, 0.8800000417977571, 0.41600001975893974, 0.4000000189989805, 0.0, 0.0, 0.0, 0.0, 0.0, 1.710394121357988E9, 0.0, 2024-03-13 22:28:41.357
44.0, -657.422053610906, -301.38357782922685, -401.424031693954, -313.4915039357729, 0.8800000417977571, 0.41600001975893974, 0.4000000189989805, 0.0, 0.0, 0.0, 0.0, 0.0, 1.7103941213737805E9, 0.0, 2024-03-13 22:28:41.373
44.0, -661.8500951584429, -298.71702916081995, -409.60693279700354, -316.7639163970016, 0.8800000417977571, 0.41600001975893974, 0.4000000189989805, 0.0, 0.0, 0.0, 0.0, 0.0, 1.7103941213737805E9, 0.0, 2024-03-13 22:28:41.373
45.0, -662.5195372505113, -302.587825614959, -393.2411305909045, -314.9388452186249, 0.8800000417977571, 0.41600001975893974, 0.4000000189989805, 0.0, 0.0, 0.0, 0.0, 0.0, 1.710394121374263E9, 0.0, 2024-03-13 22:28:41.374
45.0, -662.7626307476312, -302.0642396211624, -401.0575214982964, -320.66463205078617, 0.8800000417977571, 0.41600001975893974, 0.4000000189989805, 0.0, 0.0, 0.0, 0.0, 0.0, 1.710394121374263E9, 0.0, 2024-03-13 22:28:41.374
46.0, -658.8020766945556, -298.45897606387734, -407.86413941765204, -318.3982526776381, 0.8800000417977571, 0.41600001975893974, 0.4000000189989805, 0.0, 0.0, 0.0, 0.0, 0.0, 1.7103941213880427E9, 0.0, 2024-03-13 22:28:41.388
46.0, -647.2270863316953, -292.49757553450763, -399.92433181172237, -315.7541434089653, 0.8800000417977571, 0.41600001975893974, 0.4000000189989805, 0.0, 0.0, 0.0, 0.0, 0.0, 1.7103941213880427E9, 0.0, 2024-03-13 22:28:41.388
47.0, -658.4879250982776, -297.4791222754866, -404.6216461560689, -320.78430884936824, 0.8800000417977571, 0.41600001975893974, 0.4000000189989805, 0.0, 0.0, 0.0, 0.0, 0.0, 1.7103941214033723E9, 0.0, 2024-03-13 22:28:41.403
47.0, -665.7882098117843, -311.72814110666513, -420.02255417359993, -328.8774523534812, 0.8800000417977571, 0.41600001975893974, 0.4000000189989805, 0.0, 0.0, 0.0, 0.0, 0.0, 1.7103941214033723E9, 0.0, 2024-03-13 22:28:41.403
48.0, -660.7094256719574, -308.1752361487597, -412.93544375756755, -327.4675100701861, 0.8800000417977571, 0.41600001975893974, 0.4000000189989805, 0.0, 0.0, 0.0, 0.0, 0.0, 1.7103941214040964E9, 0.0, 2024-03-13 22:28:41.404
48.0, -661.6743198605254, -305.78917997702956, -410.3960516876541, -324.78226190200076, 0.8800000417977571, 0.41600001975893974, 0.4000000189989805, 0.0, 0.0, 0.0, 0.0, 0.0, 1.7103941214040964E9, 0.0, 2024-03-13 22:28:41.404
49.0, -664.4904645271599, -316.31699835229665, -418.4480562922545, -330.45943003473803, 0.8800000417977571, 0.41600001975893974, 0.4000000189989805, 0.0, 0.0, 0.0, 0.0, 0.0, 1.7103941214176965E9, 0.0, 2024-03-13 22:28:41.417
49.0, -661.3713879641145, -312.35644429922104, -419.94401627453044, -330.3247936363332, 0.8800000417977571, 0.41600001975893974, 0.4000000189989805, 0.0, 0.0, 0.0, 0.0, 0.0, 1.7103941214176965E9, 0.0, 2024-03-13 22:28:41.417
50.0, -657.6988062076271, -306.024793674238, -409.19928370183334, -316.08325460506603, 0.8800000417977571, 0.41600001975893974, 0.4000000189989805, 0.0, 0.0, 0.0, 0.0, 0.0, 1.7103941214334583E9, 0.0, 2024-03-13 22:28:41.433
50.0, -660.7056857720017, -307.9620618512854, -404.7637623543851, -320.5412153522484, 0.8800000417977571, 0.41600001975893974, 0.4000000189989805, 0.0, 0.0, 0.0, 0.0, 0.0, 1.7103941214334583E9, 0.0, 2024-03-13 22:28:41.433
51.0, -654.2880174480379, -313.68784868344665, -416.4023310164921, -323.14792562136427, 0.8800000417977571, 0.41600001975893974, 0.4000000189989805, 0.0, 0.0, 0.0, 0.0, 0.0, 1.7103941214342754E9, 0.0, 2024-03-13 22:28:41.434
51.0, -664.5540428264067, -310.06014572642744, -406.6561517319642, -323.19654432078823, 0.8800000417977571, 0.41600001975893974, 0.4000000189989805, 0.0, 0.0, 0.0, 0.0, 0.0, 1.7103941214342754E9, 0.0, 2024-03-13 22:28:41.434
52.0, -669.3560743695125, -313.0296262912452, -403.63431256776676, -323.3872792185284, 0.8800000417977571, 0.41600001975893974, 0.4000000189989805, 0.0, 0.0, 0.0, 0.0, 0.0, 1.7103941214483392E9, 0.0, 2024-03-13 22:28:41.448
52.0, -664.3707877285779, -306.881230764091, -427.90626328019425, -332.7594685074873, 0.8800000417977571, 0.41600001975893974, 0.4000000189989805, 0.0, 0.0, 0.0, 0.0, 0.0, 1.7103941214483392E9, 0.0, 2024-03-13 22:28:41.448
53.0, -660.5673094736412, -309.0316732386127, -413.0401609563269, -322.0334354345687, 0.8800000417977571, 0.41600001975893974, 0.4000000189989805, 0.0, 0.0, 0.0, 0.0, 0.0, 1.710394121463375E9, 0.0, 2024-03-13 22:28:41.463
53.0, -664.4343660278246, -310.2134816246107, -404.68148455535993, -322.03717533452436, 0.8800000417977571, 0.41600001975893974, 0.4000000189989805, 0.0, 0.0, 0.0, 0.0, 0.0, 1.710394121463375E9, 0.0, 2024-03-13 22:28:41.463
54.0, -670.7996757524088, -314.0393992792815, -418.93424328649417, -333.4700494990684, 0.8800000417977571, 0.41600001975893974, 0.4000000189989805, 0.0, 0.0, 0.0, 0.0, 0.0, 1.710394121464062E9, 0.0, 2024-03-13 22:28:41.464
54.0, -662.1754664545879, -313.8262249818072, -423.0780524373986, -332.4827159107663, 0.8800000417977571, 0.41600001975893974, 0.4000000189989805, 0.0, 0.0, 0.0, 0.0, 0.0, 1.710394121464062E9, 0.0, 2024-03-13 22:28:41.464
55.0, -660.0212840801105, -308.24255434796214, -412.86064575845376, -327.03742157528177, 0.8800000417977571, 0.41600001975893974, 0.4000000189989805, 0.0, 0.0, 0.0, 0.0, 0.0, 1.7103941214781575E9, 0.0, 2024-03-13 22:28:41.478
55.0, -660.8029231708497, -312.188148801215, -415.42247722810134, -330.86707912990823, 0.8800000417977571, 0.41600001975893974, 0.4000000189989805, 0.0, 0.0, 0.0, 0.0, 0.0, 1.7103941214781575E9, 0.0, 2024-03-13 22:28:41.478
56.0, -659.3555818879977, -306.46610186900944, -420.79671346442774, -324.6476255035959, 0.8800000417977571, 0.41600001975893974, 0.4000000189989805, 0.0, 0.0, 0.0, 0.0, 0.0, 1.7103941214933488E9, 0.0, 2024-03-13 22:28:41.493
56.0, -661.9697719570249, -313.0483257910237, -418.2984602940269, -324.33721380727366, 0.8800000417977571, 0.41600001975893974, 0.4000000189989805, 0.0, 0.0, 0.0, 0.0, 0.0, 1.7103941214933488E9, 0.0, 2024-03-13 22:28:41.493
57.0, -664.2024922305718, -307.5992915555835, -408.86643260577694, -322.0184758347459, 0.8800000417977571, 0.41600001975893974, 0.4000000189989805, 0.0, 0.0, 0.0, 0.0, 0.0, 1.710394121494024E9, 0.0, 2024-03-13 22:28:41.494
57.0, -658.9928115922958, -296.473089187406, -416.9857554095797, -321.67440503882244, 0.8800000417977571, 0.41600001975893974, 0.4000000189989805, 0.0, 0.0, 0.0, 0.0, 0.0, 1.710394121494024E9, 0.0, 2024-03-13 22:28:41.494
58.0, -660.9450393691659, -308.7100418424234, -408.8701725057326, -320.85536694852635, 0.8800000417977571, 0.41600001975893974, 0.4000000189989805, 0.0, 0.0, 0.0, 0.0, 0.0, 1.7103941215080976E9, 0.0, 2024-03-13 22:28:41.508
58.0, -671.6935118418187, -309.08403183799237, -403.4248781702481, -321.8464404367842, 0.8800000417977571, 0.41600001975893974, 0.4000000189989805, 0.0, 0.0, 0.0, 0.0, 0.0, 1.7103941215080976E9, 0.0, 2024-03-13 22:28:41.508
59.0, -671.7159512415528, -311.08861821424216, -413.8068404472433, -328.00231576384977, 0.8800000417977571, 0.41600001975893974, 0.4000000189989805, 0.0, 0.0, 0.0, 0.0, 0.0, 1.7103941215396855E9, 0.0, 2024-03-13 22:28:41.539
59.0, -667.4599450919777, -304.93648278713226, -418.635051290039, -330.15649813832715, 0.8800000417977571, 0.41600001975893974, 0.4000000189989805, 0.0, 0.0, 0.0, 0.0, 0.0, 1.7103941215396855E9, 0.0, 2024-03-13 22:28:41.539
60.0, -664.3371286289766, -313.72524768300354, -407.89031871734187, -325.4778832937591, 0.8800000417977571, 0.41600001975893974, 0.4000000189989805, 0.0, 0.0, 0.0, 0.0, 0.0, 1.710394121540501E9, 0.0, 2024-03-13 22:28:41.540
60.0, -679.0648546544835, -318.4150822274387, -419.1885564834811, -336.7013230607845, 0.8800000417977571, 0.41600001975893974, 0.4000000189989805, 0.0, 0.0, 0.0, 0.0, 0.0, 1.710394121540501E9, 0.0, 2024-03-13 22:28:41.540
61.0, -674.9921036027372, -321.9305881857872, -422.6217846428044, -336.8733584587462, 0.8800000417977571, 0.41600001975893974, 0.4000000189989805, 0.0, 0.0, 0.0, 0.0, 0.0, 1.7103941215413716E9, 0.0, 2024-03-13 22:28:41.541
61.0, -664.5091640269384, -309.4729814333841, -411.2786680771969, -322.5458017284982, 0.8800000417977571, 0.41600001975893974, 0.4000000189989805, 0.0, 0.0, 0.0, 0.0, 0.0, 1.7103941215413716E9, 0.0, 2024-03-13 22:28:41.541
62.0, -672.3517342340201, -308.04807955026627, -410.75134218344465, -325.1749513973482, 0.8800000417977571, 0.41600001975893974, 0.4000000189989805, 0.0, 0.0, 0.0, 0.0, 0.0, 1.7103941215419395E9, 0.0, 2024-03-13 22:28:41.541
62.0, -663.1291409432888, -309.6973754307255, -419.6298646782525, -323.73882981436327, 0.8800000417977571, 0.41600001975893974, 0.4000000189989805, 0.0, 0.0, 0.0, 0.0, 0.0, 1.7103941215419395E9, 0.0, 2024-03-13 22:28:41.541
63.0, -672.6958050299436, -308.220114948228, -411.3310266765766, -324.3633931069635, 0.8800000417977571, 0.41600001975893974, 0.4000000189989805, 0.0, 0.0, 0.0, 0.0, 0.0, 1.710394121568408E9, 0.0, 2024-03-13 22:28:41.568
63.0, -665.3469016170129, -307.79002645332366, -408.2194299134426, -318.8021618728526, 0.8800000417977571, 0.41600001975893974, 0.4000000189989805, 0.0, 0.0, 0.0, 0.0, 0.0, 1.710394121568408E9, 0.0, 2024-03-13 22:28:41.568
64.0, -668.7539504766464, -309.4468021336943, -414.04619404440746, -324.89071900071576, 0.8800000417977571, 0.41600001975893974, 0.4000000189989805, 0.0, 0.0, 0.0, 0.0, 0.0, 1.710394121569084E9, 0.0, 2024-03-13 22:28:41.569
64.0, -663.9743583332747, -315.6587759600952, -420.0636930731125, -328.30898756021634, 0.8800000417977571, 0.41600001975893974, 0.4000000189989805, 0.0, 0.0, 0.0, 0.0, 0.0, 1.710394121569084E9, 0.0, 2024-03-13 22:28:41.569
65.0, -660.5635695736855, -304.4802149925381, -406.0241086394526, -323.536875216756, 0.8800000417977571, 0.41600001975893974, 0.4000000189989805, 0.0, 0.0, 0.0, 0.0, 0.0, 1.710394121583341E9, 0.0, 2024-03-13 22:28:41.583
65.0, -666.1397604076192, -311.24195411242545, -411.8845318700187, -325.38438579486683, 0.8800000417977571, 0.41600001975893974, 0.4000000189989805, 0.0, 0.0, 0.0, 0.0, 0.0, 1.710394121583341E9, 0.0, 2024-03-13 22:28:41.583
66.0, -661.0422767680138, -303.8406921001151, -417.64397780178115, -323.22272362047806, 0.8800000417977571, 0.41600001975893974, 0.4000000189989805, 0.0, 0.0, 0.0, 0.0, 0.0, 1.7103941215840447E9, 0.0, 2024-03-13 22:28:41.584
66.0, -657.8110032062978, -303.0328737096861, -404.5094491573982, -317.6465327865444, 0.8800000417977571, 0.41600001975893974, 0.4000000189989805, 0.0, 0.0, 0.0, 0.0, 0.0, 1.7103941215840447E9, 0.0, 2024-03-13 22:28:41.584
67.0, -671.6074941428378, -316.50399335008115, -405.78475504228845, -327.1683180737309, 0.8800000417977571, 0.41600001975893974, 0.4000000189989805, 0.0, 0.0, 0.0, 0.0, 0.0, 1.710394121597953E9, 0.0, 2024-03-13 22:28:41.597
67.0, -672.2881559347734, -312.08717150241137, -415.79646722367033, -326.5175754814409, 0.8800000417977571, 0.41600001975893974, 0.4000000189989805, 0.0, 0.0, 0.0, 0.0, 0.0, 1.710394121597953E9, 0.0, 2024-03-13 22:28:41.597
68.0, -664.1912725307047, -311.006340415217, -411.53672117413953, -323.26386251999065, 0.8800000417977571, 0.41600001975893974, 0.4000000189989805, 0.0, 0.0, 0.0, 0.0, 0.0, 1.7103941216133776E9, 0.0, 2024-03-13 22:28:41.613
68.0, -658.6001220969483, -306.65309686679393, -400.25718290777877, -320.847887148615, 0.8800000417977571, 0.41600001975893974, 0.4000000189989805, 0.0, 0.0, 0.0, 0.0, 0.0, 1.7103941216133776E9, 0.0, 2024-03-13 22:28:41.613
69.0, -665.8106492115185, -317.55490523763, -412.1313652670942, -327.2805150724016, 0.8800000417977571, 0.41600001975893974, 0.4000000189989805, 0.0, 0.0, 0.0, 0.0, 0.0, 1.710394121614183E9, 0.0, 2024-03-13 22:28:41.614
69.0, -662.4335195515305, -307.146763660945, -414.027494544629, -322.6430391273461, 0.8800000417977571, 0.41600001975893974, 0.4000000189989805, 0.0, 0.0, 0.0, 0.0, 0.0, 1.710394121614183E9, 0.0, 2024-03-13 22:28:41.614
70.0, -667.3215687936172, -307.34871825855225, -402.71803707862273, -321.74920303793624, 0.8800000417977571, 0.41600001975893974, 0.4000000189989805, 0.0, 0.0, 0.0, 0.0, 0.0, 1.7103941216277115E9, 0.0, 2024-03-13 22:28:41.627
70.0, -666.0537427086383, -310.8866636166349, -407.9501571166329, -326.9813230759464, 0.8800000417977571, 0.41600001975893974, 0.4000000189989805, 0.0, 0.0, 0.0, 0.0, 0.0, 1.7103941216277115E9, 0.0, 2024-03-13 22:28:41.627
71.0, -665.743331012316, -307.1841626605019, -427.82772538112476, -331.6636778204702, 0.8800000417977571, 0.41600001975893974, 0.4000000189989805, 0.0, 0.0, 0.0, 0.0, 0.0, 1.7103941216597304E9, 0.0, 2024-03-13 22:28:41.659
71.0, -660.8403221704066, -307.9209229517728, -406.6524118320085, -325.41056509455666, 0.8800000417977571, 0.41600001975893974, 0.4000000189989805, 0.0, 0.0, 0.0, 0.0, 0.0, 1.7103941216597304E9, 0.0, 2024-03-13 22:28:41.659
72.0, -662.1679866546765, -301.5855324268341, -406.85436642961577, -325.1712114973925, 0.8800000417977571, 0.41600001975893974, 0.4000000189989805, 0.0, 0.0, 0.0, 0.0, 0.0, 1.7103941216606421E9, 0.0, 2024-03-13 22:28:41.660
72.0, -662.4746584510431, -303.4704420045018, -421.49607475614175, -320.04754855809733, 0.8800000417977571, 0.41600001975893974, 0.4000000189989805, 0.0, 0.0, 0.0, 0.0, 0.0, 1.7103941216606421E9, 0.0, 2024-03-13 22:28:41.660
73.0, -653.5662167565897, -290.16013806220144, -403.34634027117863, -313.3493877374567, 0.8800000417977571, 0.41600001975893974, 0.4000000189989805, 0.0, 0.0, 0.0, 0.0, 0.0, 1.7103941216612327E9, 0.0, 2024-03-13 22:28:41.661
73.0, -653.3754818588495, -289.8085874663666, -393.9442317825742, -307.43660590751097, 0.8800000417977571, 0.41600001975893974, 0.4000000189989805, 0.0, 0.0, 0.0, 0.0, 0.0, 1.7103941216612327E9, 0.0, 2024-03-13 22:28:41.661
74.0, -655.757798130624, -300.8188529359177, -401.74940299009904, -316.1393531044014, 0.8800000417977571, 0.41600001975893974, 0.4000000189989805, 0.0, 0.0, 0.0, 0.0, 0.0, 1.7103941216619327E9, 0.0, 2024-03-13 22:28:41.661
74.0, -658.2934503005818, -300.8562519354746, -411.8059939709492, -325.7284565907903, 0.8800000417977571, 0.41600001975893974, 0.4000000189989805, 0.0, 0.0, 0.0, 0.0, 0.0, 1.7103941216619327E9, 0.0, 2024-03-13 22:28:41.661
75.0, -657.5866092089564, -297.63993797358125, -400.1636854088865, -316.4273254009895, 0.8800000417977571, 0.41600001975893974, 0.4000000189989805, 0.0, 0.0, 0.0, 0.0, 0.0, 1.7103941216885772E9, 0.0, 2024-03-13 22:28:41.688
75.0, -656.180406825617, -299.87265824712813, -398.0992606333457, -316.92847199505195, 0.8800000417977571, 0.41600001975893974, 0.4000000189989805, 0.0, 0.0, 0.0, 0.0, 0.0, 1.7103941216885772E9, 0.0, 2024-03-13 22:28:41.688
76.0, -658.5103644980118, -304.3268790943548, -411.11411247914657, -322.6579987271689, 0.8800000417977571, 0.41600001975893974, 0.4000000189989805, 0.0, 0.0, 0.0, 0.0, 0.0, 1.7103941216891096E9, 0.0, 2024-03-13 22:28:41.689
76.0, -653.0239312630147, -300.23542854283005, -391.6928120092489, -312.29847584990785, 0.8800000417977571, 0.41600001975893974, 0.4000000189989805, 0.0, 0.0, 0.0, 0.0, 0.0, 1.7103941216891096E9, 0.0, 2024-03-13 22:28:41.689
77.0, -660.9824383687228, -302.67758321389556, -397.67291203839704, -320.6197532513179, 0.8800000417977571, 0.41600001975893974, 0.4000000189989805, 0.0, 0.0, 0.0, 0.0, 0.0, 1.710394121703592E9, 0.0, 2024-03-13 22:28:41.703
77.0, -665.2683637179434, -304.9888413865119, -413.111219055485, -329.71518994355574, 0.8800000417977571, 0.41600001975893974, 0.4000000189989805, 0.0, 0.0, 0.0, 0.0, 0.0, 1.710394121703592E9, 0.0, 2024-03-13 22:28:41.703
78.0, -663.8322421349585, -309.38696373440325, -406.622492632363, -327.26555547257885, 0.8800000417977571, 0.41600001975893974, 0.4000000189989805, 0.0, 0.0, 0.0, 0.0, 0.0, 1.7103941217040527E9, 0.0, 2024-03-13 22:28:41.704
78.0, -658.1513341022655, -298.8030468598008, -392.48941069981083, -316.88733309553936, 0.8800000417977571, 0.41600001975893974, 0.4000000189989805, 0.0, 0.0, 0.0, 0.0, 0.0, 1.7103941217040527E9, 0.0, 2024-03-13 22:28:41.704
79.0, -661.2778904652223, -306.08837197348475, -403.03966847481206, -320.56739465193823, 0.8800000417977571, 0.41600001975893974, 0.4000000189989805, 0.0, 0.0, 0.0, 0.0, 0.0, 1.7103941217176976E9, 0.0, 2024-03-13 22:28:41.717
79.0, -660.0474633798003, -302.94311611074954, -408.6869174079038, -323.2002842207439, 0.8800000417977571, 0.41600001975893974, 0.4000000189989805, 0.0, 0.0, 0.0, 0.0, 0.0, 1.7103941217176976E9, 0.0, 2024-03-13 22:28:41.717
80.0, -660.582269073464, -302.75238121300936, -394.45285817654803, -319.00037657050416, 0.8800000417977571, 0.41600001975893974, 0.3840000182390213, 0.0, 0.0, 0.0, 0.0, 0.0, 1.7103941217334523E9, 0.0, 2024-03-13 22:28:41.733
80.0, -664.5353433266282, -311.4364289101213, -398.62658652709797, -318.56280827568844, 0.8800000417977571, 0.41600001975893974, 0.3840000182390213, 0.0, 0.0, 0.0, 0.0, 0.0, 1.7103941217334523E9, 0.0, 2024-03-13 22:28:41.733
81.0, -656.7787908185273, -299.5024081515148, -405.26490894844756, -317.77368938503787, 0.8800000417977571, 0.41600001975893974, 0.3840000182390213, 0.0, 0.0, 0.0, 0.0, 0.0, 1.7103941217340703E9, 0.0, 2024-03-13 22:28:41.734
81.0, -658.0166977038607, -297.6137586738914, -393.14763309201226, -312.74726384459063, 0.8800000417977571, 0.41600001975893974, 0.3840000182390213, 0.0, 0.0, 0.0, 0.0, 0.0, 1.7103941217340703E9, 0.0, 2024-03-13 22:28:41.734
82.0, -651.838382977061, -298.0737663684413, -391.1991452150978, -312.0179833532311, 0.8800000417977571, 0.41600001975893974, 0.3840000182390213, 0.0, 0.0, 0.0, 0.0, 0.0, 1.7103941217477555E9, 0.0, 2024-03-13 22:28:41.747
82.0, -657.9867785042152, -296.00560169294477, -405.8109343419783, -318.67500527435914, 0.8800000417977571, 0.41600001975893974, 0.3840000182390213, 0.0, 0.0, 0.0, 0.0, 0.0, 1.7103941217477555E9, 0.0, 2024-03-13 22:28:41.747
83.0, -649.9497334994376, -284.0902804341167, -397.3176215426065, -307.8330353028141, 0.8800000417977571, 0.41600001975893974, 0.3840000182390213, 0.0, 0.0, 0.0, 0.0, 0.0, 1.710394121763372E9, 0.0, 2024-03-13 22:28:41.763
83.0, -643.7863783724606, -286.921384700574, -382.06630952330306, -299.29110380401835, 0.8800000417977571, 0.41600001975893974, 0.3840000182390213, 0.0, 0.0, 0.0, 0.0, 0.0, 1.710394121763372E9, 0.0, 2024-03-13 22:28:41.763
84.0, -648.3827154180035, -291.93285064119846, -394.73709057318047, -308.2668636976741, 0.8800000417977571, 0.41600001975893974, 0.3840000182390213, 0.0, 0.0, 0.0, 0.0, 0.0, 1.710394121764054E9, 0.0, 2024-03-13 22:28:41.764
84.0, -647.7955511249602, -293.8028006190434, -398.6565057267435, -308.3154823970981, 0.8800000417977571, 0.41600001975893974, 0.3840000182390213, 0.0, 0.0, 0.0, 0.0, 0.0, 1.710394121764054E9, 0.0, 2024-03-13 22:28:41.764
85.0, -646.9877327345312, -284.400692130439, -381.2697108327411, -302.62709456449375, 0.8800000417977571, 0.41600001975893974, 0.3840000182390213, 0.0, 0.0, 0.0, 0.0, 0.0, 1.710394121777716E9, 0.0, 2024-03-13 22:28:41.777
85.0, -649.2840313073248, -284.1426390334964, -383.78292360296473, -302.1184681705199, 0.8800000417977571, 0.41600001975893974, 0.3840000182390213, 0.0, 0.0, 0.0, 0.0, 0.0, 1.710394121777716E9, 0.0, 2024-03-13 22:28:41.777
86.0, -655.4025076348335, -286.04250821098685, -402.26176928402856, -310.40982637228444, 0.8800000417977571, 0.41600001975893974, 0.3840000182390213, 0.0, 0.0, 0.0, 0.0, 0.0, 1.7103941217935505E9, 0.0, 2024-03-13 22:28:41.793
86.0, -652.1525345733389, -290.82958015426993, -387.3956669601612, -304.4671253426932, 0.8800000417977571, 0.41600001975893974, 0.3840000182390213, 0.0, 0.0, 0.0, 0.0, 0.0, 1.7103941217935505E9, 0.0, 2024-03-13 22:28:41.793
87.0, -651.6850470788777, -288.64173868019134, -395.01010326994583, -308.8689875905402, 0.8800000417977571, 0.41600001975893974, 0.3840000182390213, 0.0, 0.0, 0.0, 0.0, 0.0, 1.7103941217941637E9, 0.0, 2024-03-13 22:28:41.794
87.0, -651.8570824768394, -285.30948781967163, -400.89670580020174, -312.25359705043957, 0.8800000417977571, 0.41600001975893974, 0.3840000182390213, 0.0, 0.0, 0.0, 0.0, 0.0, 1.7103941217941637E9, 0.0, 2024-03-13 22:28:41.794
88.0, -649.4785061050206, -294.37874521221966, -399.81961461296305, -316.6031006989069, 0.8800000417977571, 0.41600001975893974, 0.3840000182390213, 0.0, 0.0, 0.0, 0.0, 0.0, 1.710394121807844E9, 0.0, 2024-03-13 22:28:41.807
88.0, -662.0969285555184, -298.7245089607313, -395.6982448617928, -312.5079102474265, 0.8800000417977571, 0.41600001975893974, 0.3840000182390213, 0.0, 0.0, 0.0, 0.0, 0.0, 1.710394121807844E9, 0.0, 2024-03-13 22:28:41.807
89.0, -662.8673479463905, -297.42302377615124, -407.07502052700147, -318.18133848020807, 0.8800000417977571, 0.41600001975893974, 0.3840000182390213, 0.0, 0.0, 0.0, 0.0, 0.0, 1.7103941218236082E9, 0.0, 2024-03-13 22:28:41.823
89.0, -656.1617073258385, -295.2127429023385, -406.27468193648383, -321.8763596364297, 0.8800000417977571, 0.41600001975893974, 0.3840000182390213, 0.0, 0.0, 0.0, 0.0, 0.0, 1.7103941218236082E9, 0.0, 2024-03-13 22:28:41.823
90.0, -653.4652394577861, -302.0604997212067, -394.52391627570614, -312.32839504955336, 0.8800000417977571, 0.41600001975893974, 0.4000000189989805, 0.0, 0.0, 0.0, 0.0, 0.0, 1.7103941218243873E9, 0.0, 2024-03-13 22:28:41.824
90.0, -660.7281251717359, -303.5190607039258, -403.8325272654183, -321.42009184183553, 0.8800000417977571, 0.41600001975893974, 0.4000000189989805, 0.0, 0.0, 0.0, 0.0, 0.0, 1.7103941218243873E9, 0.0, 2024-03-13 22:28:41.824
91.0, -666.3192756054923, -312.31530539970845, -416.9969751094468, -327.3216539719142, 0.8800000417977571, 0.41600001975893974, 0.4000000189989805, 0.0, 0.0, 0.0, 0.0, 0.0, 1.710394121838081E9, 0.0, 2024-03-13 22:28:41.838
91.0, -661.9548123572022, -309.1438702372834, -404.5805072565563, -321.10968014551327, 0.8800000417977571, 0.41600001975893974, 0.4000000189989805, 0.0, 0.0, 0.0, 0.0, 0.0, 1.710394121838081E9, 0.0, 2024-03-13 22:28:41.838
92.0, -656.2701644245535, -299.01248125731945, -395.33921446604654, -312.7697032443248, 0.8800000417977571, 0.41600001975893974, 0.4000000189989805, 0.0, 0.0, 0.0, 0.0, 0.0, 1.7103941218533835E9, 0.0, 2024-03-13 22:28:41.853
92.0, -657.145301014185, -299.102238856256, -410.915897781495, -316.55074209952727, 0.8800000417977571, 0.41600001975893974, 0.4000000189989805, 0.0, 0.0, 0.0, 0.0, 0.0, 1.7103941218533835E9, 0.0, 2024-03-13 22:28:41.853
93.0, -650.5892563918605, -299.9549360461533, -405.1452321498655, -314.48257742403075, 0.8800000417977571, 0.41600001975893974, 0.4000000189989805, 0.0, 0.0, 0.0, 0.0, 0.0, 1.7103941218542888E9, 0.0, 2024-03-13 22:28:41.854
93.0, -654.0112648513168, -299.8165597477928, -399.759776213672, -315.3951130132191, 0.8800000417977571, 0.41600001975893974, 0.4000000189989805, 0.0, 0.0, 0.0, 0.0, 0.0, 1.7103941218542888E9, 0.0, 2024-03-13 22:28:41.854
94.0, -664.8943737223744, -306.0023542745039, -410.4259708872996, -323.3910191184841, 0.8800000417977571, 0.41600001975893974, 0.4000000189989805, 0.0, 0.0, 0.0, 0.0, 0.0, 1.7103941218680532E9, 0.0, 2024-03-13 22:28:41.868
94.0, -653.8354895533994, -297.8157132714987, -405.2162902490236, -320.7319502499886, 0.8800000417977571, 0.41600001975893974, 0.4000000189989805, 0.0, 0.0, 0.0, 0.0, 0.0, 1.7103941218680532E9, 0.0, 2024-03-13 22:28:41.868
95.0, -659.3855010876432, -304.5512730916962, -398.22267733188346, -313.69719843333587, 0.8800000417977571, 0.41600001975893974, 0.4000000189989805, 0.0, 0.0, 0.0, 0.0, 0.0, 1.7103941218833768E9, 0.0, 2024-03-13 22:28:41.883
95.0, -657.1901798136532, -299.102238856256, -398.0319424341433, -313.77199643244967, 0.8800000417977571, 0.41600001975893974, 0.4000000189989805, 0.0, 0.0, 0.0, 0.0, 0.0, 1.7103941218833768E9, 0.0, 2024-03-13 22:28:41.883
96.0, -659.2172055896372, -298.78808725997806, -405.64263884397224, -314.18712532753125, 0.8800000417977571, 0.41600001975893974, 0.4000000189989805, 0.0, 0.0, 0.0, 0.0, 0.0, 1.7103941218842385E9, 0.0, 2024-03-13 22:28:41.884
96.0, -639.3508570250124, -282.6840780507773, -390.8625542190857, -303.0160441598855, 0.8800000417977571, 0.41600001975893974, 0.4000000189989805, 0.0, 0.0, 0.0, 0.0, 0.0, 1.7103941218842385E9, 0.0, 2024-03-13 22:28:41.884
97.0, -650.6453548911959, -289.50191567, -388.59243494598195, -304.66907994030043, 0.8800000417977571, 0.41600001975893974, 0.4000000189989805, 0.0, 0.0, 0.0, 0.0, 0.0, 1.7103941218977103E9, 0.0, 2024-03-13 22:28:41.897
97.0, -653.9177673524246, -292.37789873592556, -408.86643260577694, -315.3988529131748, 0.8800000417977571, 0.41600001975893974, 0.4000000189989805, 0.0, 0.0, 0.0, 0.0, 0.0, 1.7103941218977103E9, 0.0, 2024-03-13 22:28:41.897
98.0, -654.8789216410369, -288.4734431821853, -396.11711365683004, -307.92279290175065, 0.8800000417977571, 0.41600001975893974, 0.4000000189989805, 0.0, 0.0, 0.0, 0.0, 0.0, 1.710394121913462E9, 0.0, 2024-03-13 22:28:41.913
98.0, -661.0684560677037, -293.0323812281713, -392.40339300082996, -305.940645925235, 0.8800000417977571, 0.41600001975893974, 0.4000000189989805, 0.0, 0.0, 0.0, 0.0, 0.0, 1.710394121913462E9, 0.0, 2024-03-13 22:28:41.913
99.0, -661.6107415612787, -297.8867713706568, -408.39520521136, -314.5311961234547, 0.8800000417977571, 0.41600001975893974, 0.4000000189989805, 0.0, 0.0, 0.0, 0.0, 0.0, 1.710394121914298E9, 0.0, 2024-03-13 22:28:41.914
99.0, -662.0744891557842, -306.4511422691867, -412.71104976022616, -320.07372785778716, 0.8800000417977571, 0.41600001975893974, 0.4000000189989805, 0.0, 0.0, 0.0, 0.0, 0.0, 1.710394121914298E9, 0.0, 2024-03-13 22:28:41.914
100.0, -657.8521421058103, -297.4005843764171, -405.8333737417124, -316.33756780205294, 0.8800000417977571, 0.41600001975893974, 0.4000000189989805, 0.0, 0.0, 0.0, 0.0, 0.0, 1.710394121928354E9, 0.0, 2024-03-13 22:28:41.928
100.0, -662.29514325317, -294.2964674131945, -399.25862961960956, -311.9431853541173, 0.8800000417977571, 0.41600001975893974, 0.4000000189989805, 0.0, 0.0, 0.0, 0.0, 0.0, 1.710394121928354E9, 0.0, 2024-03-13 22:28:41.928
0.0, -651.7430155281909, -297.01537468098104, -408.3914653114043, -314.2301341770217, 0.8800000417977571, 0.41600001975893974, 0.4000000189989805, 0.0, 0.0, 0.0, 0.0, 0.0, 1.7103941219291046E9, 0.0, 2024-03-13 22:28:41.929
1.0, -656.7657011686824, -300.115751744248, -399.0678947218694, -314.4545281743631, 0.8800000417977571, 0.41600001975893974, 0.4000000189989805, 0.0, 0.0, 0.0, 0.0, 0.0, 1.7103941219426804E9, 0.0, 2024-03-13 22:28:41.942
1.0, -655.0677865887992, -301.93334312271327, -406.48785623395815, -317.20335464179516, 0.8800000417977571, 0.41600001975893974, 0.4000000189989805, 0.0, 0.0, 0.0, 0.0, 0.0, 1.7103941219426804E9, 0.0, 2024-03-13 22:28:41.942
2.0, -653.5456473068334, -297.9279102701694, -413.1785372546874, -316.4366751508787, 0.8800000417977571, 0.41600001975893974, 0.4000000189989805, 0.0, 0.0, 0.0, 0.0, 0.0, 1.7103941219585755E9, 0.0, 2024-03-13 22:28:41.958
2.0, -644.9550971086137, -295.074366603978, -398.9070790237747, -308.4706882452592, 0.8800000417977571, 0.41600001975893974, 0.4000000189989805, 0.0, 0.0, 0.0, 0.0, 0.0, 1.7103941219585755E9, 0.0, 2024-03-13 22:28:41.958
3.0, -647.2252163817175, -292.5162750342861, -390.8775138189085, -302.4831084161997, 0.8800000417977571, 0.41600001975893974, 0.4000000189989805, 0.0, 0.0, 0.0, 0.0, 0.0, 1.7103941219593482E9, 0.0, 2024-03-13 22:28:41.959
3.0, -661.1638235165738, -293.59710612148046, -407.05258112726733, -316.8443242460489, 0.8800000417977571, 0.41600001975893974, 0.4000000189989805, 0.0, 0.0, 0.0, 0.0, 0.0, 1.7103941219593482E9, 0.0, 2024-03-13 22:28:41.959
4.0, -653.321253309492, -301.2863404303789, -406.78704823041335, -313.2951591880992, 0.8800000417977571, 0.41600001975893974, 0.4000000189989805, 0.0, 0.0, 0.0, 0.0, 0.0, 1.7103941219726996E9, 0.0, 2024-03-13 22:28:41.972
4.0, -648.6725576645695, -295.5194146987051, -392.354774301406, -308.2275947481394, 0.8800000417977571, 0.41600001975893974, 0.4000000189989805, 0.0, 0.0, 0.0, 0.0, 0.0, 1.7103941219726996E9, 0.0, 2024-03-13 22:28:41.972
5.0, -662.2483945037238, -297.1687105791643, -399.18383162049577, -312.7865327941254, 0.8800000417977571, 0.41600001975893974, 0.4000000189989805, 0.0, 0.0, 0.0, 0.0, 0.0, 1.7103941219885013E9, 0.0, 2024-03-13 22:28:41.988
5.0, -654.7274556928314, -295.64283139724284, -413.702123248484, -311.8216386055574, 0.8800000417977571, 0.41600001975893974, 0.4000000189989805, 0.0, 0.0, 0.0, 0.0, 0.0, 1.7103941219885013E9, 0.0, 2024-03-13 22:28:41.988
6.0, -654.3123267977498, -294.2067098142579, -406.67111133178696, -315.2960056643933, 0.8800000417977571, 0.41600001975893974, 0.4000000189989805, 0.0, 0.0, 0.0, 0.0, 0.0, 1.71039412198914E9, 0.0, 2024-03-13 22:28:41.989
6.0, -657.8353125560097, -294.12817191518843, -401.92891818797216, -313.05580559093505, 0.8800000417977571, 0.41600001975893974, 0.4000000189989805, 0.0, 0.0, 0.0, 0.0, 0.0, 1.71039412198914E9, 0.0, 2024-03-13 22:28:41.989
7.0, -658.5421536476351, -301.01332773361355, -412.83072655880824, -320.5954439016059, 0.8800000417977571, 0.41600001975893974, 0.4000000189989805, 0.0, 0.0, 0.0, 0.0, 0.0, 1.710394122002874E9, 0.0, 2024-03-13 22:28:42.002
7.0, -663.4302028897218, -305.6657632784918, -403.57073426852, -320.9245550977066, 0.8800000417977571, 0.41600001975893974, 0.4000000189989805, 0.0, 0.0, 0.0, 0.0, 0.0, 1.710394122002874E9, 0.0, 2024-03-13 22:28:42.002
8.0, -659.3537119380198, -305.7106420779601, -393.51788318762556, -310.5612923204899, 0.8800000417977571, 0.41600001975893974, 0.4000000189989805, 0.0, 0.0, 0.0, 0.0, 0.0, 1.7103941220186791E9, 0.0, 2024-03-13 22:28:42.018
8.0, -659.4172902372666, -296.2935739895329, -401.44647109368816, -316.69098834786564, 0.8800000417977571, 0.41600001975893974, 0.4000000189989805, 0.0, 0.0, 0.0, 0.0, 0.0, 1.7103941220186791E9, 0.0, 2024-03-13 22:28:42.018
9.0, -655.9616226782091, -306.57081906776875, -414.38652494037524, -322.51027267891914, 0.8800000417977571, 0.41600001975893974, 0.4000000189989805, 0.0, 0.0, 0.0, 0.0, 0.0, 1.7103941220192668E9, 0.0, 2024-03-13 22:28:42.019
9.0, -659.8660782319494, -307.80124615319073, -398.0506419339217, -319.0845243195072, 0.8800000417977571, 0.41600001975893974, 0.4000000189989805, 0.0, 0.0, 0.0, 0.0, 0.0, 1.7103941220192668E9, 0.0, 2024-03-13 22:28:42.019
10.0, -657.6296180584468, -297.8044935716316, -400.08514750981703, -314.5592453731224, 0.8800000417977571, 0.41600001975893974, 0.4000000189989805, 0.0, 0.0, 0.0, 0.0, 0.0, 1.7103941220326748E9, 0.0, 2024-03-13 22:28:42.032
10.0, -652.6742506171577, -299.8763981470838, -408.04739451548085, -323.2919117696583, 0.8800000417977571, 0.41600001975893974, 0.4000000189989805, 0.0, 0.0, 0.0, 0.0, 0.0, 1.7103941220326748E9, 0.0, 2024-03-13 22:28:42.032
11.0, -664.8775441725738, -306.3613846702501, -400.3245011069812, -320.68520150054246, 0.8800000417977571, 0.41600001975893974, 0.4000000189989805, 0.0, 0.0, 0.0, 0.0, 0.0, 1.710394122048304E9, 0.0, 2024-03-13 22:28:42.048
11.0, -659.0582598415203, -299.64078444987535, -399.2474099197425, -315.0117732677609, 0.8800000417977571, 0.41600001975893974, 0.4000000189989805, 0.0, 0.0, 0.0, 0.0, 0.0, 1.710394122048304E9, 0.0, 2024-03-13 22:28:42.048
12.0, -659.4696488366462, -303.6723966021091, -408.021215215791, -319.7726659113541, 0.8800000417977571, 0.41600001975893974, 0.4000000189989805, 0.0, 0.0, 0.0, 0.0, 0.0, 1.7103941220490358E9, 0.0, 2024-03-13 22:28:42.049
12.0, -657.240668463055, -299.90631734672934, -400.8106881012209, -316.58253124915063, 0.8800000417977571, 0.41600001975893974, 0.4000000189989805, 0.0, 0.0, 0.0, 0.0, 0.0, 1.7103941220490358E9, 0.0, 2024-03-13 22:28:42.049
13.0, -659.8922575316392, -304.0314269978553, -393.55528218718246, -313.5906112845987, 0.8800000417977571, 0.41600001975893974, 0.4000000189989805, 0.0, 0.0, 0.0, 0.0, 0.0, 1.7103941220626936E9, 0.0, 2024-03-13 22:28:42.062
13.0, -659.8436388322152, -310.3406382231042, -405.96801014011726, -320.83853739872575, 0.8800000417977571, 0.41600001975893974, 0.4000000189989805, 0.0, 0.0, 0.0, 0.0, 0.0, 1.7103941220626936E9, 0.0, 2024-03-13 22:28:42.062
14.0, -665.01966037089, -311.7730199061334, -415.20182313071564, -327.02059202548116, 0.8800000417977571, 0.41600001975893974, 0.4000000189989805, 0.0, 0.0, 0.0, 0.0, 0.0, 1.7103941220947227E9, 0.0, 2024-03-13 22:28:42.094
14.0, -657.289287162479, -300.60193873848766, -407.3929120232351, -319.376236516051, 0.8800000417977571, 0.41600001975893974, 0.4000000189989805, 0.0, 0.0, 0.0, 0.0, 0.0, 1.7103941220947227E9, 0.0, 2024-03-13 22:28:42.094
15.0, -655.4118573847227, -295.19778330251575, -400.1449859091081, -314.7425004709512, 0.8800000417977571, 0.41600001975893974, 0.4000000189989805, 0.0, 0.0, 0.0, 0.0, 0.0, 1.7103941220954518E9, 0.0, 2024-03-13 22:28:42.095
15.0, -662.4466092013754, -309.75721383001655, -410.00710209226236, -321.47432039119303, 0.8800000417977571, 0.41600001975893974, 0.4000000189989805, 0.0, 0.0, 0.0, 0.0, 0.0, 1.7103941220954518E9, 0.0, 2024-03-13 22:28:42.095
16.0, -656.541307171341, -295.44835659954697, -401.3305341950618, -309.31216573528945, 0.8800000417977571, 0.41600001975893974, 0.4000000189989805, 0.0, 0.0, 0.0, 0.0, 0.0, 1.7103941220962083E9, 0.0, 2024-03-13 22:28:42.096
16.0, -650.1385984471999, -286.7381296027452, -395.0549820694141, -310.38925692252815, 0.8800000417977571, 0.41600001975893974, 0.4000000189989805, 0.0, 0.0, 0.0, 0.0, 0.0, 1.7103941220962083E9, 0.0, 2024-03-13 22:28:42.096
17.0, -652.1656242231838, -297.3669252768159, -406.15500513790175, -310.75576711818576, 0.8800000417977571, 0.41600001975893974, 0.4000000189989805, 0.0, 0.0, 0.0, 0.0, 0.0, 1.7103941220969443E9, 0.0, 2024-03-13 22:28:42.096
17.0, -652.7415688163601, -292.60603263322264, -401.4763902933337, -314.43208877462894, 0.8800000417977571, 0.41600001975893974, 0.4000000189989805, 0.0, 0.0, 0.0, 0.0, 0.0, 1.7103941220969443E9, 0.0, 2024-03-13 22:28:42.096
18.0, -649.2185830581002, -287.03732159920037, -395.1634391681291, -310.4079564223066, 0.8800000417977571, 0.41600001975893974, 0.4000000189989805, 0.0, 0.0, 0.0, 0.0, 0.0, 1.7103941221076808E9, 0.0, 2024-03-13 22:28:42.107
18.0, -642.2474095406942, -284.4754901295528, -398.3909728298895, -303.287186906673, 0.8800000417977571, 0.41600001975893974, 0.4000000189989805, 0.0, 0.0, 0.0, 0.0, 0.0, 1.7103941221076808E9, 0.0, 2024-03-13 22:28:42.107
19.0, -648.279868169222, -294.97712920513004, -400.7620694017969, -310.83804491721094, 0.8800000417977571, 0.41600001975893974, 0.4000000189989805, 0.0, 0.0, 0.0, 0.0, 0.0, 1.7103941221230166E9, 0.0, 2024-03-13 22:28:42.123
19.0, -655.5577134829946, -297.9092107703909, -394.7296107732691, -310.83804491721094, 0.8800000417977571, 0.41600001975893974, 0.4000000189989805, 0.0, 0.0, 0.0, 0.0, 0.0, 1.7103941221230166E9, 0.0, 2024-03-13 22:28:42.123
20.0, -652.0983060239814, -298.185963367112, -400.85930680064484, -316.76204644702375, 0.8800000417977571, 0.41600001975893974, 0.4000000189989805, 0.0, 0.0, 0.0, 0.0, 0.0, 1.710394122155151E9, 0.0, 2024-03-13 22:28:42.155
20.0, -654.3235464976169, -297.81945317145437, -410.82614018255845, -321.0479717962444, 0.8800000417977571, 0.41600001975893974, 0.4000000189989805, 0.0, 0.0, 0.0, 0.0, 0.0, 1.710394122155151E9, 0.0, 2024-03-13 22:28:42.155
21.0, -657.9512494546361, -300.9123504348099, -398.6490259268321, -317.61474363692105, 0.8800000417977571, 0.41600001975893974, 0.4000000189989805, 0.0, 0.0, 0.0, 0.0, 0.0, 1.7103941221555903E9, 0.0, 2024-03-13 22:28:42.155
21.0, -661.5191140123643, -298.04758706875145, -400.9154052999802, -315.3072253642604, 0.8800000417977571, 0.41600001975893974, 0.4000000189989805, 0.0, 0.0, 0.0, 0.0, 0.0, 1.7103941221555903E9, 0.0, 2024-03-13 22:28:42.155
22.0, -665.0271401708014, -306.63813726697117, -412.60633256146684, -319.09200411941856, 0.8800000417977571, 0.41600001975893974, 0.4000000189989805, 0.0, 0.0, 0.0, 0.0, 0.0, 1.7103941221563923E9, 0.0, 2024-03-13 22:28:42.156
22.0, -661.7771671093069, -296.6226851856336, -405.3284872476943, -314.4507882744074, 0.8800000417977571, 0.41600001975893974, 0.4000000189989805, 0.0, 0.0, 0.0, 0.0, 0.0, 1.7103941221563923E9, 0.0, 2024-03-13 22:28:42.156
23.0, -651.1708108349703, -297.0677332803607, -392.7549435966648, -306.71293526608497, 0.8800000417977571, 0.41600001975893974, 0.4000000189989805, 0.0, 0.0, 0.0, 0.0, 0.0, 1.710394122157153E9, 0.0, 2024-03-13 22:28:42.157
23.0, -655.8531655794941, -295.3623389005661, -406.01288893958554, -312.4013230986893, 0.8800000417977571, 0.41600001975893974, 0.4000000189989805, 0.0, 0.0, 0.0, 0.0, 0.0, 1.710394122157153E9, 0.0, 2024-03-13 22:28:42.157
24.0, -662.9178365957923, -304.04638659767807, -409.7752282950096, -315.79341235850006, 0.8800000417977571, 0.41600001975893974, 0.4000000189989805, 0.0, 0.0, 0.0, 0.0, 0.0, 1.710394122167982E9, 0.0, 2024-03-13 22:28:42.167
24.0, -660.0231540300883, -296.30479368939996, -389.243177538272, -307.0794454617426, 0.8800000417977571, 0.41600001975893974, 0.4000000189989805, 0.0, 0.0, 0.0, 0.0, 0.0, 1.710394122167982E9, 0.0, 2024-03-13 22:28:42.167
25.0, -654.1365514998324, -292.8865251298994, -395.9749974585138, -307.2589606596157, 0.8800000417977571, 0.41600001975893974, 0.4000000189989805, 0.0, 0.0, 0.0, 0.0, 0.0, 1.7103941221826842E9, 0.0, 2024-03-13 22:28:42.182
25.0, -666.8783906488679, -306.49976096861064, -412.6138123613782, -320.0381988082081, 0.8800000417977571, 0.41600001975893974, 0.4000000189989805, 0.0, 0.0, 0.0, 0.0, 0.0, 1.7103941221826842E9, 0.0, 2024-03-13 22:28:42.182
26.0, -657.9549893545918, -297.9653092697263, -396.00491665815935, -309.1924889367074, 0.8800000417977571, 0.41600001975893974, 0.4000000189989805, 0.0, 0.0, 0.0, 0.0, 0.0, 1.7103941221984859E9, 0.0, 2024-03-13 22:28:42.198
26.0, -661.463015513029, -300.2541280426085, -401.4015922942199, -316.6348898485303, 0.8800000417977571, 0.41600001975893974, 0.4000000189989805, 0.0, 0.0, 0.0, 0.0, 0.0, 1.7103941221984859E9, 0.0, 2024-03-13 22:28:42.198
27.0, -654.7498950925656, -296.22625579033047, -405.11157305026427, -319.17428191844374, 0.8800000417977571, 0.41600001975893974, 0.4000000189989805, 0.0, 0.0, 0.0, 0.0, 0.0, 1.7103941221993752E9, 0.0, 2024-03-13 22:28:42.199
27.0, -654.3497257973067, -294.70785640832037, -395.9413383589126, -312.32278519961983, 0.8800000417977571, 0.41600001975893974, 0.4000000189989805, 0.0, 0.0, 0.0, 0.0, 0.0, 1.7103941221993752E9, 0.0, 2024-03-13 22:28:42.199
28.0, -658.2766207507811, -298.34303916525096, -393.7347973850556, -307.7713269535452, 0.8800000417977571, 0.41600001975893974, 0.4000000189989805, 0.0, 0.0, 0.0, 0.0, 0.0, 1.7103941222128332E9, 0.0, 2024-03-13 22:28:42.212
28.0, -661.208702316042, -298.9152438584715, -407.93145761685446, -318.302885228768, 0.8800000417977571, 0.41600001975893974, 0.4000000189989805, 0.0, 0.0, 0.0, 0.0, 0.0, 1.7103941222128332E9, 0.0, 2024-03-13 22:28:42.212
29.0, -668.5463860291056, -302.6588837141171, -408.503662310075, -320.1167367072776, 0.8800000417977571, 0.41600001975893974, 0.4000000189989805, 0.0, 0.0, 0.0, 0.0, 0.0, 1.7103941222283702E9, 0.0, 2024-03-13 22:28:42.228
29.0, -671.2765129967593, -314.0393992792815, -407.78186161862686, -323.10491677187383, 0.8800000417977571, 0.41600001975893974, 0.4000000189989805, 0.0, 0.0, 0.0, 0.0, 0.0, 1.7103941222283702E9, 0.0, 2024-03-13 22:28:42.228
30.0, -677.3725499245338, -324.69811415299773, -416.765101312194, -328.1276024123654, 0.8800000417977571, 0.41600001975893974, 0.4000000189989805, 0.0, 0.0, 0.0, 0.0, 0.0, 1.7103941222293134E9, 0.0, 2024-03-13 22:28:42.229
30.0, -665.4347892659716, -309.2111884364858, -417.670157101471, -323.5911037661135, 0.8800000417977571, 0.41600001975893974, 0.4000000189989805, 0.0, 0.0, 0.0, 0.0, 0.0, 1.7103941222293134E9, 0.0, 2024-03-13 22:28:42.229
31.0, -658.471095548477, -297.5913192741573, -397.2129043438472, -310.38551702257246, 0.8800000417977571, 0.41600001975893974, 0.4000000189989805, 0.0, 0.0, 0.0, 0.0, 0.0, 1.7103941222427654E9, 0.0, 2024-03-13 22:28:42.242
31.0, -661.1077250172384, -291.04649435169995, -396.96981084672734, -309.88437042851, 0.8800000417977571, 0.41600001975893974, 0.4000000189989805, 0.0, 0.0, 0.0, 0.0, 0.0, 1.7103941222427654E9, 0.0, 2024-03-13 22:28:42.242
32.0, -655.9204837786965, -300.6206382382661, -399.52042261650786, -302.86831811163574, 0.8800000417977571, 0.41600001975893974, 0.4000000189989805, 0.0, 0.0, 0.0, 0.0, 0.0, 1.7103941222583344E9, 0.0, 2024-03-13 22:28:42.258
32.0, -651.4961821311153, -291.1399918505922, -395.06994166923687, -303.38816420547664, 0.8800000417977571, 0.41600001975893974, 0.4000000189989805, 0.0, 0.0, 0.0, 0.0, 0.0, 1.7103941222583344E9, 0.0, 2024-03-13 22:28:42.258
33.0, -645.1794911059551, -283.04684834647924, -381.5801225290634, -294.30394721310586, 0.8800000417977571, 0.41600001975893974, 0.4000000189989805, 0.0, 0.0, 0.0, 0.0, 0.0, 1.7103941222590408E9, 0.0, 2024-03-13 22:28:42.259
33.0, -632.9986369502731, -277.0256094178185, -383.0087643121369, -289.11296607460827, 0.8800000417977571, 0.41600001975893974, 0.4000000189989805, 0.0, 0.0, 0.0, 0.0, 0.0, 1.7103941222590408E9, 0.0, 2024-03-13 22:28:42.259
34.0, -656.4777288720943, -300.56827963888645, -406.9852629280649, -317.3267713403329, 0.8800000417977571, 0.41600001975893974, 0.4000000189989805, 0.0, 0.0, 0.0, 0.0, 0.0, 1.710394122272667E9, 0.0, 2024-03-13 22:28:42.272
34.0, -665.1056780698709, -302.2886336185038, -395.74686356121674, -313.87484368123114, 0.8800000417977571, 0.41600001975893974, 0.4000000189989805, 0.0, 0.0, 0.0, 0.0, 0.0, 1.710394122272667E9, 0.0, 2024-03-13 22:28:42.272
35.0, -659.7875403328799, -295.5867328979075, -384.8226157906465, -308.6277640433982, 0.8800000417977571, 0.41600001975893974, 0.4000000189989805, 0.0, 0.0, 0.0, 0.0, 0.0, 1.7103941222883444E9, 0.0, 2024-03-13 22:28:42.288
35.0, -657.9998681540601, -300.9160903347656, -403.2117038727738, -309.94420882780105, 0.8800000417977571, 0.41600001975893974, 0.4000000189989805, 0.0, 0.0, 0.0, 0.0, 0.0, 1.7103941222883444E9, 0.0, 2024-03-13 22:28:42.288
36.0, -663.4115033899434, -307.0270868623629, -395.23075736733153, -308.98305453918874, 0.8800000417977571, 0.41600001975893974, 0.4000000189989805, 0.0, 0.0, 0.0, 0.0, 0.0, 1.7103941222890959E9, 0.0, 2024-03-13 22:28:42.289
36.0, -668.6885022274218, -307.8162057530135, -397.18672504415736, -314.27875287644565, 0.8800000417977571, 0.41600001975893974, 0.4000000189989805, 0.0, 0.0, 0.0, 0.0, 0.0, 1.7103941222890959E9, 0.0, 2024-03-13 22:28:42.289
37.0, -669.0400528232567, -306.0060941744596, -411.3646857761778, -327.91068821493536, 0.8800000417977571, 0.41600001975893974, 0.4000000189989805, 0.0, 0.0, 0.0, 0.0, 0.0, 1.7103941223194969E9, 0.0, 2024-03-13 22:28:42.319
37.0, -673.2586599732749, -310.9614616157487, -402.41510518221185, -321.7361133880913, 0.8800000417977571, 0.41600001975893974, 0.4000000189989805, 0.0, 0.0, 0.0, 0.0, 0.0, 1.7103941223194969E9, 0.0, 2024-03-13 22:28:42.319
38.0, -685.8583829239942, -318.0074331322685, -406.1737046376802, -328.76338540483266, 0.8800000417977571, 0.41600001975893974, 0.4000000189989805, 0.0, 0.0, 0.0, 0.0, 0.0, 1.7103941223200412E9, 0.0, 2024-03-13 22:28:42.320
38.0, -689.4823459810577, -319.28647891711444, -412.8830851581879, -330.95870667882264, 0.8800000417977571, 0.41600001975893974, 0.4000000189989805, 0.0, 0.0, 0.0, 0.0, 0.0, 1.7103941223200412E9, 0.0, 2024-03-13 22:28:42.320
39.0, -688.0537041979842, -323.7930583637208, -414.19579004263505, -330.50617878418416, 0.8800000417977571, 0.41600001975893974, 0.4000000189989805, 0.0, 0.0, 0.0, 0.0, 0.0, 1.710394122320678E9, 0.0, 2024-03-13 22:28:42.320
39.0, -684.1866476438008, -315.79715225845575, -408.1334122144617, -330.25186558719724, 0.8800000417977571, 0.41600001975893974, 0.4000000189989805, 0.0, 0.0, 0.0, 0.0, 0.0, 1.710394122320678E9, 0.0, 2024-03-13 22:28:42.320
40.0, -685.4058550293557, -321.5977370897308, -415.9236238221638, -328.6661480059847, 0.8800000417977571, 0.41600001975893974, 0.4000000189989805, 0.0, 0.0, 0.0, 0.0, 0.0, 1.7103941223326857E9, 0.0, 2024-03-13 22:28:42.332
40.0, -685.7424460253678, -324.7018540529534, -423.82603242853656, -335.21845272835344, 0.8800000417977571, 0.41600001975893974, 0.4000000189989805, 0.0, 0.0, 0.0, 0.0, 0.0, 1.7103941223326857E9, 0.0, 2024-03-13 22:28:42.332
41.0, -693.700953131076, -324.73551315255463, -408.0735738151707, -326.7027005292475, 0.8800000417977571, 0.43200002051889896, 0.4000000189989805, 0.0, 0.0, 0.0, 0.0, 0.0, 1.7103941223483725E9, 0.0, 2024-03-13 22:28:42.348
41.0, -685.3796757296659, -319.16306221857667, -401.1397992973216, -320.75625959970057, 0.8800000417977571, 0.43200002051889896, 0.4000000189989805, 0.0, 0.0, 0.0, 0.0, 0.0, 1.7103941223483725E9, 0.0, 2024-03-13 22:28:42.348
42.0, -688.2519188956358, -329.8703957917169, -416.1068789199926, -326.87847582716495, 0.8800000417977571, 0.43200002051889896, 0.4000000189989805, 0.0, 0.0, 0.0, 0.0, 0.0, 1.7103941223491201E9, 0.0, 2024-03-13 22:28:42.349
42.0, -680.2971516898833, -319.0433854199946, -404.9844164517708, -321.84083058685064, 0.8800000417977571, 0.43200002051889896, 0.4000000189989805, 0.0, 0.0, 0.0, 0.0, 0.0, 1.7103941223491201E9, 0.0, 2024-03-13 22:28:42.349
43.0, -683.412488352973, -317.6708421362564, -400.82564770104364, -325.5171522432938, 0.8800000417977571, 0.43200002051889896, 0.4000000189989805, 0.0, 0.0, 0.0, 0.0, 0.0, 1.7103941223627026E9, 0.0, 2024-03-13 22:28:42.362
43.0, -678.1167900157161, -317.7157209357247, -407.63974542031065, -321.9642472853884, 0.8800000417977571, 0.43200002051889896, 0.4000000189989805, 0.0, 0.0, 0.0, 0.0, 0.0, 1.7103941223627026E9, 0.0, 2024-03-13 22:28:42.362
44.0, -680.2186137908138, -318.4450014270842, -412.3258400647901, -324.4138817563653, 0.8800000417977571, 0.43200002051889896, 0.4000000189989805, 0.0, 0.0, 0.0, 0.0, 0.0, 1.7103941223783572E9, 0.0, 2024-03-13 22:28:42.378
44.0, -681.3293640776537, -318.8115116227418, -401.1435391972773, -326.407248432748, 0.8800000417977571, 0.43200002051889896, 0.4000000189989805, 0.0, 0.0, 0.0, 0.0, 0.0, 1.7103941223783572E9, 0.0, 2024-03-13 22:28:42.378
45.0, -684.9645468345843, -318.5983373252675, -405.82963384175673, -326.1155362362042, 0.8800000417977571, 0.43200002051889896, 0.4000000189989805, 0.0, 0.0, 0.0, 0.0, 0.0, 1.710394122379134E9, 0.0, 2024-03-13 22:28:42.379
45.0, -682.6944275614806, -320.9694338971749, -411.82843337068334, -327.1851476235315, 0.8800000417977571, 0.43200002051889896, 0.4000000189989805, 0.0, 0.0, 0.0, 0.0, 0.0, 1.710394122379134E9, 0.0, 2024-03-13 22:28:42.379
46.0, -670.7566669029184, -321.5603380901739, -407.695843919646, -332.09563626535237, 0.8800000417977571, 0.43200002051889896, 0.4000000189989805, 0.0, 0.0, 0.0, 0.0, 0.0, 1.710394122392924E9, 0.0, 2024-03-13 22:28:42.392
46.0, -685.7461859253235, -311.6720426073298, -402.5834006802179, -322.57385097816586, 0.8800000417977571, 0.43200002051889896, 0.4000000189989805, 0.0, 0.0, 0.0, 0.0, 0.0, 1.710394122392924E9, 0.0, 2024-03-13 22:28:42.392
47.0, -692.7061397428624, -322.9590606736019, -422.9508958389051, -330.7230929816142, 0.8800000417977571, 0.43200002051889896, 0.4000000189989805, 0.0, 0.0, 0.0, 0.0, 0.0, 1.7103941224083784E9, 0.0, 2024-03-13 22:28:42.408
47.0, -683.9285945468582, -318.90500912163407, -410.8485795822926, -322.80572477541864, 0.8800000417977571, 0.43200002051889896, 0.4000000189989805, 0.0, 0.0, 0.0, 0.0, 0.0, 1.7103941224083784E9, 0.0, 2024-03-13 22:28:42.408
48.0, -690.5482174684294, -319.68664821237326, -399.93555151158944, -323.3293107692152, 0.8800000417977571, 0.43200002051889896, 0.4000000189989805, 0.0, 0.0, 0.0, 0.0, 0.0, 1.71039412240955E9, 0.0, 2024-03-13 22:28:42.409
48.0, -687.3356434064917, -316.1786220539361, -413.6235853494145, -323.02263897284865, 0.8800000417977571, 0.43200002051889896, 0.4000000189989805, 0.0, 0.0, 0.0, 0.0, 0.0, 1.71039412240955E9, 0.0, 2024-03-13 22:28:42.409
49.0, -686.4492871169932, -311.86277750506997, -408.70561690768227, -320.7001611003652, 0.8800000417977571, 0.43200002051889896, 0.4000000189989805, 0.0, 0.0, 0.0, 0.0, 0.0, 1.710394122422716E9, 0.0, 2024-03-13 22:28:42.422
49.0, -679.0330655048601, -314.6303034722805, -393.15137299196795, -316.83310454618186, 0.8800000417977571, 0.43200002051889896, 0.4000000189989805, 0.0, 0.0, 0.0, 0.0, 0.0, 1.710394122422716E9, 0.0, 2024-03-13 22:28:42.422
50.0, -667.3907569427975, -305.26933388318866, -400.5040163048543, -314.38347007520497, 0.8800000417977571, 0.43200002051889896, 0.4000000189989805, 0.0, 0.0, 0.0, 0.0, 0.0, 1.7103941224383838E9, 0.0, 2024-03-13 22:28:42.438
50.0, -671.3064321964048, -304.75696758925915, -412.3221001648344, -322.28213878162205, 0.8800000417977571, 0.43200002051889896, 0.4000000189989805, 0.0, 0.0, 0.0, 0.0, 0.0, 1.7103941224383838E9, 0.0, 2024-03-13 22:28:42.438
51.0, -676.6507492330857, -308.27621344756335, -409.0646473034285, -321.98668668512255, 0.8800000417977571, 0.41600001975893974, 0.4000000189989805, 0.0, 0.0, 0.0, 0.0, 0.0, 1.7103941224390924E9, 0.0, 2024-03-13 22:28:42.439
51.0, -668.6062244283967, -304.2109421957284, -400.78824870148674, -319.7876255111769, 0.8800000417977571, 0.41600001975893974, 0.4000000189989805, 0.0, 0.0, 0.0, 0.0, 0.0, 1.7103941224390924E9, 0.0, 2024-03-13 22:28:42.439
52.0, -680.0690177925862, -318.98728692065924, -426.13355070119724, -336.0524504184723, 0.8800000417977571, 0.41600001975893974, 0.4000000189989805, 0.0, 0.0, 0.0, 0.0, 0.0, 1.7103941224529965E9, 0.0, 2024-03-13 22:28:42.452
52.0, -674.0328192641027, -306.16690987255424, -426.6608765949495, -338.3450090913102, 0.8800000417977571, 0.41600001975893974, 0.4000000189989805, 0.0, 0.0, 0.0, 0.0, 0.0, 1.7103941224529965E9, 0.0, 2024-03-13 22:28:42.452
53.0, -673.80094546685, -303.01043430995196, -411.1739508784376, -332.2265327638015, 0.8800000417977571, 0.41600001975893974, 0.4000000189989805, 0.0, 0.0, 0.0, 0.0, 0.0, 1.7103941224683697E9, 0.0, 2024-03-13 22:28:42.468
53.0, -671.7103413916193, -319.5669714137912, -433.4899339140393, -347.1188143873587, 0.8800000417977571, 0.41600001975893974, 0.4000000189989805, 0.0, 0.0, 0.0, 0.0, 0.0, 1.7103941224683697E9, 0.0, 2024-03-13 22:28:42.468
54.0, -668.1948354332708, -316.7770060468465, -423.98684812663123, -337.61572859995067, 0.8800000417977571, 0.41600001975893974, 0.4000000189989805, 0.0, 0.0, 0.0, 0.0, 0.0, 1.710394122469246E9, 0.0, 2024-03-13 22:28:42.469
54.0, -671.9459550888278, -310.53511302080005, -412.8494260585867, -331.0896031772718, 0.8800000417977571, 0.41600001975893974, 0.4000000189989805, 0.0, 0.0, 0.0, 0.0, 0.0, 1.710394122469246E9, 0.0, 2024-03-13 22:28:42.469
55.0, -671.7701797909103, -311.61594410799444, -414.15465114312246, -332.09937616530806, 0.8800000417977571, 0.41600001975893974, 0.4000000189989805, 0.0, 0.0, 0.0, 0.0, 0.0, 1.710394122482746E9, 0.0, 2024-03-13 22:28:42.482
55.0, -675.3866630480625, -325.09454354830086, -428.029679978732, -337.18564010504633, 0.8800000417977571, 0.41600001975893974, 0.4000000189989805, 0.0, 0.0, 0.0, 0.0, 0.0, 1.710394122482746E9, 0.0, 2024-03-13 22:28:42.482
56.0, -673.4830539706163, -312.61823729611933, -410.97947608074173, -330.4126812852919, 0.8800000417977571, 0.41600001975893974, 0.4000000189989805, 0.0, 0.0, 0.0, 0.0, 0.0, 1.7103941224985373E9, 0.0, 2024-03-13 22:28:42.498
56.0, -679.7025075969286, -321.2686258936301, -416.24151531839743, -334.126401941292, 0.8800000417977571, 0.41600001975893974, 0.4000000189989805, 0.0, 0.0, 0.0, 0.0, 0.0, 1.7103941224985373E9, 0.0, 2024-03-13 22:28:42.498
57.0, -679.287378701847, -324.8290106514469, -424.8769443160854, -340.1999994693324, 0.8800000417977571, 0.41600001975893974, 0.4000000189989805, 0.0, 0.0, 0.0, 0.0, 0.0, 1.7103941224991615E9, 0.0, 2024-03-13 22:28:42.499
57.0, -664.3838773784228, -305.93503607530147, -410.56434718566015, -325.87618263904005, 0.8800000417977571, 0.41600001975893974, 0.4000000189989805, 0.0, 0.0, 0.0, 0.0, 0.0, 1.7103941224991615E9, 0.0, 2024-03-13 22:28:42.499
58.0, -672.5592986815609, -303.46670210454613, -400.5526350042783, -326.54562473110855, 0.8800000417977571, 0.41600001975893974, 0.4000000189989805, 0.0, 0.0, 0.0, 0.0, 0.0, 1.7103941225126896E9, 0.0, 2024-03-13 22:28:42.512
58.0, -672.9931270764209, -313.1829621894285, -413.00276195677, -327.43198102060705, 0.8800000417977571, 0.41600001975893974, 0.4000000189989805, 0.0, 0.0, 0.0, 0.0, 0.0, 1.7103941225126896E9, 0.0, 2024-03-13 22:28:42.512
59.0, -665.9621151597239, -303.5452400036156, -421.52973385574296, -327.2300264229998, 0.8800000417977571, 0.41600001975893974, 0.4000000189989805, 0.0, 0.0, 0.0, 0.0, 0.0, 1.7103941225284166E9, 0.0, 2024-03-13 22:28:42.528
59.0, -668.6174441282637, -304.6223311908543, -402.78161537786946, -322.1961210826412, 0.8800000417977571, 0.41600001975893974, 0.4000000189989805, 0.0, 0.0, 0.0, 0.0, 0.0, 1.7103941225284166E9, 0.0, 2024-03-13 22:28:42.528
60.0, -664.6007915758528, -308.6726428428665, -412.3258400647901, -323.14231577143073, 0.8800000417977571, 0.41600001975893974, 0.4000000189989805, 0.0, 0.0, 0.0, 0.0, 0.0, 1.710394122529128E9, 0.0, 2024-03-13 22:28:42.529
60.0, -671.0408992995508, -303.8145128004253, -422.0383602497168, -324.683154553175, 0.8800000417977571, 0.41600001975893974, 0.4000000189989805, 0.0, 0.0, 0.0, 0.0, 0.0, 1.710394122529128E9, 0.0, 2024-03-13 22:28:42.529
61.0, -672.3087253845297, -311.8926967047155, -404.74880275456235, -320.0793377077207, 0.8800000417977571, 0.43200002051889896, 0.4000000189989805, 0.0, 0.0, 0.0, 0.0, 0.0, 1.7103941225427313E9, 0.0, 2024-03-13 22:28:42.542
61.0, -673.4007761715911, -310.61365091986954, -406.8319270298816, -320.73008030001074, 0.8800000417977571, 0.43200002051889896, 0.4000000189989805, 0.0, 0.0, 0.0, 0.0, 0.0, 1.7103941225427313E9, 0.0, 2024-03-13 22:28:42.542
62.0, -663.6545968870632, -302.0044012218714, -413.30195395322517, -320.09429730754346, 0.8800000417977571, 0.43200002051889896, 0.4000000189989805, 0.0, 0.0, 0.0, 0.0, 0.0, 1.710394122558379E9, 0.0, 2024-03-13 22:28:42.558
62.0, -660.7112956219353, -293.7242627199739, -407.6210459205322, -318.519799426198, 0.8800000417977571, 0.43200002051889896, 0.4000000189989805, 0.0, 0.0, 0.0, 0.0, 0.0, 1.710394122558379E9, 0.0, 2024-03-13 22:28:42.558
63.0, -658.4262167490087, -290.5042088581249, -406.2036238373257, -317.19961474183947, 0.8800000417977571, 0.43200002051889896, 0.4000000189989805, 0.0, 0.0, 0.0, 0.0, 0.0, 1.7103941225591774E9, 0.0, 2024-03-13 22:28:42.559
63.0, -660.243808127474, -295.71388949640095, -411.49932217458263, -321.631396189332, 0.8800000417977571, 0.43200002051889896, 0.4000000189989805, 0.0, 0.0, 0.0, 0.0, 0.0, 1.7103941225591774E9, 0.0, 2024-03-13 22:28:42.559
64.0, -658.1045853528194, -293.19693682622164, -410.5082486863248, -319.61559011321515, 0.8800000417977571, 0.43200002051889896, 0.4000000189989805, 0.0, 0.0, 0.0, 0.0, 0.0, 1.7103941225728886E9, 0.0, 2024-03-13 22:28:42.572
64.0, -655.6549508818425, -290.30599416047335, -403.0957669741474, -318.302885228768, 0.8800000417977571, 0.43200002051889896, 0.4000000189989805, 0.0, 0.0, 0.0, 0.0, 0.0, 1.7103941225728886E9, 0.0, 2024-03-13 22:28:42.572
65.0, -668.9166361247189, -303.6649168021977, -404.82734065363184, -325.06836424861103, 0.8800000417977571, 0.43200002051889896, 0.4000000189989805, 0.0, 0.0, 0.0, 0.0, 0.0, 1.7103941225884345E9, 0.0, 2024-03-13 22:28:42.588
65.0, -664.8551047728397, -300.6206382382661, -415.4673560275696, -324.32786405738443, 0.8800000417977571, 0.43200002051889896, 0.4000000189989805, 0.0, 0.0, 0.0, 0.0, 0.0, 1.7103941225884345E9, 0.0, 2024-03-13 22:28:42.588
66.0, -673.3633771720342, -314.6677024718374, -405.923131340649, -317.80173863470554, 0.8800000417977571, 0.43200002051889896, 0.4000000189989805, 0.0, 0.0, 0.0, 0.0, 0.0, 1.7103941225891528E9, 0.0, 2024-03-13 22:28:42.589
66.0, -671.1418765983544, -306.0060941744596, -402.33656728314236, -314.31989177595824, 0.8800000417977571, 0.43200002051889896, 0.4000000189989805, 0.0, 0.0, 0.0, 0.0, 0.0, 1.7103941225891528E9, 0.0, 2024-03-13 22:28:42.589
67.0, -665.6367438635789, -306.67553626652807, -412.29966076510027, -321.57529768999666, 0.8800000417977571, 0.43200002051889896, 0.4000000189989805, 0.0, 0.0, 0.0, 0.0, 0.0, 1.7103941226030617E9, 0.0, 2024-03-13 22:28:42.603
67.0, -656.3094333740883, -299.9287567464635, -397.2802225430496, -308.3622311465442, 0.8800000417977571, 0.43200002051889896, 0.4000000189989805, 0.0, 0.0, 0.0, 0.0, 0.0, 1.7103941226030617E9, 0.0, 2024-03-13 22:28:42.603
68.0, -658.7328885453753, -288.5108421817422, -392.2687566024251, -305.35161168221384, 0.8800000417977571, 0.43200002051889896, 0.4000000189989805, 0.0, 0.0, 0.0, 0.0, 0.0, 1.7103941226183634E9, 0.0, 2024-03-13 22:28:42.618
68.0, -662.4765284010209, -296.71618268452585, -414.16587084298953, -316.05894525535405, 0.8800000417977571, 0.43200002051889896, 0.4000000189989805, 0.0, 0.0, 0.0, 0.0, 0.0, 1.7103941226183634E9, 0.0, 2024-03-13 22:28:42.618
69.0, -659.809979732614, -301.87350472342223, -410.2501955893822, -316.5862711491063, 0.8800000417977571, 0.43200002051889896, 0.4000000189989805, 0.0, 0.0, 0.0, 0.0, 0.0, 1.7103941226191514E9, 0.0, 2024-03-13 22:28:42.619
69.0, -654.4694025958888, -287.00366249959916, -395.3242548662238, -312.0385528029874, 0.8800000417977571, 0.43200002051889896, 0.4000000189989805, 0.0, 0.0, 0.0, 0.0, 0.0, 1.7103941226191514E9, 0.0, 2024-03-13 22:28:42.619
70.0, -655.6399912820198, -297.2921272777021, -408.45504361065105, -313.69158858340234, 0.8800000417977571, 0.43200002051889896, 0.4000000189989805, 0.0, 0.0, 0.0, 0.0, 0.0, 1.7103941226327126E9, 0.0, 2024-03-13 22:28:42.632
70.0, -650.849179438781, -282.1380526572466, -409.951003592927, -312.16570940148085, 0.8800000417977571, 0.43200002051889896, 0.4000000189989805, 0.0, 0.0, 0.0, 0.0, 0.0, 1.7103941226327126E9, 0.0, 2024-03-13 22:28:42.632
71.0, -652.2254626224749, -283.08424734603614, -396.59208095120266, -311.9263558043167, 0.8800000417977571, 0.41600001975893974, 0.4000000189989805, 0.0, 0.0, 0.0, 0.0, 0.0, 1.7103941226483817E9, 0.0, 2024-03-13 22:28:42.648
71.0, -660.726255221758, -299.0685797566548, -403.9409843641333, -317.80173863470554, 0.8800000417977571, 0.41600001975893974, 0.4000000189989805, 0.0, 0.0, 0.0, 0.0, 0.0, 1.7103941226483817E9, 0.0, 2024-03-13 22:28:42.648
72.0, -662.7420612978749, -300.6542973378673, -416.46216941578314, -327.6414154181257, 0.8800000417977571, 0.41600001975893974, 0.4000000189989805, 0.0, 0.0, 0.0, 0.0, 0.0, 1.7103941226491177E9, 0.0, 2024-03-13 22:28:42.649
72.0, -665.01966037089, -307.27392025943846, -410.3175137885846, -324.0885104602203, 0.8800000417977571, 0.41600001975893974, 0.4000000189989805, 0.0, 0.0, 0.0, 0.0, 0.0, 1.7103941226491177E9, 0.0, 2024-03-13 22:28:42.649
73.0, -664.3988369782455, -302.3335124179721, -403.4323579701595, -320.06437810789794, 0.8800000417977571, 0.41600001975893974, 0.4000000189989805, 0.0, 0.0, 0.0, 0.0, 0.0, 1.7103941226627147E9, 0.0, 2024-03-13 22:28:42.662
73.0, -666.8035926497541, -309.1027313377708, -414.86523213470355, -324.0137124611065, 0.8800000417977571, 0.41600001975893974, 0.4000000189989805, 0.0, 0.0, 0.0, 0.0, 0.0, 1.7103941226627147E9, 0.0, 2024-03-13 22:28:42.662
74.0, -665.1355972695164, -302.37839121744037, -415.8189066234045, -326.4147282326594, 0.8800000417977571, 0.41600001975893974, 0.4000000189989805, 0.0, 0.0, 0.0, 0.0, 0.0, 1.7103941226784303E9, 0.0, 2024-03-13 22:28:42.678
74.0, -661.0366669180803, -298.6310114618391, -403.14812557352707, -318.2954054288566, 0.8800000417977571, 0.41600001975893974, 0.4000000189989805, 0.0, 0.0, 0.0, 0.0, 0.0, 1.7103941226784303E9, 0.0, 2024-03-13 22:28:42.678
75.0, -667.5964514403604, -295.68023039679974, -401.40533219417557, -316.8892030455172, 0.8800000417977571, 0.41600001975893974, 0.4000000189989805, 0.0, 0.0, 0.0, 0.0, 0.0, 1.7103941226793272E9, 0.0, 2024-03-13 22:28:42.679
75.0, -657.1957896635868, -298.38043816480786, -408.64203860843554, -318.54597872588784, 0.8800000417977571, 0.41600001975893974, 0.4000000189989805, 0.0, 0.0, 0.0, 0.0, 0.0, 1.7103941226793272E9, 0.0, 2024-03-13 22:28:42.679
76.0, -657.8764514555223, -296.08413959201425, -400.78450880153105, -317.3828698396683, 0.8800000417977571, 0.41600001975893974, 0.4000000189989805, 0.0, 0.0, 0.0, 0.0, 0.0, 1.7103941226930032E9, 0.0, 2024-03-13 22:28:42.693
76.0, -655.4455164843239, -290.7697417549789, -393.3869866891764, -312.53221959713846, 0.8800000417977571, 0.41600001975893974, 0.4000000189989805, 0.0, 0.0, 0.0, 0.0, 0.0, 1.7103941226930032E9, 0.0, 2024-03-13 22:28:42.693
77.0, -655.5502336830832, -296.27113458979875, -404.2476561604999, -315.4418617626652, 0.8800000417977571, 0.41600001975893974, 0.4000000189989805, 0.0, 0.0, 0.0, 0.0, 0.0, 1.7103941227083704E9, 0.0, 2024-03-13 22:28:42.708
77.0, -661.1451240167953, -306.87001106422395, -410.80744068278, -323.078737472184, 0.8800000417977571, 0.41600001975893974, 0.4000000189989805, 0.0, 0.0, 0.0, 0.0, 0.0, 1.7103941227083704E9, 0.0, 2024-03-13 22:28:42.708
78.0, -674.0440389639698, -304.3642780939117, -410.49328908650205, -324.66071515344083, 0.8800000417977571, 0.41600001975893974, 0.4000000189989805, 0.0, 0.0, 0.0, 0.0, 0.0, 1.71039412270909E9, 0.0, 2024-03-13 22:28:42.709
78.0, -665.8611378609203, -303.3245859062299, -418.320899693761, -325.4573138440028, 0.8800000417977571, 0.41600001975893974, 0.4000000189989805, 0.0, 0.0, 0.0, 0.0, 0.0, 1.71039412270909E9, 0.0, 2024-03-13 22:28:42.709
79.0, -669.4477019184269, -308.594104943797, -414.9662094335072, -323.4153284681961, 0.8800000417977571, 0.41600001975893974, 0.4000000189989805, 0.0, 0.0, 0.0, 0.0, 0.0, 1.7103941227230396E9, 0.0, 2024-03-13 22:28:42.723
79.0, -665.2328346683644, -301.00584793370217, -402.56844108039513, -316.4179756511003, 0.8800000417977571, 0.41600001975893974, 0.4000000189989805, 0.0, 0.0, 0.0, 0.0, 0.0, 1.7103941227230396E9, 0.0, 2024-03-13 22:28:42.723
80.0, -660.980568418745, -299.24061515461653, -402.44502438185737, -316.1599225541577, 0.8800000417977571, 0.41600001975893974, 0.4000000189989805, 0.0, 0.0, 0.0, 0.0, 0.0, 1.7103941227387311E9, 0.0, 2024-03-13 22:28:42.738
80.0, -652.2254626224749, -289.86094606574625, -412.78584775933996, -313.12686369009316, 0.8800000417977571, 0.41600001975893974, 0.4000000189989805, 0.0, 0.0, 0.0, 0.0, 0.0, 1.7103941227387311E9, 0.0, 2024-03-13 22:28:42.738
81.0, -652.0459474246018, -290.8370599541813, -390.85881431913003, -306.45862206909806, 0.8800000417977571, 0.43200002051889896, 0.4000000189989805, 0.0, 0.0, 0.0, 0.0, 0.0, 1.7103941227393265E9, 0.0, 2024-03-13 22:28:42.739
81.0, -663.8303721849807, -293.64198492094874, -391.6853322093375, -308.38467054627836, 0.8800000417977571, 0.43200002051889896, 0.4000000189989805, 0.0, 0.0, 0.0, 0.0, 0.0, 1.7103941227393265E9, 0.0, 2024-03-13 22:28:42.739
82.0, -654.3721651970409, -291.5775601454079, -411.6563979727216, -314.1964750774205, 0.8800000417977571, 0.43200002051889896, 0.4000000189989805, 0.0, 0.0, 0.0, 0.0, 0.0, 1.7103941227529476E9, 0.0, 2024-03-13 22:28:42.752
82.0, -648.7660551634617, -286.8690261011943, -402.08599398611113, -311.2269945126027, 0.8800000417977571, 0.43200002051889896, 0.4000000189989805, 0.0, 0.0, 0.0, 0.0, 0.0, 1.7103941227529476E9, 0.0, 2024-03-13 22:28:42.752
83.0, -646.1182059948333, -278.237337003462, -384.59074199339375, -300.8487721355632, 0.8800000417977571, 0.43200002051889896, 0.4000000189989805, 0.0, 0.0, 0.0, 0.0, 0.0, 1.7103941227683864E9, 0.0, 2024-03-13 22:28:42.768
83.0, -638.4925499851815, -278.5477486997843, -389.07488204026595, -298.1410845676437, 0.8800000417977571, 0.43200002051889896, 0.4000000189989805, 0.0, 0.0, 0.0, 0.0, 0.0, 1.7103941227683864E9, 0.0, 2024-03-13 22:28:42.768
84.0, -651.5448008305393, -287.8713192893192, -406.3606996354647, -310.2172215245664, 0.8800000417977571, 0.43200002051889896, 0.4000000189989805, 0.0, 0.0, 0.0, 0.0, 0.0, 1.710394122769186E9, 0.0, 2024-03-13 22:28:42.769
84.0, -649.2036234582774, -293.9075178178027, -393.15137299196795, -309.2560672359541, 0.8800000417977571, 0.43200002051889896, 0.4000000189989805, 0.0, 0.0, 0.0, 0.0, 0.0, 1.710394122769186E9, 0.0, 2024-03-13 22:28:42.769
85.0, -647.7413225756027, -292.1834239382297, -397.67665193835273, -313.6280102841556, 0.8800000417977571, 0.43200002051889896, 0.4000000189989805, 0.0, 0.0, 0.0, 0.0, 0.0, 1.7103941227827735E9, 0.0, 2024-03-13 22:28:42.782
85.0, -643.4404376265593, -286.3155209077522, -408.7991144065745, -315.46056126244366, 0.8800000417977571, 0.43200002051889896, 0.4000000189989805, 0.0, 0.0, 0.0, 0.0, 0.0, 1.7103941227827735E9, 0.0, 2024-03-13 22:28:42.782
86.0, -636.955451103393, -277.45195801276714, -388.30072274943814, -305.3291722824797, 0.8800000417977571, 0.43200002051889896, 0.4000000189989805, 0.0, 0.0, 0.0, 0.0, 0.0, 1.7103941227983575E9, 0.0, 2024-03-13 22:28:42.798
86.0, -630.1002144846134, -279.1610922925174, -384.37008789600804, -302.86831811163574, 0.8800000417977571, 0.43200002051889896, 0.4000000189989805, 0.0, 0.0, 0.0, 0.0, 0.0, 1.7103941227983575E9, 0.0, 2024-03-13 22:28:42.798
87.0, -634.5282560321502, -278.82450129650533, -402.59836028004065, -311.93757550418377, 0.8800000417977571, 0.43200002051889896, 0.4000000189989805, 0.0, 0.0, 0.0, 0.0, 0.0, 1.7103941227991967E9, 0.0, 2024-03-13 22:28:42.799
87.0, -636.8432541047223, -285.40672521851957, -398.33861423050985, -309.2859864355996, 0.8800000417977571, 0.43200002051889896, 0.4000000189989805, 0.0, 0.0, 0.0, 0.0, 0.0, 1.7103941227991967E9, 0.0, 2024-03-13 22:28:42.799
88.0, -619.793050206732, -266.8269022386521, -382.6085950168781, -295.26510150171816, 0.8800000417977571, 0.43200002051889896, 0.4000000189989805, 0.0, 0.0, 0.0, 0.0, 0.0, 1.710394122812791E9, 0.0, 2024-03-13 22:28:42.812
88.0, -629.2998758940957, -272.8294416675344, -391.4235392124392, -297.3669252768159, 0.8800000417977571, 0.43200002051889896, 0.4000000189989805, 0.0, 0.0, 0.0, 0.0, 0.0, 1.710394122812791E9, 0.0, 2024-03-13 22:28:42.812
89.0, -620.2941968007945, -266.77080373931676, -402.6507188794203, -302.4344897167757, 0.8800000417977571, 0.43200002051889896, 0.4000000189989805, 0.0, 0.0, 0.0, 0.0, 0.0, 1.71039412282808E9, 0.0, 2024-03-13 22:28:42.828
89.0, -617.9343199287541, -263.2328583812341, -382.17476662201807, -293.7055632201955, 0.8800000417977571, 0.43200002051889896, 0.4000000189989805, 0.0, 0.0, 0.0, 0.0, 0.0, 1.71039412282808E9, 0.0, 2024-03-13 22:28:42.828
90.0, -634.0682483376004, -282.18667135667056, -392.88957999506965, -299.4837086517364, 0.8800000417977571, 0.43200002051889896, 0.4000000189989805, 0.0, 0.0, 0.0, 0.0, 0.0, 1.7103941228433194E9, 0.0, 2024-03-13 22:28:42.843
90.0, -632.6695257541724, -282.10813345760107, -399.84953381260857, -304.67468979023397, 0.8800000417977571, 0.43200002051889896, 0.4000000189989805, 0.0, 0.0, 0.0, 0.0, 0.0, 1.7103941228433194E9, 0.0, 2024-03-13 22:28:42.843
91.0, -628.0283099091612, -278.66368559841067, -388.9365057419054, -296.9854554813355, 0.8800000417977571, 0.43200002051889896, 0.4000000189989805, 0.0, 0.0, 0.0, 0.0, 0.0, 1.7103941228440516E9, 0.0, 2024-03-13 22:28:42.844
91.0, -629.0044237975962, -272.63122696988285, -385.4883179827593, -297.8456324711442, 0.8800000417977571, 0.43200002051889896, 0.4000000189989805, 0.0, 0.0, 0.0, 0.0, 0.0, 1.7103941228440516E9, 0.0, 2024-03-13 22:28:42.844
92.0, -628.4022999047302, -269.6767060048878, -399.1052937214263, -302.4419695166871, 0.8800000417977571, 0.43200002051889896, 0.4000000189989805, 0.0, 0.0, 0.0, 0.0, 0.0, 1.7103941228583572E9, 0.0, 2024-03-13 22:28:42.858
92.0, -632.6994449538179, -275.065901841037, -387.44802555954084, -297.41180407628417, 0.8800000417977571, 0.43200002051889896, 0.4000000189989805, 0.0, 0.0, 0.0, 0.0, 0.0, 1.7103941228583572E9, 0.0, 2024-03-13 22:28:42.858
93.0, -630.5677019790746, -268.47619811911136, -380.390834343154, -292.5013154344633, 0.8800000417977571, 0.43200002051889896, 0.4000000189989805, 0.0, 0.0, 0.0, 0.0, 0.0, 1.7103941228590748E9, 0.0, 2024-03-13 22:28:42.859
93.0, -629.4345122925006, -268.2854632213712, -390.5297031230293, -296.3908113883808, 0.8800000417977571, 0.43200002051889896, 0.4000000189989805, 0.0, 0.0, 0.0, 0.0, 0.0, 1.7103941228590748E9, 0.0, 2024-03-13 22:28:42.859
94.0, -629.2624768945388, -264.69515926390886, -383.44633260695264, -290.00680216401815, 0.8800000417977571, 0.43200002051889896, 0.4000000189989805, 0.0, 0.0, 0.0, 0.0, 0.0, 1.710394122872828E9, 0.0, 2024-03-13 22:28:42.872
94.0, -621.4834849867038, -261.4152670027688, -376.7182525866665, -291.5065020462498, 0.8800000417977571, 0.43200002051889896, 0.4000000189989805, 0.0, 0.0, 0.0, 0.0, 0.0, 1.710394122872828E9, 0.0, 2024-03-13 22:28:42.872
95.0, -634.5581752317958, -268.81652901507914, -389.43765233596787, -299.97737544588745, 0.8800000417977571, 0.43200002051889896, 0.4000000189989805, 0.0, 0.0, 0.0, 0.0, 0.0, 1.7103941228883727E9, 0.0, 2024-03-13 22:28:42.888
95.0, -632.6059474549256, -279.2770291911438, -399.74107671389356, -306.2566674714908, 0.8800000417977571, 0.43200002051889896, 0.4000000189989805, 0.0, 0.0, 0.0, 0.0, 0.0, 1.7103941228883727E9, 0.0, 2024-03-13 22:28:42.888
96.0, -628.0918882084079, -276.1317733284086, -386.7636238676496, -303.82573250029236, 0.8800000417977571, 0.43200002051889896, 0.4000000189989805, 0.0, 0.0, 0.0, 0.0, 0.0, 1.710394122889089E9, 0.0, 2024-03-13 22:28:42.889
96.0, -634.6928116302006, -277.2387837152928, -388.74577084416524, -310.1873023249209, 0.8800000417977571, 0.43200002051889896, 0.4000000189989805, 0.0, 0.0, 0.0, 0.0, 0.0, 1.710394122889089E9, 0.0, 2024-03-13 22:28:42.889
97.0, -641.6565053476952, -278.78710229694843, -404.0157823632471, -312.05351240281016, 0.8800000417977571, 0.43200002051889896, 0.4000000189989805, 0.0, 0.0, 0.0, 0.0, 0.0, 1.7103941229026887E9, 0.0, 2024-03-13 22:28:42.902
97.0, -642.8794526332058, -286.45015730615705, -400.833127500955, -315.9729275563732, 0.8800000417977571, 0.43200002051889896, 0.4000000189989805, 0.0, 0.0, 0.0, 0.0, 0.0, 1.7103941229026887E9, 0.0, 2024-03-13 22:28:42.902
98.0, -631.8617073637433, -283.5031161410734, -395.2831159667112, -312.13579020183533, 0.8800000417977571, 0.43200002051889896, 0.4000000189989805, 0.0, 0.0, 0.0, 0.0, 0.0, 1.7103941229184432E9, 0.0, 2024-03-13 22:28:42.918
98.0, -642.8719728332944, -292.8528660302982, -401.93639798788354, -317.5249860379845, 0.8800000417977571, 0.43200002051889896, 0.4000000189989805, 0.0, 0.0, 0.0, 0.0, 0.0, 1.7103941229184432E9, 0.0, 2024-03-13 22:28:42.918
99.0, -635.5829078196548, -287.6656247917563, -408.66821790812537, -315.0416924674064, 0.8800000417977571, 0.43200002051889896, 0.4000000189989805, 0.0, 0.0, 0.0, 0.0, 0.0, 1.7103941229192207E9, 0.0, 2024-03-13 22:28:42.919
99.0, -633.0996142490767, -274.3104420499876, -392.26501670246944, -306.27536697126925, 0.8800000417977571, 0.43200002051889896, 0.4000000189989805, 0.0, 0.0, 0.0, 0.0, 0.0, 1.7103941229192207E9, 0.0, 2024-03-13 22:28:42.919
100.0, -622.5605761739425, -272.92293916642666, -394.4752975762822, -304.3642780939117, 0.8800000417977571, 0.43200002051889896, 0.4000000189989805, 0.0, 0.0, 0.0, 0.0, 0.0, 1.710394122933378E9, 0.0, 2024-03-13 22:28:42.933
100.0, -629.3671940932982, -272.9042396666482, -401.4614306935109, -304.7794069889933, 0.8800000417977571, 0.43200002051889896, 0.4000000189989805, 0.0, 0.0, 0.0, 0.0, 0.0, 1.710394122933378E9, 0.0, 2024-03-13 22:28:42.933
0.0, -629.4307723925449, -271.5429160827771, -390.06034567859024, -298.8310961094685, 0.8800000417977571, 0.43200002051889896, 0.4000000189989805, 0.0, 0.0, 0.0, 0.0, 0.0, 1.7103941229341204E9, 0.0, 2024-03-13 22:28:42.934
1.0, -640.0146892671473, -281.9547975594178, -396.38451650366187, -311.89082675473765, 0.8800000417977571, 0.41600001975893974, 0.4000000189989805, 0.0, 0.0, 0.0, 0.0, 0.0, 1.7103941229477053E9, 0.0, 2024-03-13 22:28:42.947
1.0, -631.1810455718078, -273.89531315490603, -408.3895953614265, -312.14140005176887, 0.8800000417977571, 0.41600001975893974, 0.4000000189989805, 0.0, 0.0, 0.0, 0.0, 0.0, 1.7103941229477053E9, 0.0, 2024-03-13 22:28:42.947
2.0, -628.0470094089396, -273.3455478614196, -394.0321194315329, -304.03703684778884, 0.8800000417977571, 0.41600001975893974, 0.4000000189989805, 0.0, 0.0, 0.0, 0.0, 0.0, 1.710394122963816E9, 0.0, 2024-03-13 22:28:42.963
2.0, -630.5452625793405, -274.07108845282346, -383.2911267587915, -298.8572754091583, 0.8800000417977571, 0.41600001975893974, 0.4000000189989805, 0.0, 0.0, 0.0, 0.0, 0.0, 1.710394122963816E9, 0.0, 2024-03-13 22:28:42.963
3.0, -622.7064322722144, -268.1695263227448, -392.4127427507192, -300.9067405848764, 0.8800000417977571, 0.41600001975893974, 0.4000000189989805, 0.0, 0.0, 0.0, 0.0, 0.0, 1.7103941229641924E9, 0.0, 2024-03-13 22:28:42.964
3.0, -633.2492102473043, -267.3392685325816, -395.56921831332147, -297.0135047310032, 0.8800000417977571, 0.41600001975893974, 0.4000000189989805, 0.0, 0.0, 0.0, 0.0, 0.0, 1.7103941229641924E9, 0.0, 2024-03-13 22:28:42.964
4.0, -634.5768747315742, -275.0285028414801, -395.02693281974643, -300.6150283883326, 0.8800000417977571, 0.41600001975893974, 0.4000000189989805, 0.0, 0.0, 0.0, 0.0, 0.0, 1.7103941229777164E9, 0.0, 2024-03-13 22:28:42.977
4.0, -633.6568593424745, -275.45111153647304, -399.98604016099125, -304.5681026414968, 0.8800000417977571, 0.41600001975893974, 0.4000000189989805, 0.0, 0.0, 0.0, 0.0, 0.0, 1.7103941229777164E9, 0.0, 2024-03-13 22:28:42.977
5.0, -637.4154587979428, -282.71025735046715, -405.87264269124717, -309.8039625794627, 0.8800000417977571, 0.41600001975893974, 0.4000000189989805, 0.0, 0.0, 0.0, 0.0, 0.0, 1.71039412299337E9, 0.0, 2024-03-13 22:28:42.993
5.0, -624.3445084528066, -269.18303921073675, -389.3385449871421, -302.0922888708301, 0.8800000417977571, 0.41600001975893974, 0.4000000189989805, 0.0, 0.0, 0.0, 0.0, 0.0, 1.71039412299337E9, 0.0, 2024-03-13 22:28:42.993
6.0, -622.5643160738982, -263.14684068225324, -383.19388935994357, -295.3043704512529, 0.8800000417977571, 0.41600001975893974, 0.4000000189989805, 0.0, 0.0, 0.0, 0.0, 0.0, 1.7103941229940944E9, 0.0, 2024-03-13 22:28:42.994
6.0, -624.1687331548892, -266.22477834578604, -395.17278891801834, -294.2609383636154, 0.8800000417977571, 0.41600001975893974, 0.4000000189989805, 0.0, 0.0, 0.0, 0.0, 0.0, 1.7103941229940944E9, 0.0, 2024-03-13 22:28:42.994
7.0, -620.1745200022124, -261.6882796995342, -385.16855653654784, -297.2752977279015, 0.8800000417977571, 0.41600001975893974, 0.4000000189989805, 0.0, 0.0, 0.0, 0.0, 0.0, 1.7103941230076973E9, 0.0, 2024-03-13 22:28:43.007
7.0, -629.924439186696, -267.3056094329804, -387.53591320849955, -296.871388532687, 0.8800000417977571, 0.41600001975893974, 0.4000000189989805, 0.0, 0.0, 0.0, 0.0, 0.0, 1.7103941230076973E9, 0.0, 2024-03-13 22:28:43.007
8.0, -626.872680822853, -273.5362827591598, -389.01317369099706, -297.73904532240704, 0.8800000417977571, 0.41600001975893974, 0.4000000189989805, 0.0, 0.0, 0.0, 0.0, 0.0, 1.7103941230235908E9, 0.0, 2024-03-13 22:28:43.023
8.0, -626.7305646245368, -274.74427044484764, -397.420468791388, -301.9352130726911, 0.8800000417977571, 0.41600001975893974, 0.4000000189989805, 0.0, 0.0, 0.0, 0.0, 0.0, 1.7103941230235908E9, 0.0, 2024-03-13 22:28:43.023
9.0, -631.7270709653385, -273.70457825716585, -386.56727911997586, -298.8909345087595, 0.8800000417977571, 0.41600001975893974, 0.4000000189989805, 0.0, 0.0, 0.0, 0.0, 0.0, 1.7103941230243511E9, 0.0, 2024-03-13 22:28:43.024
9.0, -638.1933579887263, -275.8363212319091, -394.87359692156315, -304.4147667433135, 0.8800000417977571, 0.41600001975893974, 0.4000000189989805, 0.0, 0.0, 0.0, 0.0, 0.0, 1.7103941230243511E9, 0.0, 2024-03-13 22:28:43.024
10.0, -631.5138966678642, -272.6910653691739, -410.4278408372775, -306.7185451160185, 0.8800000417977571, 0.41600001975893974, 0.4000000189989805, 0.0, 0.0, 0.0, 0.0, 0.0, 1.7103941230377E9, 0.0, 2024-03-13 22:28:43.037
10.0, -641.2563360524364, -284.71484372671694, -393.68430873565376, -306.66244661668316, 0.8800000417977571, 0.41600001975893974, 0.4000000189989805, 0.0, 0.0, 0.0, 0.0, 0.0, 1.7103941230377E9, 0.0, 2024-03-13 22:28:43.037
11.0, -638.5486484845169, -282.66537855099887, -395.550518813543, -312.5677486467175, 0.8800000417977571, 0.41600001975893974, 0.4000000189989805, 0.0, 0.0, 0.0, 0.0, 0.0, 1.7103941230537863E9, 0.0, 2024-03-13 22:28:43.053
11.0, -645.2094103056006, -283.2562827439979, -410.3380832383409, -318.6937047741376, 0.8800000417977571, 0.41600001975893974, 0.4000000189989805, 0.0, 0.0, 0.0, 0.0, 0.0, 1.7103941230537863E9, 0.0, 2024-03-13 22:28:43.053
12.0, -637.8343275929801, -279.59866058733314, -398.4190220795572, -308.03125000046566, 0.8800000417977571, 0.41600001975893974, 0.4000000189989805, 0.0, 0.0, 0.0, 0.0, 0.0, 1.710394123054459E9, 0.0, 2024-03-13 22:28:43.054
12.0, -636.4019459099509, -286.9587837001309, -395.973127508536, -308.5997147937305, 0.8800000417977571, 0.41600001975893974, 0.4000000189989805, 0.0, 0.0, 0.0, 0.0, 0.0, 1.710394123054459E9, 0.0, 2024-03-13 22:28:43.054
13.0, -647.1279789828695, -293.00994182843715, -408.3035776624456, -318.1738586802967, 0.8800000417977571, 0.41600001975893974, 0.4000000189989805, 0.0, 0.0, 0.0, 0.0, 0.0, 1.710394123067685E9, 0.0, 2024-03-13 22:28:43.067
13.0, -639.9959897673689, -285.956490512006, -413.51325830072165, -313.66727923369035, 0.8800000417977571, 0.41600001975893974, 0.4000000189989805, 0.0, 0.0, 0.0, 0.0, 0.0, 1.710394123067685E9, 0.0, 2024-03-13 22:28:43.067
14.0, -644.842900109943, -281.7939818613231, -399.4213152676821, -308.69695219257846, 0.8800000417977571, 0.41600001975893974, 0.4000000189989805, 0.0, 0.0, 0.0, 0.0, 0.0, 1.7103941230834072E9, 0.0, 2024-03-13 22:28:43.083
14.0, -649.2522421577014, -291.11381255090237, -411.4637931250036, -319.942831359338, 0.8800000417977571, 0.41600001975893974, 0.4000000189989805, 0.0, 0.0, 0.0, 0.0, 0.0, 1.7103941230834072E9, 0.0, 2024-03-13 22:28:43.083
15.0, -656.0551201771013, -298.67215036135167, -415.7497184742242, -328.15191176207736, 0.8800000417977571, 0.41600001975893974, 0.4000000189989805, 0.0, 0.0, 0.0, 0.0, 0.0, 1.7103941230841577E9, 0.0, 2024-03-13 22:28:43.084
15.0, -655.8269862798043, -297.6960364729166, -409.7808381449431, -326.2931814840995, 0.8800000417977571, 0.41600001975893974, 0.4000000189989805, 0.0, 0.0, 0.0, 0.0, 0.0, 1.7103941230841577E9, 0.0, 2024-03-13 22:28:43.084
16.0, -657.9662090544589, -297.67359707318246, -404.7057939050719, -321.5883873398416, 0.8800000417977571, 0.41600001975893974, 0.4000000189989805, 0.0, 0.0, 0.0, 0.0, 0.0, 1.71039412309773E9, 0.0, 2024-03-13 22:28:43.097
16.0, -648.3135272688232, -291.9066713415086, -413.33374310284853, -320.6160133513622, 0.8800000417977571, 0.41600001975893974, 0.4000000189989805, 0.0, 0.0, 0.0, 0.0, 0.0, 1.71039412309773E9, 0.0, 2024-03-13 22:28:43.097
17.0, -634.8910263278522, -283.278722143732, -402.21128063462675, -316.2478102031164, 0.8800000417977571, 0.41600001975893974, 0.4000000189989805, 0.0, 0.0, 0.0, 0.0, 0.0, 1.71039412311339E9, 0.0, 2024-03-13 22:28:43.113
17.0, -640.6429924597032, -279.96143088303506, -398.94260807335377, -312.4592915480025, 0.8800000417977571, 0.41600001975893974, 0.4000000189989805, 0.0, 0.0, 0.0, 0.0, 0.0, 1.71039412311339E9, 0.0, 2024-03-13 22:28:43.113
18.0, -639.898752368521, -280.6159133752808, -409.03285815380514, -315.37641351344064, 0.8800000417977571, 0.41600001975893974, 0.4000000189989805, 0.0, 0.0, 0.0, 0.0, 0.0, 1.7103941231141412E9, 0.0, 2024-03-13 22:28:43.114
18.0, -643.2123037292622, -277.8259480083361, -406.39996858499944, -311.40463976049796, 0.8800000417977571, 0.41600001975893974, 0.4000000189989805, 0.0, 0.0, 0.0, 0.0, 0.0, 1.7103941231141412E9, 0.0, 2024-03-13 22:28:43.114
19.0, -636.3608070104383, -268.9736048132181, -387.87250420451164, -300.4878717898391, 0.8800000417977571, 0.41600001975893974, 0.4000000189989805, 0.0, 0.0, 0.0, 0.0, 0.0, 1.7103941231278107E9, 0.0, 2024-03-13 22:28:43.127
19.0, -634.7863091290928, -268.8651477145031, -393.83016483392566, -302.4139202670194, 0.8800000417977571, 0.41600001975893974, 0.4000000189989805, 0.0, 0.0, 0.0, 0.0, 0.0, 1.7103941231278107E9, 0.0, 2024-03-13 22:28:43.127
20.0, -638.342953986954, -276.58804112300277, -400.80507825128734, -305.32730233250186, 0.8800000417977571, 0.41600001975893974, 0.4000000189989805, 0.0, 0.0, 0.0, 0.0, 0.0, 1.7103941231434088E9, 0.0, 2024-03-13 22:28:43.143
20.0, -644.3866323153488, -289.1316655743867, -402.39827563241124, -309.6394069814123, 0.8800000417977571, 0.41600001975893974, 0.4000000189989805, 0.0, 0.0, 0.0, 0.0, 0.0, 1.7103941231434088E9, 0.0, 2024-03-13 22:28:43.143
21.0, -645.7180366995744, -294.38622501213104, -392.05371235497296, -306.6026082173921, 0.8800000417977571, 0.43200002051889896, 0.4000000189989805, 0.0, 0.0, 0.0, 0.0, 0.0, 1.7103941231441274E9, 0.0, 2024-03-13 22:28:43.144
21.0, -637.9540043915622, -280.75054977368563, -401.9719270374626, -307.604901405517, 0.8800000417977571, 0.43200002051889896, 0.4000000189989805, 0.0, 0.0, 0.0, 0.0, 0.0, 1.7103941231441274E9, 0.0, 2024-03-13 22:28:43.144
22.0, -646.5146353901364, -295.7026697965339, -405.80906439200044, -316.2478102031164, 0.8800000417977571, 0.43200002051889896, 0.4000000189989805, 0.0, 0.0, 0.0, 0.0, 0.0, 1.7103941231579154E9, 0.0, 2024-03-13 22:28:43.157
22.0, -650.101199447643, -291.3943050475791, -393.2280409410596, -308.37532079638913, 0.8800000417977571, 0.43200002051889896, 0.4000000189989805, 0.0, 0.0, 0.0, 0.0, 0.0, 1.7103941231579154E9, 0.0, 2024-03-13 22:28:43.157
23.0, -646.5221151900478, -293.4400303233415, -399.6307496652007, -309.377613984514, 0.8800000417977571, 0.43200002051889896, 0.4000000189989805, 0.0, 0.0, 0.0, 0.0, 0.0, 1.7103941231888835E9, 0.0, 2024-03-13 22:28:43.188
23.0, -652.0983060239814, -300.1045320443809, -412.32397011481225, -316.5395223996602, 0.8800000417977571, 0.43200002051889896, 0.4000000189989805, 0.0, 0.0, 0.0, 0.0, 0.0, 1.7103941231888835E9, 0.0, 2024-03-13 22:28:43.188
24.0, -640.007209467236, -278.89555939566344, -390.24734067637473, -305.4282796313055, 0.8800000417977571, 0.43200002051889896, 0.4000000189989805, 0.0, 0.0, 0.0, 0.0, 0.0, 1.7103941231897285E9, 0.0, 2024-03-13 22:28:43.189
24.0, -646.3239004923962, -284.70736392680556, -393.01486664358526, -304.6391607406549, 0.8800000417977571, 0.43200002051889896, 0.4000000189989805, 0.0, 0.0, 0.0, 0.0, 0.0, 1.7103941231897285E9, 0.0, 2024-03-13 22:28:43.189
25.0, -643.4292179266922, -282.8037548493594, -401.71387394052, -306.4604920190759, 0.8800000417977571, 0.43200002051889896, 0.4000000189989805, 0.0, 0.0, 0.0, 0.0, 0.0, 1.7103941232044203E9, 0.0, 2024-03-13 22:28:43.204
25.0, -628.2639236063696, -271.1203073877841, -388.3773906985298, -297.0172446309589, 0.8800000417977571, 0.43200002051889896, 0.4000000189989805, 0.0, 0.0, 0.0, 0.0, 0.0, 1.7103941232044203E9, 0.0, 2024-03-13 22:28:43.204
26.0, -637.5650547961704, -277.6127737108618, -392.82787164580077, -305.9481257251464, 0.8800000417977571, 0.43200002051889896, 0.4000000189989805, 0.0, 0.0, 0.0, 0.0, 0.0, 1.7103941232050211E9, 0.0, 2024-03-13 22:28:43.205
26.0, -651.1371517353691, -287.0261018993333, -412.8961748080328, -315.4661711123772, 0.8800000417977571, 0.43200002051889896, 0.4000000189989805, 0.0, 0.0, 0.0, 0.0, 0.0, 1.7103941232050211E9, 0.0, 2024-03-13 22:28:43.205
27.0, -644.0126423197798, -283.67141163907945, -396.7098877998069, -310.26023037405685, 0.8800000417977571, 0.43200002051889896, 0.4000000189989805, 0.0, 0.0, 0.0, 0.0, 0.0, 1.710394123205675E9, 0.0, 2024-03-13 22:28:43.205
27.0, -648.6276788651012, -285.29826811980456, -398.7855322752148, -311.40837966045365, 0.8800000417977571, 0.43200002051889896, 0.4000000189989805, 0.0, 0.0, 0.0, 0.0, 0.0, 1.710394123205675E9, 0.0, 2024-03-13 22:28:43.205
28.0, -646.9596834848635, -283.7985682375729, -402.80592472758144, -317.19026499195024, 0.8800000417977571, 0.43200002051889896, 0.4000000189989805, 0.0, 0.0, 0.0, 0.0, 0.0, 1.7103941232177E9, 0.0, 2024-03-13 22:28:43.217
28.0, -642.744816234801, -281.81268136110157, -401.3810228444636, -310.74267746834084, 0.8800000417977571, 0.43200002051889896, 0.4000000189989805, 0.0, 0.0, 0.0, 0.0, 0.0, 1.7103941232177E9, 0.0, 2024-03-13 22:28:43.217
29.0, -636.2598297116347, -279.2097109919414, -388.43348919786513, -298.7450784104876, 0.8800000417977571, 0.43200002051889896, 0.4000000189989805, 0.0, 0.0, 0.0, 0.0, 0.0, 1.7103941232333496E9, 0.0, 2024-03-13 22:28:43.233
29.0, -650.7631617398001, -282.34000725485384, -385.6622233306989, -304.9682719367556, 0.8800000417977571, 0.43200002051889896, 0.4000000189989805, 0.0, 0.0, 0.0, 0.0, 0.0, 1.7103941232333496E9, 0.0, 2024-03-13 22:28:43.233
30.0, -644.6147662126459, -283.41709844209254, -399.3053783690557, -309.48607108322904, 0.8800000417977571, 0.43200002051889896, 0.4000000189989805, 0.0, 0.0, 0.0, 0.0, 0.0, 1.7103941232340791E9, 0.0, 2024-03-13 22:28:43.234
30.0, -649.618752353359, -284.92427812423557, -390.08652497828007, -304.0145974480547, 0.8800000417977571, 0.43200002051889896, 0.4000000189989805, 0.0, 0.0, 0.0, 0.0, 0.0, 1.7103941232340791E9, 0.0, 2024-03-13 22:28:43.234
31.0, -644.3641929156147, -285.71339701488614, -391.13743686582893, -300.74218498682603, 0.8800000417977571, 0.43200002051889896, 0.4000000189989805, 0.0, 0.0, 0.0, 0.0, 0.0, 1.7103941232477553E9, 0.0, 2024-03-13 22:28:43.247
31.0, -645.3290871041827, -282.59058055188507, -399.58587086573243, -306.32959552062675, 0.8800000417977571, 0.43200002051889896, 0.4000000189989805, 0.0, 0.0, 0.0, 0.0, 0.0, 1.7103941232477553E9, 0.0, 2024-03-13 22:28:43.247
32.0, -634.3898797337897, -270.07313540019095, -391.64232335984707, -301.3517886796035, 0.8800000417977571, 0.43200002051889896, 0.4000000189989805, 0.0, 0.0, 0.0, 0.0, 0.0, 1.710394123263373E9, 0.0, 2024-03-13 22:28:43.263
32.0, -636.9891102029942, -281.11332006938756, -389.12537068966776, -301.06755628297105, 0.8800000417977571, 0.43200002051889896, 0.4000000189989805, 0.0, 0.0, 0.0, 0.0, 0.0, 1.710394123263373E9, 0.0, 2024-03-13 22:28:43.263
33.0, -640.4597373618744, -278.14383950456977, -396.90810249745846, -308.73809109209105, 0.8800000417977571, 0.43200002051889896, 0.4000000189989805, 0.0, 0.0, 0.0, 0.0, 0.0, 1.7103941232643774E9, 0.0, 2024-03-13 22:28:43.264
33.0, -638.4364514858462, -285.81437431368977, -406.83753687981516, -312.33961474942043, 0.8800000417977571, 0.43200002051889896, 0.4000000189989805, 0.0, 0.0, 0.0, 0.0, 0.0, 1.7103941232643774E9, 0.0, 2024-03-13 22:28:43.264
34.0, -640.874866256956, -274.62833354622126, -392.36038415133953, -303.84256205009297, 0.8800000417977571, 0.43200002051889896, 0.4000000189989805, 0.0, 0.0, 0.0, 0.0, 0.0, 1.7103941232779484E9, 0.0, 2024-03-13 22:28:43.277
34.0, -647.7188831758685, -291.01657515205443, -397.2559131933376, -310.0620156764053, 0.8800000417977571, 0.43200002051889896, 0.4000000189989805, 0.0, 0.0, 0.0, 0.0, 0.0, 1.7103941232779484E9, 0.0, 2024-03-13 22:28:43.277
35.0, -645.9536503967829, -290.575266957283, -415.85069577302784, -320.4402380534448, 0.8800000417977571, 0.43200002051889896, 0.4000000189989805, 0.0, 0.0, 0.0, 0.0, 0.0, 1.7103941232934299E9, 0.0, 2024-03-13 22:28:43.293
35.0, -647.737582675647, -292.15724463853985, -401.7849320396781, -315.73918380914256, 0.8800000417977571, 0.43200002051889896, 0.4000000189989805, 0.0, 0.0, 0.0, 0.0, 0.0, 1.7103941232934299E9, 0.0, 2024-03-13 22:28:43.293
36.0, -651.8327731271274, -287.2542357966304, -398.0861709835008, -314.66209262190387, 0.8800000417977571, 0.43200002051889896, 0.4000000189989805, 0.0, 0.0, 0.0, 0.0, 0.0, 1.7103941232940686E9, 0.0, 2024-03-13 22:28:43.294
36.0, -653.8822383028455, -289.0568675752729, -409.54522444773465, -320.907725547906, 0.8800000417977571, 0.43200002051889896, 0.4000000189989805, 0.0, 0.0, 0.0, 0.0, 0.0, 1.7103941232940686E9, 0.0, 2024-03-13 22:28:43.294
37.0, -644.8092410103418, -289.03816807549447, -405.2256399989128, -313.9814308299683, 0.8800000417977571, 0.43200002051889896, 0.4000000189989805, 0.0, 0.0, 0.0, 0.0, 0.0, 1.7103941233076887E9, 0.0, 2024-03-13 22:28:43.307
37.0, -649.3606992564164, -288.14807188604027, -398.27690588124096, -311.00447046523914, 0.8800000417977571, 0.43200002051889896, 0.4000000189989805, 0.0, 0.0, 0.0, 0.0, 0.0, 1.7103941233076887E9, 0.0, 2024-03-13 22:28:43.307
38.0, -646.4734964906238, -290.19753706175834, -409.14131525252014, -313.0539356409572, 0.8800000417977571, 0.43200002051889896, 0.4000000189989805, 0.0, 0.0, 0.0, 0.0, 0.0, 1.7103941233236823E9, 0.0, 2024-03-13 22:28:43.323
38.0, -647.0943198832683, -287.4973292937502, -410.06881044153124, -315.40633271308616, 0.8800000417977571, 0.43200002051889896, 0.4000000189989805, 0.0, 0.0, 0.0, 0.0, 0.0, 1.7103941233236823E9, 0.0, 2024-03-13 22:28:43.323
39.0, -646.3575595919974, -290.7734816549346, -394.50334682594985, -307.4141665077768, 0.8800000417977571, 0.43200002051889896, 0.4000000189989805, 0.0, 0.0, 0.0, 0.0, 0.0, 1.7103941233242958E9, 0.0, 2024-03-13 22:28:43.324
39.0, -639.4724037735723, -288.49588258191943, -393.0373060433194, -306.9803381129168, 0.8800000417977571, 0.43200002051889896, 0.4000000189989805, 0.0, 0.0, 0.0, 0.0, 0.0, 1.7103941233242958E9, 0.0, 2024-03-13 22:28:43.324
40.0, -645.5497412015684, -289.0269483756274, -404.24204631056637, -311.3485412611626, 0.8800000417977571, 0.43200002051889896, 0.4000000189989805, 0.0, 0.0, 0.0, 0.0, 0.0, 1.7103941233379896E9, 0.0, 2024-03-13 22:28:43.337
40.0, -645.2318497053348, -288.5145820816979, -395.68515521194786, -305.9855247247033, 0.8800000417977571, 0.43200002051889896, 0.4000000189989805, 0.0, 0.0, 0.0, 0.0, 0.0, 1.7103941233379896E9, 0.0, 2024-03-13 22:28:43.337
41.0, -642.0978135424666, -285.53014191705734, -389.39090358652174, -298.3000303157605, 0.8800000417977571, 0.43200002051889896, 0.4000000189989805, 0.0, 0.0, 0.0, 0.0, 0.0, 1.710394123353699E9, 0.0, 2024-03-13 22:28:43.353
41.0, -646.290241392795, -277.6090338109061, -397.17737529426813, -300.83942238567397, 0.8800000417977571, 0.43200002051889896, 0.4000000189989805, 0.0, 0.0, 0.0, 0.0, 0.0, 1.710394123353699E9, 0.0, 2024-03-13 22:28:43.353
42.0, -641.525608849246, -274.7143512452021, -390.0827850783244, -298.7562981103547, 0.8800000417977571, 0.43200002051889896, 0.4000000189989805, 0.0, 0.0, 0.0, 0.0, 0.0, 1.710394123354303E9, 0.0, 2024-03-13 22:28:43.354
42.0, -639.9062321684323, -274.3553208494559, -380.5497800912708, -293.7410922697745, 0.8800000417977571, 0.43200002051889896, 0.4000000189989805, 0.0, 0.0, 0.0, 0.0, 0.0, 1.710394123354303E9, 0.0, 2024-03-13 22:28:43.354
43.0, -643.5862937248312, -278.7945820968598, -392.42396245058626, -301.0787759828381, 0.8800000417977571, 0.43200002051889896, 0.4000000189989805, 0.0, 0.0, 0.0, 0.0, 0.0, 1.710394123367787E9, 0.0, 2024-03-13 22:28:43.367
43.0, -633.7092179418541, -272.2871561739594, -392.8951898450032, -297.0471638306044, 0.8800000417977571, 0.43200002051889896, 0.4000000189989805, 0.0, 0.0, 0.0, 0.0, 0.0, 1.710394123367787E9, 0.0, 2024-03-13 22:28:43.367
44.0, -650.161037846934, -277.4332585129887, -387.46485510934144, -298.25515151629224, 0.8800000417977571, 0.43200002051889896, 0.4000000189989805, 0.0, 0.0, 0.0, 0.0, 0.0, 1.7103941233837745E9, 0.0, 2024-03-13 22:28:43.383
44.0, -644.0425615194254, -273.0987144643441, -392.7792529463768, -297.17058052914217, 0.8800000417977571, 0.43200002051889896, 0.4000000189989805, 0.0, 0.0, 0.0, 0.0, 0.0, 1.7103941233837745E9, 0.0, 2024-03-13 22:28:43.383
45.0, -648.1639312705956, -275.85128083173186, -397.0502186957747, -302.73555166320875, 0.8800000417977571, 0.43200002051889896, 0.4000000189989805, 0.0, 0.0, 0.0, 0.0, 0.0, 1.7103941233842952E9, 0.0, 2024-03-13 22:28:43.384
45.0, -652.3937581204809, -281.0609614700079, -386.8515115166083, -301.5051245777868, 0.8800000417977571, 0.43200002051889896, 0.4000000189989805, 0.0, 0.0, 0.0, 0.0, 0.0, 1.7103941233842952E9, 0.0, 2024-03-13 22:28:43.384
46.0, -656.2308954750188, -286.59227350447327, -385.5462864320725, -301.00023808376864, 0.8800000417977571, 0.43200002051889896, 0.4000000189989805, 0.0, 0.0, 0.0, 0.0, 0.0, 1.710394123397722E9, 0.0, 2024-03-13 22:28:43.397
46.0, -657.494981660042, -290.97543625254184, -409.1600147522986, -310.36494757281616, 0.8800000417977571, 0.43200002051889896, 0.4000000189989805, 0.0, 0.0, 0.0, 0.0, 0.0, 1.710394123397722E9, 0.0, 2024-03-13 22:28:43.397
47.0, -650.9351971377619, -292.288141136989, -395.58417791314423, -307.4627852072008, 0.8800000417977571, 0.43200002051889896, 0.4000000189989805, 0.0, 0.0, 0.0, 0.0, 0.0, 1.7103941234140596E9, 0.0, 2024-03-13 22:28:43.414
47.0, -655.1388446879573, -298.19344316702336, -388.42226949799806, -304.50826424220577, 0.8800000417977571, 0.43200002051889896, 0.4000000189989805, 0.0, 0.0, 0.0, 0.0, 0.0, 1.7103941234140596E9, 0.0, 2024-03-13 22:28:43.414
48.0, -648.2761282692663, -290.3695724597201, -393.72544763516635, -306.0229237242602, 0.8800000417977571, 0.43200002051889896, 0.4000000189989805, 0.0, 0.0, 0.0, 0.0, 0.0, 1.7103941234148104E9, 0.0, 2024-03-13 22:28:43.414
48.0, -646.1780443941243, -291.1811307501048, -406.42988778464496, -308.9026466901414, 0.8800000417977571, 0.43200002051889896, 0.4000000189989805, 0.0, 0.0, 0.0, 0.0, 0.0, 1.7103941234148104E9, 0.0, 2024-03-13 22:28:43.414
49.0, -650.0899797477759, -291.79073444288224, -391.32069196365774, -308.0088106007315, 0.8800000417977571, 0.43200002051889896, 0.4000000189989805, 0.0, 0.0, 0.0, 0.0, 0.0, 1.7103941234277196E9, 0.0, 2024-03-13 22:28:43.427
49.0, -665.0121805709787, -311.3653708109632, -396.4406150029972, -319.9877101588063, 0.8800000417977571, 0.43200002051889896, 0.4000000189989805, 0.0, 0.0, 0.0, 0.0, 0.0, 1.7103941234277196E9, 0.0, 2024-03-13 22:28:43.427
50.0, -658.302800050471, -288.8137740781531, -413.06073040608317, -320.92642504768446, 0.8800000417977571, 0.43200002051889896, 0.4000000189989805, 0.0, 0.0, 0.0, 0.0, 0.0, 1.710394123443384E9, 0.0, 2024-03-13 22:28:43.443
50.0, -655.5016149836592, -293.30165402498096, -401.7026542406529, -317.7175908857025, 0.8800000417977571, 0.43200002051889896, 0.4000000189989805, 0.0, 0.0, 0.0, 0.0, 0.0, 1.710394123443384E9, 0.0, 2024-03-13 22:28:43.443
51.0, -654.0243545011617, -299.5884258504957, -401.84103053901345, -320.56365475198254, 0.8800000417977571, 0.43200002051889896, 0.4000000189989805, 0.0, 0.0, 0.0, 0.0, 0.0, 1.7103941234441051E9, 0.0, 2024-03-13 22:28:43.444
51.0, -665.6629231632687, -303.71353550162166, -420.66020711604506, -332.96890290500596, 0.8800000417977571, 0.43200002051889896, 0.4000000189989805, 0.0, 0.0, 0.0, 0.0, 0.0, 1.7103941234441051E9, 0.0, 2024-03-13 22:28:43.444
52.0, -655.7035695812665, -301.9857017220929, -405.24807939864695, -323.92582481214777, 0.8800000417977571, 0.43200002051889896, 0.4000000189989805, 0.0, 0.0, 0.0, 0.0, 0.0, 1.7103941234578683E9, 0.0, 2024-03-13 22:28:43.457
52.0, -653.0968593121506, -297.7745743719861, -392.6259170481935, -309.73290448030457, 0.8800000417977571, 0.43200002051889896, 0.4000000189989805, 0.0, 0.0, 0.0, 0.0, 0.0, 1.7103941234578683E9, 0.0, 2024-03-13 22:28:43.457
53.0, -662.9140966958366, -306.5969983674586, -411.10102282930166, -321.5061095408164, 0.8800000417977571, 0.43200002051889896, 0.4000000189989805, 0.0, 0.0, 0.0, 0.0, 0.0, 1.7103941234734652E9, 0.0, 2024-03-13 22:28:43.473
53.0, -667.7722267382778, -303.3021465064958, -419.18668653350323, -322.08205413399264, 0.8800000417977571, 0.43200002051889896, 0.4000000189989805, 0.0, 0.0, 0.0, 0.0, 0.0, 1.7103941234734652E9, 0.0, 2024-03-13 22:28:43.473
54.0, -664.1557434811257, -302.78978021256626, -407.99690586607903, -320.5786143518053, 0.8800000417977571, 0.43200002051889896, 0.4000000189989805, 0.0, 0.0, 0.0, 0.0, 0.0, 1.7103941234742634E9, 0.0, 2024-03-13 22:28:43.474
54.0, -670.2143814093433, -312.3639240991324, -407.98568616621196, -324.2399764084257, 0.8800000417977571, 0.43200002051889896, 0.4000000189989805, 0.0, 0.0, 0.0, 0.0, 0.0, 1.7103941234742634E9, 0.0, 2024-03-13 22:28:43.474
55.0, -669.7468939148821, -312.5172599973157, -413.0083718067035, -326.7232699790038, 0.8800000417977571, 0.43200002051889896, 0.4000000189989805, 0.0, 0.0, 0.0, 0.0, 0.0, 1.7103941234877276E9, 0.0, 2024-03-13 22:28:43.487
55.0, -665.1842159689404, -300.01477444544435, -394.6641625240445, -315.44373171264306, 0.8800000417977571, 0.43200002051889896, 0.4000000189989805, 0.0, 0.0, 0.0, 0.0, 0.0, 1.7103941234877276E9, 0.0, 2024-03-13 22:28:43.487
56.0, -655.5090947835706, -293.469949522987, -389.79855268169194, -306.65870671672747, 0.8800000417977571, 0.43200002051889896, 0.4000000189989805, 0.0, 0.0, 0.0, 0.0, 0.0, 1.7103941235035205E9, 0.0, 2024-03-13 22:28:43.503
56.0, -662.7420612978749, -299.7716809483245, -406.3850089851767, -318.48053047666326, 0.8800000417977571, 0.43200002051889896, 0.4000000189989805, 0.0, 0.0, 0.0, 0.0, 0.0, 1.7103941235035205E9, 0.0, 2024-03-13 22:28:43.503
57.0, -646.0508877956308, -276.62918002251536, -389.110411089845, -299.018091107253, 0.8800000417977571, 0.43200002051889896, 0.4000000189989805, 0.0, 0.0, 0.0, 0.0, 0.0, 1.7103941235044012E9, 0.0, 2024-03-13 22:28:43.504
57.0, -645.4450240028091, -284.71484372671694, -386.6682564187795, -302.1334277703427, 0.8800000417977571, 0.43200002051889896, 0.4000000189989805, 0.0, 0.0, 0.0, 0.0, 0.0, 1.7103941235044012E9, 0.0, 2024-03-13 22:28:43.504
58.0, -652.3750586207025, -288.30514768417925, -401.17906824685633, -308.17710609873757, 0.8800000417977571, 0.43200002051889896, 0.4000000189989805, 0.0, 0.0, 0.0, 0.0, 0.0, 1.7103941235177135E9, 0.0, 2024-03-13 22:28:43.517
58.0, -638.9076788802631, -284.04166173469275, -396.27979930490255, -304.1342742466368, 0.8800000417977571, 0.43200002051889896, 0.4000000189989805, 0.0, 0.0, 0.0, 0.0, 0.0, 1.7103941235177135E9, 0.0, 2024-03-13 22:28:43.517
59.0, -655.3071401859634, -288.8137740781531, -392.861530745402, -310.9072330663912, 0.8800000417977571, 0.43200002051889896, 0.4000000189989805, 0.0, 0.0, 0.0, 0.0, 0.0, 1.7103941235334191E9, 0.0, 2024-03-13 22:28:43.533
59.0, -658.145724252332, -291.42048434726894, -402.9031621264294, -317.18278519203886, 0.8800000417977571, 0.43200002051889896, 0.4000000189989805, 0.0, 0.0, 0.0, 0.0, 0.0, 1.7103941235334191E9, 0.0, 2024-03-13 22:28:43.533
60.0, -657.9811686542816, -301.93334312271327, -422.4291797950864, -325.1375523977913, 0.8800000417977571, 0.43200002051889896, 0.4000000189989805, 0.0, 0.0, 0.0, 0.0, 0.0, 1.7103941235341425E9, 0.0, 2024-03-13 22:28:43.534
60.0, -651.4961821311153, -294.483462410979, -405.72304669301957, -315.5671484111808, 0.8800000417977571, 0.43200002051889896, 0.4000000189989805, 0.0, 0.0, 0.0, 0.0, 0.0, 1.7103941235341425E9, 0.0, 2024-03-13 22:28:43.534
61.0, -653.3399528092705, -292.3255401365459, -399.46993396710604, -316.0533354054205, 0.8800000417977571, 0.43200002051889896, 0.4000000189989805, 0.0, 0.0, 0.0, 0.0, 0.0, 1.710394123547712E9, 0.0, 2024-03-13 22:28:43.547
61.0, -652.4610763196833, -292.05252743978053, -405.95492049027234, -314.74437042092904, 0.8800000417977571, 0.43200002051889896, 0.4000000189989805, 0.0, 0.0, 0.0, 0.0, 0.0, 1.710394123547712E9, 0.0, 2024-03-13 22:28:43.547
62.0, -641.2264168527909, -277.8371677082032, -398.1497492827475, -309.26541698584333, 0.8800000417977571, 0.43200002051889896, 0.4000000189989805, 0.0, 0.0, 0.0, 0.0, 0.0, 1.7103941235636563E9, 0.0, 2024-03-13 22:28:43.563
62.0, -652.4124576202594, -293.8102804189548, -393.3738970393315, -307.713358504232, 0.8800000417977571, 0.43200002051889896, 0.4000000189989805, 0.0, 0.0, 0.0, 0.0, 0.0, 1.7103941235636563E9, 0.0, 2024-03-13 22:28:43.563
63.0, -651.87391202664, -287.03732159920037, -404.0363518130034, -308.4688182952814, 0.8800000417977571, 0.43200002051889896, 0.4000000189989805, 0.0, 0.0, 0.0, 0.0, 0.0, 1.710394123564123E9, 0.0, 2024-03-13 22:28:43.564
63.0, -650.4527500434779, -284.07906073424965, -404.8292106036097, -304.7550976392813, 0.8800000417977571, 0.43200002051889896, 0.4000000189989805, 0.0, 0.0, 0.0, 0.0, 0.0, 1.710394123564123E9, 0.0, 2024-03-13 22:28:43.564
64.0, -645.590880101081, -280.4027390778065, -384.31959924660623, -301.55000337725505, 0.8800000417977571, 0.43200002051889896, 0.4000000189989805, 0.0, 0.0, 0.0, 0.0, 0.0, 1.7103941235776975E9, 0.0, 2024-03-13 22:28:43.577
64.0, -649.8768054503016, -289.0942665748298, -395.02693281974643, -305.96308532496914, 0.8800000417977571, 0.43200002051889896, 0.4000000189989805, 0.0, 0.0, 0.0, 0.0, 0.0, 1.7103941235776975E9, 0.0, 2024-03-13 22:28:43.577
65.0, -650.8828385383822, -289.15410497412086, -401.13792934734374, -311.67391255730763, 0.8800000417977571, 0.43200002051889896, 0.4000000189989805, 0.0, 0.0, 0.0, 0.0, 0.0, 1.710394123593412E9, 0.0, 2024-03-13 22:28:43.593
65.0, -647.8535195742734, -285.01029582321644, -383.4444626569748, -303.69296605186537, 0.8800000417977571, 0.43200002051889896, 0.4000000189989805, 0.0, 0.0, 0.0, 0.0, 0.0, 1.710394123593412E9, 0.0, 2024-03-13 22:28:43.593
66.0, -659.1480174404569, -296.23747549019754, -400.06457806006074, -314.4975370238535, 0.8800000417977571, 0.43200002051889896, 0.4000000189989805, 0.0, 0.0, 0.0, 0.0, 0.0, 1.7103941235941298E9, 0.0, 2024-03-13 22:28:43.594
