%OpenBCI Raw EXG Data
%Number of channels = 4
%Sample Rate = 200 Hz
%Board = OpenBCI_GUI$BoardGanglionBLE
Sample Index, EXG Channel 0, EXG Channel 1, EXG Channel 2, EXG Channel 3, Accel Channel 0, Accel Channel 1, Accel Channel 2, Other, Other, Other, Other, Other, Timestamp, Other, Timestamp (Formatted)
0.0, 379.39976085489616, 196.84402431780472, 137.25619832379743, 214.54871070804074, 0.0, 0.0, 0.0, 0.0, 0.0, 0.0, 0.0, 0.0, 1.7103906894127955E9, 0.0, 2024-03-13 21:31:29.412
101.0, 368.39323528530076, 190.13464379729703, 110.96470163529739, 220.39417433878407, 0.0, 0.0, 0.0, 0.0, 0.0, 0.0, 0.0, 0.0, 1.7103906894264235E9, 0.0, 2024-03-13 21:31:29.426
101.0, 366.95337380236015, 185.2578142550774, 95.06638692365959, 216.88988808030263, 0.0, 0.0, 0.0, 0.0, 0.0, 0.0, 0.0, 0.0, 1.7103906894264235E9, 0.0, 2024-03-13 21:31:29.426
102.0, 375.7196992984973, 184.08348566899076, 119.06906483927742, 212.95551332691684, 0.0, 0.0, 0.0, 0.0, 0.0, 0.0, 0.0, 0.0, 1.7103906894430947E9, 0.0, 2024-03-13 21:31:29.443
102.0, 359.6381294890307, 192.11679077381268, 112.13903022138402, 220.8242628336884, 0.0, 0.0, 0.0, 0.0, 0.0, 0.0, 0.0, 0.0, 1.7103906894430947E9, 0.0, 2024-03-13 21:31:29.443
103.0, 390.050995928701, 200.8157980707474, 118.38092324743047, 242.23892997996882, 0.0, 0.0, 0.0, 0.0, 0.0, 0.0, 0.0, 0.0, 1.7103906894437928E9, 0.0, 2024-03-13 21:31:29.443
103.0, 398.2825157311745, 219.10764875402674, 149.11542108329013, 247.9834163119085, 0.0, 0.0, 0.0, 0.0, 0.0, 0.0, 0.0, 0.0, 1.7103906894437928E9, 0.0, 2024-03-13 21:31:29.443
104.0, 389.7966827317141, 214.4178142095916, 146.51993051404133, 241.68168488657102, 0.0, 0.0, 0.0, 0.0, 0.0, 0.0, 0.0, 0.0, 1.7103906894724772E9, 0.0, 2024-03-13 21:31:29.472
104.0, 394.33692127792165, 216.96468607941642, 125.74852616013959, 255.19394342647865, 0.0, 0.0, 0.0, 0.0, 0.0, 0.0, 0.0, 0.0, 1.7103906894724772E9, 0.0, 2024-03-13 21:31:29.472
105.0, 406.71599013125524, 233.3491877852939, 147.95605209702626, 260.3550053653307, 0.0, 0.0, 0.0, 0.0, 0.0, 0.0, 0.0, 0.0, 1.7103906894732277E9, 0.0, 2024-03-13 21:31:29.473
105.0, 394.393019777257, 234.0148899774067, 157.7620697808452, 246.6183528280817, 0.0, 0.0, 0.0, 0.0, 0.0, 0.0, 0.0, 0.0, 1.7103906894732277E9, 0.0, 2024-03-13 21:31:29.473
106.0, 404.7675022543408, 228.3526814444922, 143.1615003538318, 252.53487455798313, 0.0, 0.0, 0.0, 0.0, 0.0, 0.0, 0.0, 0.0, 1.7103906894739068E9, 0.0, 2024-03-13 21:31:29.473
106.0, 402.11217328580096, 225.70857217581943, 136.24268543580547, 247.9497572123073, 0.0, 0.0, 0.0, 0.0, 0.0, 0.0, 0.0, 0.0, 1.7103906894739068E9, 0.0, 2024-03-13 21:31:29.473
107.0, 395.0961209689267, 224.0929353949614, 156.84953419165686, 241.62184648727998, 0.0, 0.0, 0.0, 0.0, 0.0, 0.0, 0.0, 0.0, 1.7103906894861143E9, 0.0, 2024-03-13 21:31:29.486
107.0, 377.122161781881, 207.95152718620375, 133.69955346593633, 225.76841057511047, 0.0, 0.0, 0.0, 0.0, 0.0, 0.0, 0.0, 0.0, 1.7103906894861143E9, 0.0, 2024-03-13 21:31:29.486
108.0, 376.69581318693236, 210.61807585461065, 121.46260081091896, 231.2024852107279, 0.0, 0.0, 0.0, 0.0, 0.0, 0.0, 0.0, 0.0, 1.7103906895017633E9, 0.0, 2024-03-13 21:31:29.501
108.0, 390.7615769202821, 229.85612122667953, 153.81647532759234, 233.73813738068566, 0.0, 0.0, 0.0, 0.0, 0.0, 0.0, 0.0, 0.0, 1.7103906895017633E9, 0.0, 2024-03-13 21:31:29.501
109.0, 373.311203727033, 215.47994579700753, 159.99852995434776, 219.309603351634, 0.0, 0.0, 0.0, 0.0, 0.0, 0.0, 0.0, 0.0, 1.7103906895025265E9, 0.0, 2024-03-13 21:31:29.502
109.0, 374.3733353144489, 204.40236212825403, 134.76916485326365, 209.87009586347267, 0.0, 0.0, 0.0, 0.0, 0.0, 0.0, 0.0, 0.0, 1.7103906895025265E9, 0.0, 2024-03-13 21:31:29.502
110.0, 398.19275813223794, 226.0526429717429, 155.58170810667798, 229.56066913018003, 0.0, 0.0, 0.0, 0.0, 0.0, 0.0, 0.0, 0.0, 1.7103906895161057E9, 0.0, 2024-03-13 21:31:29.516
110.0, 397.9945434345864, 223.1579604060389, 158.42029217304662, 226.7968830629252, 0.0, 0.0, 0.0, 0.0, 0.0, 0.0, 0.0, 0.0, 1.7103906895161057E9, 0.0, 2024-03-13 21:31:29.516
111.0, 391.1019078162499, 213.7521120174788, 126.84057694720104, 225.30466298060492, 0.0, 0.0, 0.0, 0.0, 0.0, 0.0, 0.0, 0.0, 1.710390689531959E9, 0.0, 2024-03-13 21:31:29.531
111.0, 416.97827560966834, 232.4964905953966, 142.5668562608771, 243.95928395958617, 0.0, 0.0, 0.0, 0.0, 0.0, 0.0, 0.0, 0.0, 1.710390689531959E9, 0.0, 2024-03-13 21:31:29.531
112.0, 396.12085355678573, 216.0820696898736, 154.33258152147755, 230.465724919457, 0.0, 0.0, 0.0, 0.0, 0.0, 0.0, 0.0, 0.0, 1.7103906895325177E9, 0.0, 2024-03-13 21:31:29.532
112.0, 370.09488976513967, 197.86127710575238, 135.64804134285077, 218.8645552569069, 0.0, 0.0, 0.0, 0.0, 0.0, 0.0, 0.0, 0.0, 1.7103906895325177E9, 0.0, 2024-03-13 21:31:29.532
113.0, 367.1141895004548, 197.34891081182286, 117.31131186010316, 225.37198117980734, 0.0, 0.0, 0.0, 0.0, 0.0, 0.0, 0.0, 0.0, 1.710390689546095E9, 0.0, 2024-03-13 21:31:29.546
113.0, 377.33533607935533, 202.16216205479577, 129.35752961738035, 221.9798919199966, 0.0, 0.0, 0.0, 0.0, 0.0, 0.0, 0.0, 0.0, 1.710390689546095E9, 0.0, 2024-03-13 21:31:29.546
114.0, 383.6782064042054, 195.0413925391622, 132.14001518441364, 220.37173493904993, 0.0, 0.0, 0.0, 0.0, 0.0, 0.0, 0.0, 0.0, 1.7103906895623126E9, 0.0, 2024-03-13 21:31:29.562
114.0, 384.467325294856, 190.80408588936552, 99.35605217283592, 216.47475918522105, 0.0, 0.0, 0.0, 0.0, 0.0, 0.0, 0.0, 0.0, 1.7103906895623126E9, 0.0, 2024-03-13 21:31:29.562
115.0, 388.70837184460834, 196.189541825559, 113.45547500578687, 214.10740251326934, 0.0, 0.0, 0.0, 0.0, 0.0, 0.0, 0.0, 0.0, 1.7103906895625336E9, 0.0, 2024-03-13 21:31:29.562
115.0, 364.9600071259774, 183.0662328810431, 119.1850017379038, 197.95103470468894, 0.0, 0.0, 0.0, 0.0, 0.0, 0.0, 0.0, 0.0, 1.7103906895625336E9, 0.0, 2024-03-13 21:31:29.562
116.0, 359.6755284885876, 172.48605590639636, 96.03502101218328, 192.58427826827392, 0.0, 0.0, 0.0, 0.0, 0.0, 0.0, 0.0, 0.0, 1.7103906895761323E9, 0.0, 2024-03-13 21:31:29.576
116.0, 357.0875177192502, 167.0557211707346, 93.2861945447512, 189.22958800802007, 0.0, 0.0, 0.0, 0.0, 0.0, 0.0, 0.0, 0.0, 1.7103906895761323E9, 0.0, 2024-03-13 21:31:29.576
117.0, 363.20225414680317, 171.05367422336712, 113.9229625002481, 181.89190429495648, 0.0, 0.0, 0.0, 0.0, 0.0, 0.0, 0.0, 0.0, 1.7103906895918293E9, 0.0, 2024-03-13 21:31:29.591
117.0, 317.48571708844975, 144.89681393327191, 76.89795293891802, 154.66917251748964, 0.0, 0.0, 0.0, 0.0, 0.0, 0.0, 0.0, 0.0, 1.7103906895918293E9, 0.0, 2024-03-13 21:31:29.591
118.0, 351.58238498447463, 162.17889162851498, 64.26457088859752, 168.9481105483137, 0.0, 0.0, 0.0, 0.0, 0.0, 0.0, 0.0, 0.0, 1.7103906895924888E9, 0.0, 2024-03-13 21:31:29.592
118.0, 345.4863480567001, 158.24825677508488, 92.75138885108754, 158.7232240694575, 0.0, 0.0, 0.0, 0.0, 0.0, 0.0, 0.0, 0.0, 1.7103906895924888E9, 0.0, 2024-03-13 21:31:29.592
119.0, 327.9424773645587, 141.02227757917717, 84.64328574715182, 142.85482855746523, 0.0, 0.0, 0.0, 0.0, 0.0, 0.0, 0.0, 0.0, 1.7103906896060743E9, 0.0, 2024-03-13 21:31:29.606
119.0, 317.7998686847277, 137.84710251679644, 55.74133888958022, 144.15257384208962, 0.0, 0.0, 0.0, 0.0, 0.0, 0.0, 0.0, 0.0, 1.7103906896060743E9, 0.0, 2024-03-13 21:31:29.606
120.0, 360.442207979504, 167.15669846953824, 98.59685248183087, 176.49896855885163, 0.0, 0.0, 0.0, 0.0, 0.0, 0.0, 0.0, 0.0, 1.7103906896225543E9, 0.0, 2024-03-13 21:31:29.622
120.0, 343.6276177787222, 154.11940722400323, 98.02464778861031, 162.81467462098226, 0.0, 0.0, 0.0, 0.0, 0.0, 0.0, 0.0, 0.0, 1.7103906896225543E9, 0.0, 2024-03-13 21:31:29.622
121.0, 323.89964551245794, 140.55852998467162, 62.88454780494794, 154.6130740181543, 0.0, 0.0, 0.0, 0.0, 0.0, 0.0, 0.0, 0.0, 1.7103906896228724E9, 0.0, 2024-03-13 21:31:29.622
121.0, 353.0484257671051, 163.84688700875267, 80.72013069363311, 173.48834909452125, 0.0, 0.0, 0.0, 0.0, 0.0, 0.0, 0.0, 0.0, 1.7103906896228724E9, 0.0, 2024-03-13 21:31:29.622
122.0, 352.5472791730426, 161.2065176400356, 91.51722186570987, 165.4625237896107, 0.0, 0.0, 0.0, 0.0, 0.0, 0.0, 0.0, 0.0, 1.7103906896361623E9, 0.0, 2024-03-13 21:31:29.636
122.0, 331.630018720869, 143.19141955347732, 65.35662167565897, 153.012396837119, 0.0, 0.0, 0.0, 0.0, 0.0, 0.0, 0.0, 0.0, 1.7103906896361623E9, 0.0, 2024-03-13 21:31:29.636
123.0, 343.219968683552, 141.33642917545512, 53.934967210981995, 159.67689855815843, 0.0, 0.0, 0.0, 0.0, 0.0, 0.0, 0.0, 0.0, 1.7103906896517777E9, 0.0, 2024-03-13 21:31:29.651
123.0, 342.6328043905087, 147.21555190579966, 91.52844156557694, 160.81008824473247, 0.0, 0.0, 0.0, 0.0, 0.0, 0.0, 0.0, 0.0, 1.7103906896517777E9, 0.0, 2024-03-13 21:31:29.651
124.0, 335.85984557075426, 144.35826833965257, 92.22780285729095, 151.8679874506779, 0.0, 0.0, 0.0, 0.0, 0.0, 0.0, 0.0, 0.0, 1.7103906896524773E9, 0.0, 2024-03-13 21:31:29.652
124.0, 329.2925812485628, 125.0790840680711, 64.48896488593891, 148.96582508506253, 0.0, 0.0, 0.0, 0.0, 0.0, 0.0, 0.0, 0.0, 1.7103906896524773E9, 0.0, 2024-03-13 21:31:29.652
125.0, 333.96745619317517, 136.69895323039964, 77.2008848353289, 145.70089242374524, 0.0, 0.0, 0.0, 0.0, 0.0, 0.0, 0.0, 0.0, 1.7103906896661112E9, 0.0, 2024-03-13 21:31:29.666
125.0, 338.2085027429275, 147.76157729933038, 104.74524800898507, 147.9747515968047, 0.0, 0.0, 0.0, 0.0, 0.0, 0.0, 0.0, 0.0, 1.7103906896661112E9, 0.0, 2024-03-13 21:31:29.666
126.0, 334.5882795858197, 138.87557500461116, 78.18447852367535, 148.17670619441196, 0.0, 0.0, 0.0, 0.0, 0.0, 0.0, 0.0, 0.0, 1.7103906896817827E9, 0.0, 2024-03-13 21:31:29.681
126.0, 333.7655015955679, 140.39397438662127, 72.70926498854533, 154.0221698251553, 0.0, 0.0, 0.0, 0.0, 0.0, 0.0, 0.0, 0.0, 1.7103906896817827E9, 0.0, 2024-03-13 21:31:29.681
127.0, 330.6239856327884, 142.3050632639788, 98.38741808431223, 153.67809902923182, 0.0, 0.0, 0.0, 0.0, 0.0, 0.0, 0.0, 0.0, 1.710390689682449E9, 0.0, 2024-03-13 21:31:29.682
127.0, 317.3884796896018, 132.05025758547708, 79.46726420847699, 145.00527103198692, 0.0, 0.0, 0.0, 0.0, 0.0, 0.0, 0.0, 0.0, 1.710390689682449E9, 0.0, 2024-03-13 21:31:29.682
128.0, 340.89749081106856, 140.939999780152, 63.91302029276267, 158.9850170663558, 0.0, 0.0, 0.0, 0.0, 0.0, 0.0, 0.0, 0.0, 1.7103906896960669E9, 0.0, 2024-03-13 21:31:29.696
128.0, 334.2890875893645, 136.43342033354566, 95.0626470237039, 158.19215827574953, 0.0, 0.0, 0.0, 0.0, 0.0, 0.0, 0.0, 0.0, 1.7103906896960669E9, 0.0, 2024-03-13 21:31:29.696
129.0, 329.0569675513543, 129.9334742105566, 89.92028458463028, 151.35562115674838, 0.0, 0.0, 0.0, 0.0, 0.0, 0.0, 0.0, 0.0, 1.7103906897117517E9, 0.0, 2024-03-13 21:31:29.711
129.0, 332.5388144101016, 128.64694862579927, 56.0068717864342, 159.63575965864584, 0.0, 0.0, 0.0, 0.0, 0.0, 0.0, 0.0, 0.0, 1.7103906897117517E9, 0.0, 2024-03-13 21:31:29.711
130.0, 345.740661253687, 150.13267387123778, 78.610827118624, 176.8430393547751, 0.0, 0.0, 0.0, 0.0, 0.0, 0.0, 0.0, 0.0, 1.7103906897127728E9, 0.0, 2024-03-13 21:31:29.712
130.0, 321.3565135425888, 130.87592899939045, 81.71868398180231, 159.89755265554413, 0.0, 0.0, 0.0, 0.0, 0.0, 0.0, 0.0, 0.0, 1.7103906897127728E9, 0.0, 2024-03-13 21:31:29.712
131.0, 323.211503920611, 124.51435917476192, 66.80770285846666, 167.3923121667467, 0.0, 0.0, 0.0, 0.0, 0.0, 0.0, 0.0, 0.0, 1.7103906897265604E9, 0.0, 2024-03-13 21:31:29.726
131.0, 341.45473590446636, 144.07777584297583, 69.14514033077285, 181.39449760084972, 0.0, 0.0, 0.0, 0.0, 0.0, 0.0, 0.0, 0.0, 1.7103906897265604E9, 0.0, 2024-03-13 21:31:29.726
132.0, 337.6175985499285, 142.1928662653081, 84.40019225003198, 177.63215824542567, 0.0, 0.0, 0.0, 0.0, 0.0, 0.0, 0.0, 0.0, 1.7103906897419E9, 0.0, 2024-03-13 21:31:29.741
132.0, 329.07940695108846, 132.40554808126763, 63.535290397237986, 174.29990738490596, 0.0, 0.0, 0.0, 0.0, 0.0, 0.0, 0.0, 0.0, 1.7103906897419E9, 0.0, 2024-03-13 21:31:29.741
133.0, 340.53846041532233, 139.24582510022447, 48.55699107469991, 184.57341256318614, 0.0, 0.0, 0.0, 0.0, 0.0, 0.0, 0.0, 0.0, 1.710390689743034E9, 0.0, 2024-03-13 21:31:29.743
133.0, 353.3064788640477, 157.6536126821302, 80.52191599598154, 199.05430519161746, 0.0, 0.0, 0.0, 0.0, 0.0, 0.0, 0.0, 0.0, 1.710390689743034E9, 0.0, 2024-03-13 21:31:29.743
134.0, 341.42107680486515, 155.27129641035572, 73.34130808105692, 186.94076923513785, 0.0, 0.0, 0.0, 0.0, 0.0, 0.0, 0.0, 0.0, 1.7103906897560816E9, 0.0, 2024-03-13 21:31:29.756
134.0, 357.02019952004775, 152.43271234398708, 44.39074252406135, 197.36387041164562, 0.0, 0.0, 0.0, 0.0, 0.0, 0.0, 0.0, 0.0, 1.7103906897560816E9, 0.0, 2024-03-13 21:31:29.756
135.0, 360.62172317737713, 166.04220828274265, 65.19206607760862, 209.14081537211314, 0.0, 0.0, 0.0, 0.0, 0.0, 0.0, 0.0, 0.0, 1.7103906897718036E9, 0.0, 2024-03-13 21:31:29.771
135.0, 361.6688951649703, 170.33561343187466, 73.7564369761385, 212.712419829797, 0.0, 0.0, 0.0, 0.0, 0.0, 0.0, 0.0, 0.0, 1.7103906897718036E9, 0.0, 2024-03-13 21:31:29.771
136.0, 331.2522888253443, 137.76856461772695, 24.071866064798087, 191.67548257904127, 0.0, 0.0, 0.0, 0.0, 0.0, 0.0, 0.0, 0.0, 1.7103906897725308E9, 0.0, 2024-03-13 21:31:29.772
136.0, 343.2947666826658, 154.70657151704654, 18.076806435827166, 192.56183886853978, 0.0, 0.0, 0.0, 0.0, 0.0, 0.0, 0.0, 0.0, 1.7103906897725308E9, 0.0, 2024-03-13 21:31:29.772
137.0, 352.34906447539106, 163.45793741336092, 39.36431698361412, 202.16590195475146, 0.0, 0.0, 0.0, 0.0, 0.0, 0.0, 0.0, 0.0, 1.7103906897862892E9, 0.0, 2024-03-13 21:31:29.786
137.0, 340.5496801151894, 150.29348956933245, 24.187802963424474, 199.58163108536974, 0.0, 0.0, 0.0, 0.0, 0.0, 0.0, 0.0, 0.0, 1.7103906897862892E9, 0.0, 2024-03-13 21:31:29.786
138.0, 347.80134612927213, 155.99683700175956, 11.195390517357737, 213.63243521889672, 0.0, 0.0, 0.0, 0.0, 0.0, 0.0, 0.0, 0.0, 1.7103906898017733E9, 0.0, 2024-03-13 21:31:29.801
138.0, 348.8933969163336, 167.96451685996726, 43.98683332884684, 212.28981113480404, 0.0, 0.0, 0.0, 0.0, 0.0, 0.0, 0.0, 0.0, 1.7103906898017733E9, 0.0, 2024-03-13 21:31:29.801
139.0, 344.57007256755605, 166.90612517250702, 36.85484411334619, 204.79879152355716, 0.0, 0.0, 0.0, 0.0, 0.0, 0.0, 0.0, 0.0, 1.7103906898024352E9, 0.0, 2024-03-13 21:31:29.802
139.0, 352.6258170721121, 167.32873386749998, 24.898383955005556, 228.270403645467, 0.0, 0.0, 0.0, 0.0, 0.0, 0.0, 0.0, 0.0, 1.7103906898024352E9, 0.0, 2024-03-13 21:31:29.802
140.0, 372.6305419350974, 192.2177680726163, 44.04667172813788, 244.07522085821256, 0.0, 0.0, 0.0, 0.0, 0.0, 0.0, 0.0, 0.0, 1.7103906898161333E9, 0.0, 2024-03-13 21:31:29.816
140.0, 371.0523041537963, 194.93293544044718, 45.97646010527387, 232.20851829880849, 0.0, 0.0, 0.0, 0.0, 0.0, 0.0, 0.0, 0.0, 1.7103906898161333E9, 0.0, 2024-03-13 21:31:29.816
141.0, 383.4650321067311, 200.16879537841305, 35.69921502703801, 243.2075640684925, 0.0, 0.0, 0.0, 0.0, 0.0, 0.0, 0.0, 0.0, 1.7103906898317728E9, 0.0, 2024-03-13 21:31:29.831
141.0, 424.6600301186554, 236.89835284324363, 64.51888408558443, 278.5122196502052, 0.0, 0.0, 0.0, 0.0, 0.0, 0.0, 0.0, 0.0, 1.7103906898317728E9, 0.0, 2024-03-13 21:31:29.831
142.0, 469.93151908228174, 287.06911074882373, 129.675421113614, 317.5679948874749, 0.0, 0.0, 0.0, 0.0, 0.0, 0.0, 0.0, 0.0, 1.710390689832543E9, 0.0, 2024-03-13 21:31:29.832
142.0, 491.00959523255005, 302.9449860607274, 134.1558212605305, 332.23214261373505, 0.0, 0.0, 0.0, 0.0, 0.0, 0.0, 0.0, 0.0, 1.710390689832543E9, 0.0, 2024-03-13 21:31:29.832
143.0, 531.8418229487725, 332.6210922091268, 137.5292110205628, 374.7510652099736, 0.0, 0.0, 0.0, 0.0, 0.0, 0.0, 0.0, 0.0, 1.7103906898461115E9, 0.0, 2024-03-13 21:31:29.846
143.0, 574.3270864454098, 360.5618847780861, 184.76414746092632, 402.37022638274357, 0.0, 0.0, 0.0, 0.0, 0.0, 0.0, 0.0, 0.0, 1.7103906898461115E9, 0.0, 2024-03-13 21:31:29.846
144.0, 584.3687178264372, 373.84600942069665, 201.97890695696697, 410.9607765809633, 0.0, 0.0, 0.0, 0.0, 0.0, 0.0, 0.0, 0.0, 1.7103906898626325E9, 0.0, 2024-03-13 21:31:29.862
144.0, 588.8154588737525, 383.22567850956693, 200.1912347781472, 414.8166134352796, 0.0, 0.0, 0.0, 0.0, 0.0, 0.0, 0.0, 0.0, 1.7103906898626325E9, 0.0, 2024-03-13 21:31:29.862
145.0, 597.5256858705543, 399.37082661828026, 238.79074222082272, 427.53227328462526, 0.0, 0.0, 0.0, 0.0, 0.0, 0.0, 0.0, 0.0, 1.710390689862791E9, 0.0, 2024-03-13 21:31:29.862
145.0, 566.5293950377963, 393.6412998861633, 231.04540941258892, 409.9921424924396, 0.0, 0.0, 0.0, 0.0, 0.0, 0.0, 0.0, 0.0, 1.710390689862791E9, 0.0, 2024-03-13 21:31:29.862
146.0, 513.2582600689493, 336.3273330652155, 151.55009595444426, 358.7854322991334, 0.0, 0.0, 0.0, 0.0, 0.0, 0.0, 0.0, 0.0, 1.7103906898761294E9, 0.0, 2024-03-13 21:31:29.876
146.0, 444.92280807858333, 263.23098843125626, 83.03512876620516, 301.3181295800023, 0.0, 0.0, 0.0, 0.0, 0.0, 0.0, 0.0, 0.0, 1.7103906898761294E9, 0.0, 2024-03-13 21:31:29.876
147.0, 362.2597993579693, 185.4784683524631, 22.79282027995214, 222.18184651760384, 0.0, 0.0, 0.0, 0.0, 0.0, 0.0, 0.0, 0.0, 1.7103906898918009E9, 0.0, 2024-03-13 21:31:29.891
147.0, 271.79161942983046, 97.3963445960544, -73.86115417489782, 132.28213138272986, 0.0, 0.0, 0.0, 0.0, 0.0, 0.0, 0.0, 0.0, 1.7103906898918009E9, 0.0, 2024-03-13 21:31:29.891
148.0, 207.86924938717857, 27.303139626514167, -139.83298939326778, 75.88444005092606, 0.0, 0.0, 0.0, 0.0, 0.0, 0.0, 0.0, 0.0, 1.7103906898925056E9, 0.0, 2024-03-13 21:31:29.892
148.0, 170.08878003479913, -11.962070008274168, -142.99694475578144, 28.0324201178737, 0.0, 0.0, 0.0, 0.0, 0.0, 0.0, 0.0, 0.0, 1.7103906898925056E9, 0.0, 2024-03-13 21:31:29.892
149.0, 101.83934574341401, -64.47400528611615, -178.67185043310747, -27.2171219275333, 0.0, 0.0, 0.0, 0.0, 0.0, 0.0, 0.0, 0.0, 1.710390689906347E9, 0.0, 2024-03-13 21:31:29.906
149.0, 74.20522497082129, -87.8035012097098, -220.33433593949303, -43.9269949295558, 0.0, 0.0, 0.0, 0.0, 0.0, 0.0, 0.0, 0.0, 1.710390689906347E9, 0.0, 2024-03-13 21:31:29.906
150.0, 83.99628305481747, -75.90313955070451, -199.79106548288837, -41.3726432598196, 0.0, 0.0, 0.0, 0.0, 0.0, 0.0, 0.0, 0.0, 1.7103906899228718E9, 0.0, 2024-03-13 21:31:29.922
150.0, 78.4238321208395, -76.22851084684953, -183.89649067120627, -51.30955744208768, 0.0, 0.0, 0.0, 0.0, 0.0, 0.0, 0.0, 0.0, 1.7103906899228718E9, 0.0, 2024-03-13 21:31:29.922
151.0, 92.10812605870888, -65.1247478784062, -182.3631316893734, -30.927102683577687, 0.0, 0.0, 0.0, 0.0, 0.0, 0.0, 0.0, 0.0, 1.7103906899233937E9, 0.0, 2024-03-13 21:31:29.923
151.0, 133.99500556243584, -24.659030357841402, -155.11048071226105, 5.593020383734256, 0.0, 0.0, 0.0, 0.0, 0.0, 0.0, 0.0, 0.0, 1.7103906899233937E9, 0.0, 2024-03-13 21:31:29.923
152.0, 140.2668177881278, -20.122531711589545, -126.45910715172067, 5.731396682094783, 0.0, 0.0, 0.0, 0.0, 0.0, 0.0, 0.0, 0.0, 1.7103906899360828E9, 0.0, 2024-03-13 21:31:29.936
152.0, 155.8696804032661, -4.377552898135036, -106.3309655901976, 21.394097696524113, 0.0, 0.0, 0.0, 0.0, 0.0, 0.0, 0.0, 0.0, 1.7103906899360828E9, 0.0, 2024-03-13 21:31:29.936
153.0, 191.16311628511176, 21.670850293245167, -104.46475551230833, 39.080084586981684, 0.0, 0.0, 0.0, 0.0, 0.0, 0.0, 0.0, 0.0, 1.7103906899682E9, 0.0, 2024-03-13 21:31:29.968
153.0, 235.79134245635942, 60.95475942781195, -56.51923808036372, 74.40343966847286, 0.0, 0.0, 0.0, 0.0, 0.0, 0.0, 0.0, 0.0, 1.7103906899682E9, 0.0, 2024-03-13 21:31:29.968
154.0, 230.58914161799476, 62.71251240698621, -52.697060325648636, 82.89675246784464, 0.0, 0.0, 0.0, 0.0, 0.0, 0.0, 0.0, 0.0, 1.7103906899689136E9, 0.0, 2024-03-13 21:31:29.968
154.0, 268.19383567245677, 94.23986903345212, -50.78597144829109, 114.03889939887449, 0.0, 0.0, 0.0, 0.0, 0.0, 0.0, 0.0, 0.0, 1.7103906899689136E9, 0.0, 2024-03-13 21:31:29.968
155.0, 296.1495878412388, 137.29359732335433, 1.4379915329627693, 141.70293937111273, 0.0, 0.0, 0.0, 0.0, 0.0, 0.0, 0.0, 0.0, 1.7103906899696343E9, 0.0, 2024-03-13 21:31:29.969
155.0, 298.2327121165581, 135.51340494444594, 34.09853784600273, 148.17296629445627, 0.0, 0.0, 0.0, 0.0, 0.0, 0.0, 0.0, 0.0, 1.7103906899696343E9, 0.0, 2024-03-13 21:31:29.969
156.0, 318.11028038104996, 163.5813541118987, 32.13135046930984, 170.70586352748796, 0.0, 0.0, 0.0, 0.0, 0.0, 0.0, 0.0, 0.0, 1.710390689970416E9, 0.0, 2024-03-13 21:31:29.970
156.0, 353.65054965997115, 182.63988428609446, 55.42718729330227, 201.84801045851782, 0.0, 0.0, 0.0, 0.0, 0.0, 0.0, 0.0, 0.0, 1.710390689970416E9, 0.0, 2024-03-13 21:31:29.970
157.0, 345.2544742594473, 188.08891852153465, 74.7213311647065, 203.18315474269912, 0.0, 0.0, 0.0, 0.0, 0.0, 0.0, 0.0, 0.0, 1.7103906899810903E9, 0.0, 2024-03-13 21:31:29.981
157.0, 363.28453194582835, 202.32297775289044, 87.32479401538149, 222.8288492099382, 0.0, 0.0, 0.0, 0.0, 0.0, 0.0, 0.0, 0.0, 1.7103906899810903E9, 0.0, 2024-03-13 21:31:29.981
158.0, 383.28551690885797, 224.2687106928788, 85.85501333279535, 246.6520119276829, 0.0, 0.0, 0.0, 0.0, 0.0, 0.0, 0.0, 0.0, 1.710390689996321E9, 0.0, 2024-03-13 21:31:29.996
158.0, 405.11157305026427, 239.26570951519534, 126.60122335003689, 263.97896842239425, 0.0, 0.0, 0.0, 0.0, 0.0, 0.0, 0.0, 0.0, 1.710390689996321E9, 0.0, 2024-03-13 21:31:29.996
159.0, 403.89984546462074, 245.30938784359023, 137.74238531803712, 269.79451285349205, 0.0, 0.0, 0.0, 0.0, 0.0, 0.0, 0.0, 0.0, 1.710390690012158E9, 0.0, 2024-03-13 21:31:30.012
159.0, 403.5333352689631, 245.44028434203938, 110.2167216441594, 269.1886490606703, 0.0, 0.0, 0.0, 0.0, 0.0, 0.0, 0.0, 0.0, 1.710390690012158E9, 0.0, 2024-03-13 21:31:30.012
160.0, 420.5984987667762, 250.64622508035973, 124.09549037972465, 279.1517425426282, 0.0, 0.0, 0.0, 0.0, 0.0, 0.0, 0.0, 0.0, 1.7103906900126045E9, 0.0, 2024-03-13 21:31:30.012
160.0, 413.9564364454709, 245.2084105447866, 115.91632917663082, 261.5031546517275, 0.0, 0.0, 0.0, 0.0, 0.0, 0.0, 0.0, 0.0, 1.7103906900126045E9, 0.0, 2024-03-13 21:31:30.012
161.0, 408.41764461109415, 229.55318933026865, 99.33361277310178, 256.7684413078241, 0.0, 0.0, 0.0, 0.0, 0.0, 0.0, 0.0, 0.0, 1.7103906900264285E9, 0.0, 2024-03-13 21:31:30.026
161.0, 403.7203302667476, 226.92403966141865, 105.74380129715428, 248.40602500690147, 0.0, 0.0, 0.0, 0.0, 0.0, 0.0, 0.0, 0.0, 1.7103906900264285E9, 0.0, 2024-03-13 21:31:30.026
162.0, 393.44682508846745, 223.15422050608322, 129.28273161826655, 234.54595577111468, 0.0, 0.0, 0.0, 0.0, 0.0, 0.0, 0.0, 0.0, 1.7103906900417647E9, 0.0, 2024-03-13 21:31:30.041
162.0, 366.4821464079432, 185.22789505543187, 102.71448233304545, 217.94453986780718, 0.0, 0.0, 0.0, 0.0, 0.0, 0.0, 0.0, 0.0, 1.7103906900417647E9, 0.0, 2024-03-13 21:31:30.041
163.0, 372.72777933394536, 181.439376400318, 100.00305486517027, 226.9763982607983, 0.0, 0.0, 0.0, 0.0, 0.0, 0.0, 0.0, 0.0, 1.7103906900424783E9, 0.0, 2024-03-13 21:31:30.042
163.0, 370.4875792604871, 182.53516708733514, 141.2354518766515, 224.7137587876059, 0.0, 0.0, 0.0, 0.0, 0.0, 0.0, 0.0, 0.0, 1.7103906900424783E9, 0.0, 2024-03-13 21:31:30.042
164.0, 336.4806689633988, 153.4275257322006, 138.0827162140049, 192.4047630704008, 0.0, 0.0, 0.0, 0.0, 0.0, 0.0, 0.0, 0.0, 1.7103906900560927E9, 0.0, 2024-03-13 21:31:30.056
164.0, 323.5480949166231, 132.11009598476812, 113.69108870299533, 183.23078847909346, 0.0, 0.0, 0.0, 0.0, 0.0, 0.0, 0.0, 0.0, 1.7103906900560927E9, 0.0, 2024-03-13 21:31:30.056
165.0, 331.93295061727986, 129.9372141105123, 139.02143110288307, 177.7742744437419, 0.0, 0.0, 0.0, 0.0, 0.0, 0.0, 0.0, 0.0, 1.710390690071787E9, 0.0, 2024-03-13 21:31:30.071
165.0, 320.33178095472977, 108.99003445869312, 149.3809539801441, 154.69535181717947, 0.0, 0.0, 0.0, 0.0, 0.0, 0.0, 0.0, 0.0, 1.710390690071787E9, 0.0, 2024-03-13 21:31:30.071
166.0, 303.7154054515995, 94.38572513172403, 127.83913023537025, 147.84759499831125, 0.0, 0.0, 0.0, 0.0, 0.0, 0.0, 0.0, 0.0, 1.710390690072492E9, 0.0, 2024-03-13 21:31:30.072
166.0, 326.25952238449827, 106.86203138390556, 156.6849785936065, 163.60005361167714, 0.0, 0.0, 0.0, 0.0, 0.0, 0.0, 0.0, 0.0, 1.710390690072492E9, 0.0, 2024-03-13 21:31:30.072
167.0, 336.86213875887915, 128.8601229232736, 196.87394351745024, 165.90383198438212, 0.0, 0.0, 0.0, 0.0, 0.0, 0.0, 0.0, 0.0, 1.7103906900861251E9, 0.0, 2024-03-13 21:31:30.086
167.0, 327.40767167089507, 149.3472948805429, 181.71612899703905, 166.55083467671648, 0.0, 0.0, 0.0, 0.0, 0.0, 0.0, 0.0, 0.0, 1.7103906900861251E9, 0.0, 2024-03-13 21:31:30.086
168.0, 353.42989556258544, 182.3967907889746, 167.30629446776584, 186.87345103593543, 0.0, 0.0, 0.0, 0.0, 0.0, 0.0, 0.0, 0.0, 1.7103906901017704E9, 0.0, 2024-03-13 21:31:30.101
168.0, 372.1854938403703, 211.8597226398997, 206.44434750406072, 201.38800276396796, 0.0, 0.0, 0.0, 0.0, 0.0, 0.0, 0.0, 0.0, 1.7103906901017704E9, 0.0, 2024-03-13 21:31:30.101
169.0, 361.4482410675846, 205.98807970946655, 207.9290877864696, 197.7042013076134, 0.0, 0.0, 0.0, 0.0, 0.0, 0.0, 0.0, 0.0, 1.7103906901025217E9, 0.0, 2024-03-13 21:31:30.102
169.0, 371.5684103476815, 204.98578652134165, 188.16745642060414, 210.6779142539017, 0.0, 0.0, 0.0, 0.0, 0.0, 0.0, 0.0, 0.0, 1.7103906901025217E9, 0.0, 2024-03-13 21:31:30.102
170.0, 396.9062325474806, 213.6062559192069, 208.2694186824374, 223.8610615977086, 0.0, 0.0, 0.0, 0.0, 0.0, 0.0, 0.0, 0.0, 1.710390690116078E9, 0.0, 2024-03-13 21:31:30.116
170.0, 398.66772542661056, 230.86215431476012, 233.577321682591, 231.52785650687292, 0.0, 0.0, 0.0, 0.0, 0.0, 0.0, 0.0, 0.0, 1.710390690116078E9, 0.0, 2024-03-13 21:31:30.116
171.0, 390.2379909264855, 216.09702928969637, 193.1490031615831, 230.48442441923544, 0.0, 0.0, 0.0, 0.0, 0.0, 0.0, 0.0, 0.0, 1.7103906901317458E9, 0.0, 2024-03-13 21:31:30.131
171.0, 397.55697513977066, 214.44773340923712, 170.71708322735503, 228.47235824307427, 0.0, 0.0, 0.0, 0.0, 0.0, 0.0, 0.0, 0.0, 1.7103906901317458E9, 0.0, 2024-03-13 21:31:30.131
172.0, 396.9885103465058, 215.83897619275376, 189.94764879951254, 220.30067683989182, 0.0, 0.0, 0.0, 0.0, 0.0, 0.0, 0.0, 0.0, 1.7103906901324322E9, 0.0, 2024-03-13 21:31:30.132
172.0, 394.8305880720727, 209.87383576342836, 192.16166957328096, 221.32914932770655, 0.0, 0.0, 0.0, 0.0, 0.0, 0.0, 0.0, 0.0, 1.7103906901324322E9, 0.0, 2024-03-13 21:31:30.132
173.0, 393.8395145838149, 207.4092416926287, 159.17949186405167, 224.26123089296743, 0.0, 0.0, 0.0, 0.0, 0.0, 0.0, 0.0, 0.0, 1.7103906901460807E9, 0.0, 2024-03-13 21:31:30.146
173.0, 374.7548051099293, 194.38691004691646, 164.22835680423304, 213.92414741544053, 0.0, 0.0, 0.0, 0.0, 0.0, 0.0, 0.0, 0.0, 1.7103906901460807E9, 0.0, 2024-03-13 21:31:30.146
174.0, 365.749126016628, 179.42731022415683, 142.10684856632724, 192.87599046481773, 0.0, 0.0, 0.0, 0.0, 0.0, 0.0, 0.0, 0.0, 1.7103906901621103E9, 0.0, 2024-03-13 21:31:30.162
174.0, 351.4440086861141, 160.38373964978382, 108.92645615944639, 182.5875256867148, 0.0, 0.0, 0.0, 0.0, 0.0, 0.0, 0.0, 0.0, 1.7103906901621103E9, 0.0, 2024-03-13 21:31:30.162
175.0, 357.71956081176177, 169.26600204454735, 139.14858770137653, 186.5144206401892, 0.0, 0.0, 0.0, 0.0, 0.0, 0.0, 0.0, 0.0, 1.7103906901626172E9, 0.0, 2024-03-13 21:31:30.162
175.0, 347.09450503764674, 152.69824524084106, 141.01853767922148, 167.64662536373362, 0.0, 0.0, 0.0, 0.0, 0.0, 0.0, 0.0, 0.0, 1.7103906901626172E9, 0.0, 2024-03-13 21:31:30.162
176.0, 338.24216184252873, 149.55298937810585, 115.57225838070735, 171.07611362310126, 0.0, 0.0, 0.0, 0.0, 0.0, 0.0, 0.0, 0.0, 1.7103906901766288E9, 0.0, 2024-03-13 21:31:30.176
176.0, 339.2631545304321, 142.33124256366864, 114.36053079506382, 169.5016157417558, 0.0, 0.0, 0.0, 0.0, 0.0, 0.0, 0.0, 0.0, 1.7103906901766288E9, 0.0, 2024-03-13 21:31:30.176
177.0, 344.6972291660495, 145.84674852201715, 140.47251228569075, 172.03726791171357, 0.0, 0.0, 0.0, 0.0, 0.0, 0.0, 0.0, 0.0, 1.710390690191762E9, 0.0, 2024-03-13 21:31:30.191
177.0, 328.04719456331804, 124.43956117564812, 123.8561367825605, 165.21569039253518, 0.0, 0.0, 0.0, 0.0, 0.0, 0.0, 0.0, 0.0, 1.710390690191762E9, 0.0, 2024-03-13 21:31:30.191
178.0, 327.11221957439557, 131.73610598919913, 104.41987671284005, 170.8367600259371, 0.0, 0.0, 0.0, 0.0, 0.0, 0.0, 0.0, 0.0, 1.7103906901924949E9, 0.0, 2024-03-13 21:31:30.192
178.0, 339.0051014334895, 135.28901094710454, 132.895474975463, 169.0977065465413, 0.0, 0.0, 0.0, 0.0, 0.0, 0.0, 0.0, 0.0, 1.7103906901924949E9, 0.0, 2024-03-13 21:31:30.192
179.0, 316.6591991982423, 126.28707175375894, 113.80702560162172, 147.26791050517932, 0.0, 0.0, 0.0, 0.0, 0.0, 0.0, 0.0, 0.0, 1.7103906902061477E9, 0.0, 2024-03-13 21:31:30.206
179.0, 322.945971023757, 119.18126183794811, 105.50818759994581, 154.69535181717947, 0.0, 0.0, 0.0, 0.0, 0.0, 0.0, 0.0, 0.0, 1.7103906902061477E9, 0.0, 2024-03-13 21:31:30.206
180.0, 321.6444858391769, 121.1858482141979, 130.6777143017389, 150.33088856888935, 0.0, 0.0, 0.0, 0.0, 0.0, 0.0, 0.0, 0.0, 1.7103906902217588E9, 0.0, 2024-03-13 21:31:30.221
180.0, 309.6880256808363, 105.18281630380079, 146.1235011187382, 137.51799132069573, 0.0, 0.0, 0.0, 0.0, 0.0, 0.0, 0.0, 0.0, 1.7103906902217588E9, 0.0, 2024-03-13 21:31:30.221
181.0, 306.28845662111416, 93.84717953810468, 135.71909944200888, 142.8286492577754, 0.0, 0.0, 0.0, 0.0, 0.0, 0.0, 0.0, 0.0, 1.710390690222479E9, 0.0, 2024-03-13 21:31:30.222
181.0, 294.4142742617987, 74.72507106466219, 126.75081934826449, 127.55489783873782, 0.0, 0.0, 0.0, 0.0, 0.0, 0.0, 0.0, 0.0, 1.710390690222479E9, 0.0, 2024-03-13 21:31:30.222
182.0, 287.9666867381893, 67.24527115328237, 152.80670233955607, 125.86072315881029, 0.0, 0.0, 0.0, 0.0, 0.0, 0.0, 0.0, 0.0, 1.7103906902360797E9, 0.0, 2024-03-13 21:31:30.236
182.0, 285.28143857000396, 27.063786029350013, 124.86590977059677, 111.62292402749881, 0.0, 0.0, 0.0, 0.0, 0.0, 0.0, 0.0, 0.0, 1.7103906902360797E9, 0.0, 2024-03-13 21:31:30.236
183.0, 310.0545358764939, 21.10612539993599, 118.04433225141838, 112.93936881190166, 0.0, 0.0, 0.0, 0.0, 0.0, 0.0, 0.0, 0.0, 1.7103906902517903E9, 0.0, 2024-03-13 21:31:30.251
183.0, 309.81892217928544, 11.947110408451408, 166.7677488741465, 115.53485938115045, 0.0, 0.0, 0.0, 0.0, 0.0, 0.0, 0.0, 0.0, 1.7103906902517903E9, 0.0, 2024-03-13 21:31:30.251
184.0, 297.8998610205017, 14.531381277833134, 173.70152339199558, 120.09753732709214, 0.0, 0.0, 0.0, 0.0, 0.0, 0.0, 0.0, 0.0, 1.710390690252439E9, 0.0, 2024-03-13 21:31:30.252
184.0, 315.4250322128646, 83.54375516017899, 143.4980913498439, 144.44802593858913, 0.0, 0.0, 0.0, 0.0, 0.0, 0.0, 0.0, 0.0, 1.710390690252439E9, 0.0, 2024-03-13 21:31:30.252
185.0, 349.06169241433963, 153.51728333113715, 178.64941103337333, 173.62672539288178, 0.0, 0.0, 0.0, 0.0, 0.0, 0.0, 0.0, 0.0, 1.710390690266076E9, 0.0, 2024-03-13 21:31:30.266
185.0, 351.1934353890829, 175.51911477046087, 200.2211539777927, 184.27048066677526, 0.0, 0.0, 0.0, 0.0, 0.0, 0.0, 0.0, 0.0, 1.710390690266076E9, 0.0, 2024-03-13 21:31:30.266
186.0, 352.7754130703397, 169.74844913883135, 195.4079027348198, 205.5991301140748, 0.0, 0.0, 0.0, 0.0, 0.0, 0.0, 0.0, 0.0, 1.7103906902818944E9, 0.0, 2024-03-13 21:31:30.281
186.0, 388.495197547134, 210.36376265762374, 216.10450908960775, 231.04540941258892, 0.0, 0.0, 0.0, 0.0, 0.0, 0.0, 0.0, 0.0, 1.7103906902818944E9, 0.0, 2024-03-13 21:31:30.281
187.0, 388.543816246558, 221.5273640253581, 236.04565565334633, 235.5407691593282, 0.0, 0.0, 0.0, 0.0, 0.0, 0.0, 0.0, 0.0, 1.7103906902826717E9, 0.0, 2024-03-13 21:31:30.282
187.0, 389.40773313632235, 216.25036518787965, 222.6081951125525, 237.71365103358403, 0.0, 0.0, 0.0, 0.0, 0.0, 0.0, 0.0, 0.0, 1.7103906902826717E9, 0.0, 2024-03-13 21:31:30.282
188.0, 399.78595551336184, 233.78675608010963, 208.3367368816398, 242.04819508222863, 0.0, 0.0, 0.0, 0.0, 0.0, 0.0, 0.0, 0.0, 1.7103906902960613E9, 0.0, 2024-03-13 21:31:30.296
188.0, 415.79646722367033, 245.30564794363454, 246.97738322382793, 251.4016848714091, 0.0, 0.0, 0.0, 0.0, 0.0, 0.0, 0.0, 0.0, 1.7103906902960613E9, 0.0, 2024-03-13 21:31:30.296
189.0, 417.01193470926955, 253.23049594974145, 244.09018045803532, 249.70003039157018, 0.0, 0.0, 0.0, 0.0, 0.0, 0.0, 0.0, 0.0, 1.7103906903117373E9, 0.0, 2024-03-13 21:31:30.311
189.0, 432.480160926003, 257.0302343047224, 211.87842213967815, 263.26838743081316, 0.0, 0.0, 0.0, 0.0, 0.0, 0.0, 0.0, 0.0, 1.7103906903117373E9, 0.0, 2024-03-13 21:31:30.311
190.0, 425.666063206736, 257.5126813990064, 219.6461943476461, 257.22844900237396, 0.0, 0.0, 0.0, 0.0, 0.0, 0.0, 0.0, 0.0, 1.7103906903125036E9, 0.0, 2024-03-13 21:31:30.312
190.0, 390.1033545280807, 226.7594840633683, 198.9234086931683, 222.43989961454645, 0.0, 0.0, 0.0, 0.0, 0.0, 0.0, 0.0, 0.0, 1.7103906903125036E9, 0.0, 2024-03-13 21:31:30.312
191.0, 359.30901829293, 188.60876461537555, 137.84336261684075, 200.60262377327308, 0.0, 0.0, 0.0, 0.0, 0.0, 0.0, 0.0, 0.0, 1.710390690342741E9, 0.0, 2024-03-13 21:31:30.342
191.0, 360.5693645779975, 177.67703704489395, 132.42798748100176, 203.60950333764777, 0.0, 0.0, 0.0, 0.0, 0.0, 0.0, 0.0, 0.0, 1.710390690342741E9, 0.0, 2024-03-13 21:31:30.342
192.0, 347.0346666383557, 168.8396534495987, 133.52003826806322, 176.8093802551739, 0.0, 0.0, 0.0, 0.0, 0.0, 0.0, 0.0, 0.0, 1.710390690343557E9, 0.0, 2024-03-13 21:31:30.343
192.0, 328.71663665538654, 151.6809924528934, 108.01766047021374, 159.1720120641403, 0.0, 0.0, 0.0, 0.0, 0.0, 0.0, 0.0, 0.0, 1.710390690343557E9, 0.0, 2024-03-13 21:31:30.343
193.0, 338.0663865446113, 172.86752570187673, 101.83934574341401, 169.74470923887566, 0.0, 0.0, 0.0, 0.0, 0.0, 0.0, 0.0, 0.0, 1.710390690344137E9, 0.0, 2024-03-13 21:31:30.344
193.0, 346.41758314566687, 167.0557211707346, 144.02915714355186, 172.25418210914358, 0.0, 0.0, 0.0, 0.0, 0.0, 0.0, 0.0, 0.0, 1.710390690344137E9, 0.0, 2024-03-13 21:31:30.344
194.0, 327.45255047036335, 154.5046169194393, 121.12600981490687, 163.18118481663987, 0.0, 0.0, 0.0, 0.0, 0.0, 0.0, 0.0, 0.0, 1.7103906903561227E9, 0.0, 2024-03-13 21:31:30.356
194.0, 304.0968752470799, 129.8624161113985, 86.78624842176214, 152.51873004296795, 0.0, 0.0, 0.0, 0.0, 0.0, 0.0, 0.0, 0.0, 1.7103906903561227E9, 0.0, 2024-03-13 21:31:30.356
195.0, 318.74232347356156, 139.3804614986293, 124.91826836997643, 160.29772195080295, 0.0, 0.0, 0.0, 0.0, 0.0, 0.0, 0.0, 0.0, 1.7103906903718145E9, 0.0, 2024-03-13 21:31:30.371
195.0, 301.43780637858436, 132.4167677811347, 150.2411309699528, 158.4651709725149, 0.0, 0.0, 0.0, 0.0, 0.0, 0.0, 0.0, 0.0, 1.7103906903718145E9, 0.0, 2024-03-13 21:31:30.371
196.0, 299.825909497682, 133.31434377050027, 129.62306251423433, 164.1311194053851, 0.0, 0.0, 0.0, 0.0, 0.0, 0.0, 0.0, 0.0, 1.710390690372509E9, 0.0, 2024-03-13 21:31:30.372
196.0, 303.2366982572712, 141.91237376863137, 124.02443228056654, 158.8316811681725, 0.0, 0.0, 0.0, 0.0, 0.0, 0.0, 0.0, 0.0, 1.710390690372509E9, 0.0, 2024-03-13 21:31:30.372
197.0, 305.6003150292672, 136.32496323483065, 157.5376757835038, 158.91769886715338, 0.0, 0.0, 0.0, 0.0, 0.0, 0.0, 0.0, 0.0, 1.7103906903861153E9, 0.0, 2024-03-13 21:31:30.386
197.0, 296.7255324344151, 134.3839551578276, 146.54236991377547, 153.84639452723786, 0.0, 0.0, 0.0, 0.0, 0.0, 0.0, 0.0, 0.0, 1.7103906903861153E9, 0.0, 2024-03-13 21:31:30.386
198.0, 292.77619808120653, 133.43402056908235, 133.6733741662465, 145.59617522498593, 0.0, 0.0, 0.0, 0.0, 0.0, 0.0, 0.0, 0.0, 1.7103906904019046E9, 0.0, 2024-03-13 21:31:30.401
198.0, 304.3511884440668, 137.94433991564438, 176.29327406128868, 147.48856460256502, 0.0, 0.0, 0.0, 0.0, 0.0, 0.0, 0.0, 0.0, 1.7103906904019046E9, 0.0, 2024-03-13 21:31:30.401
199.0, 285.28143857000396, 131.88570198742673, 164.5088493009098, 139.29070389969274, 0.0, 0.0, 0.0, 0.0, 0.0, 0.0, 0.0, 0.0, 1.7103906904025135E9, 0.0, 2024-03-13 21:31:30.402
199.0, 282.1922812066041, 117.83863775385544, 154.66917251748964, 129.99705250980332, 0.0, 0.0, 0.0, 0.0, 0.0, 0.0, 0.0, 0.0, 1.7103906904025135E9, 0.0, 2024-03-13 21:31:30.402
200.0, 299.5641165007837, 130.62535570235923, 179.6255249218084, 127.55115793878213, 0.0, 0.0, 0.0, 0.0, 0.0, 0.0, 0.0, 0.0, 1.710390690417121E9, 0.0, 2024-03-13 21:31:30.417
200.0, 297.7540049222298, 125.56527106231079, 186.0282336459495, 129.0059790215455, 0.0, 0.0, 0.0, 0.0, 0.0, 0.0, 0.0, 0.0, 1.710390690417121E9, 0.0, 2024-03-13 21:31:30.417
0.0, 292.77619808120653, 113.19181205891073, 156.70741799334064, 124.40029222611338, 0.0, 0.0, 0.0, 0.0, 0.0, 0.0, 0.0, 0.0, 1.7103906904175518E9, 0.0, 2024-03-13 21:31:30.417
101.0, 299.3023235038854, 112.7205846644938, 171.6520582162775, 125.88877240847796, 0.0, 0.0, 0.0, 0.0, 0.0, 0.0, 0.0, 0.0, 1.7103906904310732E9, 0.0, 2024-03-13 21:31:30.431
101.0, 306.0079641244374, 114.06320874858648, 194.2260943488218, 121.57292785961181, 0.0, 0.0, 0.0, 0.0, 0.0, 0.0, 0.0, 0.0, 1.7103906904310732E9, 0.0, 2024-03-13 21:31:30.431
102.0, 299.24622500455007, 107.12195443082601, 169.99902243586257, 124.14597902912647, 0.0, 0.0, 0.0, 0.0, 0.0, 0.0, 0.0, 0.0, 1.7103906904470637E9, 0.0, 2024-03-13 21:31:30.447
102.0, 319.2135508679785, 130.34673315566033, 163.34200051473454, 139.22525565046817, 0.0, 0.0, 0.0, 0.0, 0.0, 0.0, 0.0, 0.0, 1.7103906904470637E9, 0.0, 2024-03-13 21:31:30.447
103.0, 319.3631468662061, 128.99662927165627, 189.88033060031012, 141.14756422769278, 0.0, 0.0, 0.0, 0.0, 0.0, 0.0, 0.0, 0.0, 1.7103906904477415E9, 0.0, 2024-03-13 21:31:30.447
103.0, 319.5052630645223, 137.9574295654893, 187.19508243212476, 140.86707173101604, 0.0, 0.0, 0.0, 0.0, 0.0, 0.0, 0.0, 0.0, 1.7103906904477415E9, 0.0, 2024-03-13 21:31:30.447
104.0, 326.3193607837893, 137.44880317151546, 161.63286623498425, 143.12597130425274, 0.0, 0.0, 0.0, 0.0, 0.0, 0.0, 0.0, 0.0, 1.710390690461088E9, 0.0, 2024-03-13 21:31:30.461
104.0, 348.7699802177958, 155.72569425497204, 197.05345871532336, 161.97880698088557, 0.0, 0.0, 0.0, 0.0, 0.0, 0.0, 0.0, 0.0, 1.710390690461088E9, 0.0, 2024-03-13 21:31:30.461
105.0, 339.0985989323817, 160.6735818963498, 202.93632134562358, 155.82667155377567, 0.0, 0.0, 0.0, 0.0, 0.0, 0.0, 0.0, 0.0, 1.710390690477075E9, 0.0, 2024-03-13 21:31:30.477
105.0, 334.4798224871047, 160.72594049572945, 191.522146680858, 152.04189279861748, 0.0, 0.0, 0.0, 0.0, 0.0, 0.0, 0.0, 0.0, 1.710390690477075E9, 0.0, 2024-03-13 21:31:30.477
106.0, 334.6518578850664, 149.0312733342871, 189.3642244064249, 140.93438993021846, 0.0, 0.0, 0.0, 0.0, 0.0, 0.0, 0.0, 0.0, 1.7103906904776332E9, 0.0, 2024-03-13 21:31:30.477
106.0, 318.70492447400466, 140.45942263584584, 200.54278537398204, 132.44855693075806, 0.0, 0.0, 0.0, 0.0, 0.0, 0.0, 0.0, 0.0, 1.7103906904776332E9, 0.0, 2024-03-13 21:31:30.477
107.0, 294.3170368629508, 112.80286246351898, 169.73722943896428, 115.69380512926728, 0.0, 0.0, 0.0, 0.0, 0.0, 0.0, 0.0, 0.0, 1.7103906905240881E9, 0.0, 2024-03-13 21:31:30.524
107.0, 306.14260052284226, 132.08952653501183, 160.28650225093588, 126.83122719731182, 0.0, 0.0, 0.0, 0.0, 0.0, 0.0, 0.0, 0.0, 1.7103906905240881E9, 0.0, 2024-03-13 21:31:30.524
108.0, 309.0971214878373, 136.5063483826816, 188.67982271453366, 133.4658097187057, 0.0, 0.0, 0.0, 0.0, 0.0, 0.0, 0.0, 0.0, 1.7103906905246208E9, 0.0, 2024-03-13 21:31:30.524
108.0, 306.5390299181454, 127.19399749301374, 186.6228777389042, 133.5854865172878, 0.0, 0.0, 0.0, 0.0, 0.0, 0.0, 0.0, 0.0, 1.7103906905246208E9, 0.0, 2024-03-13 21:31:30.524
109.0, 308.41271979594603, 118.37531339749694, 177.74061534414068, 132.04838763549924, 0.0, 0.0, 0.0, 0.0, 0.0, 0.0, 0.0, 0.0, 1.710390690525319E9, 0.0, 2024-03-13 21:31:30.525
109.0, 310.8062557675876, 140.7698343321681, 174.68511708034202, 128.63011907599866, 0.0, 0.0, 0.0, 0.0, 0.0, 0.0, 0.0, 0.0, 1.710390690525319E9, 0.0, 2024-03-13 21:31:30.525
110.0, 301.3517886796035, 125.20063081663102, 163.8356673088856, 129.37435916718096, 0.0, 0.0, 0.0, 0.0, 0.0, 0.0, 0.0, 0.0, 1.7103906905261328E9, 0.0, 2024-03-13 21:31:30.526
110.0, 296.5198379368521, 122.76595594547689, 138.37442841054872, 135.31332029681653, 0.0, 0.0, 0.0, 0.0, 0.0, 0.0, 0.0, 0.0, 1.7103906905261328E9, 0.0, 2024-03-13 21:31:30.526
111.0, 310.1368136755191, 145.50828757602721, 147.80645609879866, 140.87081163097173, 0.0, 0.0, 0.0, 0.0, 0.0, 0.0, 0.0, 0.0, 1.7103906905368536E9, 0.0, 2024-03-13 21:31:30.536
111.0, 311.6140741580166, 141.46919562388211, 151.45285855559632, 137.5049016708508, 0.0, 0.0, 0.0, 0.0, 0.0, 0.0, 0.0, 0.0, 1.7103906905368536E9, 0.0, 2024-03-13 21:31:30.536
112.0, 298.7450784104876, 135.19364349823445, 142.0507500669919, 141.66741032153368, 0.0, 0.0, 0.0, 0.0, 0.0, 0.0, 0.0, 0.0, 1.7103906905377927E9, 0.0, 2024-03-13 21:31:30.537
112.0, 327.05238117510453, 163.22045376617461, 158.6072871708311, 166.7509193243459, 0.0, 0.0, 0.0, 0.0, 0.0, 0.0, 0.0, 0.0, 1.7103906905377927E9, 0.0, 2024-03-13 21:31:30.537
113.0, 351.17099598934874, 178.21745258849114, 201.80687155900523, 182.99704473186284, 0.0, 0.0, 0.0, 0.0, 0.0, 0.0, 0.0, 0.0, 1.7103906905511866E9, 0.0, 2024-03-13 21:31:30.551
113.0, 315.7616232088767, 148.81809903681278, 179.44974962389097, 150.65438991505653, 0.0, 0.0, 0.0, 0.0, 0.0, 0.0, 0.0, 0.0, 1.7103906905511866E9, 0.0, 2024-03-13 21:31:30.551
114.0, 316.66667899815366, 150.50853381678462, 151.95774504961446, 143.56353959906846, 0.0, 0.0, 0.0, 0.0, 0.0, 0.0, 0.0, 0.0, 1.7103906905667617E9, 0.0, 2024-03-13 21:31:30.566
114.0, 325.0216154991649, 153.5565522806719, 175.05910707591102, 144.76404748484492, 0.0, 0.0, 0.0, 0.0, 0.0, 0.0, 0.0, 0.0, 1.7103906905667617E9, 0.0, 2024-03-13 21:31:30.566
115.0, 312.74726384459063, 146.38342416565865, 170.38049223134294, 145.9982144702226, 0.0, 0.0, 0.0, 0.0, 0.0, 0.0, 0.0, 0.0, 1.7103906905675051E9, 0.0, 2024-03-13 21:31:30.567
115.0, 301.51634427765384, 124.82664082106203, 124.15532877901569, 135.70600979216397, 0.0, 0.0, 0.0, 0.0, 0.0, 0.0, 0.0, 0.0, 1.7103906905675051E9, 0.0, 2024-03-13 21:31:30.567
116.0, 303.85004185000435, 130.0587608590722, 130.16534800780937, 131.21812984533608, 0.0, 0.0, 0.0, 0.0, 0.0, 0.0, 0.0, 0.0, 1.7103906905811372E9, 0.0, 2024-03-13 21:31:30.581
116.0, 304.2053323457949, 129.63989206403494, 155.85098090348765, 135.96780278906226, 0.0, 0.0, 0.0, 0.0, 0.0, 0.0, 0.0, 0.0, 1.7103906905811372E9, 0.0, 2024-03-13 21:31:30.581
117.0, 288.65482833003625, 113.37880705669522, 144.4218466388993, 134.01183511223644, 0.0, 0.0, 0.0, 0.0, 0.0, 0.0, 0.0, 0.0, 1.7103906905970397E9, 0.0, 2024-03-13 21:31:30.597
117.0, 304.06695604743436, 114.82240843959153, 137.80970351723954, 137.46376277133822, 0.0, 0.0, 0.0, 0.0, 0.0, 0.0, 0.0, 0.0, 1.7103906905970397E9, 0.0, 2024-03-13 21:31:30.597
118.0, 317.29872209066525, 129.31078086793423, 182.07889929274097, 147.13514405675232, 0.0, 0.0, 0.0, 0.0, 0.0, 0.0, 0.0, 0.0, 1.710390690597731E9, 0.0, 2024-03-13 21:31:30.597
118.0, 306.3408152204938, 124.63964582327753, 175.38073847210035, 148.8816773360595, 0.0, 0.0, 0.0, 0.0, 0.0, 0.0, 0.0, 0.0, 1.710390690597731E9, 0.0, 2024-03-13 21:31:30.597
119.0, 314.18712532753125, 132.27278163284063, 153.0572756365873, 151.17049610894173, 0.0, 0.0, 0.0, 0.0, 0.0, 0.0, 0.0, 0.0, 1.710390690611122E9, 0.0, 2024-03-13 21:31:30.611
119.0, 326.64847197989, 141.30464002583176, 180.0294341170229, 157.02717943955213, 0.0, 0.0, 0.0, 0.0, 0.0, 0.0, 0.0, 0.0, 1.710390690611122E9, 0.0, 2024-03-13 21:31:30.611
120.0, 323.3498802189715, 138.3276796611026, 194.1886953492649, 159.4057558113709, 0.0, 0.0, 0.0, 0.0, 0.0, 0.0, 0.0, 0.0, 1.71039069062677E9, 0.0, 2024-03-13 21:31:30.626
120.0, 317.85222728410736, 130.50006905384362, 156.17635219963267, 155.09365116246045, 0.0, 0.0, 0.0, 0.0, 0.0, 0.0, 0.0, 0.0, 1.71039069062677E9, 0.0, 2024-03-13 21:31:30.626
121.0, 333.48500909889117, 143.85525179561228, 179.6591840214096, 168.56851070281118, 0.0, 0.0, 0.0, 0.0, 0.0, 0.0, 0.0, 0.0, 1.7103906906274836E9, 0.0, 2024-03-13 21:31:30.627
121.0, 312.96791794197634, 131.15455154608935, 188.735921213869, 151.68660230282694, 0.0, 0.0, 0.0, 0.0, 0.0, 0.0, 0.0, 0.0, 1.7103906906274836E9, 0.0, 2024-03-13 21:31:30.627
122.0, 312.11896065203473, 133.8771987138316, 178.66811053315178, 158.25386662501842, 0.0, 0.0, 0.0, 0.0, 0.0, 0.0, 0.0, 0.0, 1.7103906906575892E9, 0.0, 2024-03-13 21:31:30.657
122.0, 326.8766058771871, 144.98096168227494, 166.52465537702665, 165.60277003794909, 0.0, 0.0, 0.0, 0.0, 0.0, 0.0, 0.0, 0.0, 1.7103906906575892E9, 0.0, 2024-03-13 21:31:30.657
123.0, 323.00580942304805, 146.38342416565865, 200.99157336866483, 160.00787970423698, 0.0, 0.0, 0.0, 0.0, 0.0, 0.0, 0.0, 0.0, 1.7103906906584105E9, 0.0, 2024-03-13 21:31:30.658
123.0, 319.14997256873176, 135.97154268901795, 196.64206972019747, 156.69432834349573, 0.0, 0.0, 0.0, 0.0, 0.0, 0.0, 0.0, 0.0, 1.7103906906584105E9, 0.0, 2024-03-13 21:31:30.658
124.0, 325.092673598323, 133.08807982318103, 175.11146567529067, 159.13274311460555, 0.0, 0.0, 0.0, 0.0, 0.0, 0.0, 0.0, 0.0, 1.7103906906592083E9, 0.0, 2024-03-13 21:31:30.659
124.0, 333.6981833963655, 143.3690648013726, 211.51939174393192, 163.17557496670634, 0.0, 0.0, 0.0, 0.0, 0.0, 0.0, 0.0, 0.0, 1.7103906906592083E9, 0.0, 2024-03-13 21:31:30.659
125.0, 319.89047275995836, 143.48874159995466, 219.05529015464708, 159.61893010884523, 0.0, 0.0, 0.0, 0.0, 0.0, 0.0, 0.0, 0.0, 1.7103906906711087E9, 0.0, 2024-03-13 21:31:30.671
125.0, 309.0859017879702, 122.04415525402874, 185.1755364560522, 142.5500267110765, 0.0, 0.0, 0.0, 0.0, 0.0, 0.0, 0.0, 0.0, 1.7103906906711087E9, 0.0, 2024-03-13 21:31:30.671
126.0, 320.75064974976704, 131.34528644382954, 194.23357414873317, 150.5945515157655, 0.0, 0.0, 0.0, 0.0, 0.0, 0.0, 0.0, 0.0, 1.710390690686794E9, 0.0, 2024-03-13 21:31:30.686
126.0, 315.3090953142382, 129.5015157656744, 215.68564029457048, 149.2145284321159, 0.0, 0.0, 0.0, 0.0, 0.0, 0.0, 0.0, 0.0, 1.710390690686794E9, 0.0, 2024-03-13 21:31:30.686
127.0, 312.2049783510156, 129.07890707068145, 198.58681769715622, 151.79505940154195, 0.0, 0.0, 0.0, 0.0, 0.0, 0.0, 0.0, 0.0, 1.7103906906878276E9, 0.0, 2024-03-13 21:31:30.687
127.0, 327.5123888696544, 140.433243336156, 186.57799893943593, 156.14082315005362, 0.0, 0.0, 0.0, 0.0, 0.0, 0.0, 0.0, 0.0, 1.7103906906878276E9, 0.0, 2024-03-13 21:31:30.687
128.0, 317.1753053921275, 143.436383000575, 204.95586732169613, 154.52518636919558, 0.0, 0.0, 0.0, 0.0, 0.0, 0.0, 0.0, 0.0, 1.7103906907338872E9, 0.0, 2024-03-13 21:31:30.733
128.0, 310.78381636785343, 130.8777989493683, 185.13065765658394, 152.23636759631336, 0.0, 0.0, 0.0, 0.0, 0.0, 0.0, 0.0, 0.0, 1.7103906907338872E9, 0.0, 2024-03-13 21:31:30.733
129.0, 318.3159748786129, 133.89963811356574, 158.1659789760597, 154.05769887473434, 0.0, 0.0, 0.0, 0.0, 0.0, 0.0, 0.0, 0.0, 1.7103906907346108E9, 0.0, 2024-03-13 21:31:30.734
129.0, 317.36604028986767, 137.86019216664135, 161.40473233768716, 144.00858769379556, 0.0, 0.0, 0.0, 0.0, 0.0, 0.0, 0.0, 0.0, 1.7103906907346108E9, 0.0, 2024-03-13 21:31:30.734
130.0, 316.9172522951849, 133.12921872269362, 174.71129638003185, 151.61180430371314, 0.0, 0.0, 0.0, 0.0, 0.0, 0.0, 0.0, 0.0, 1.7103906907353635E9, 0.0, 2024-03-13 21:31:30.735
130.0, 306.0229237242602, 121.92073855549097, 148.26646379334852, 148.20475544407964, 0.0, 0.0, 0.0, 0.0, 0.0, 0.0, 0.0, 0.0, 1.7103906907353635E9, 0.0, 2024-03-13 21:31:30.735
131.0, 324.01932231104, 124.21703712828457, 147.79897629888728, 156.49237374588847, 0.0, 0.0, 0.0, 0.0, 0.0, 0.0, 0.0, 0.0, 1.7103906907361174E9, 0.0, 2024-03-13 21:31:30.736
131.0, 329.1355054504238, 138.3987377602607, 169.64747184002772, 164.40600205212831, 0.0, 0.0, 0.0, 0.0, 0.0, 0.0, 0.0, 0.0, 1.7103906907361174E9, 0.0, 2024-03-13 21:31:30.736
132.0, 320.71325075021014, 128.81711407378316, 143.37467465130612, 153.64630987960845, 0.0, 0.0, 0.0, 0.0, 0.0, 0.0, 0.0, 0.0, 1.7103906907468066E9, 0.0, 2024-03-13 21:31:30.746
132.0, 333.6233853972517, 139.2102960506454, 140.5697496845387, 163.3775295643136, 0.0, 0.0, 0.0, 0.0, 0.0, 0.0, 0.0, 0.0, 1.7103906907468066E9, 0.0, 2024-03-13 21:31:30.746
133.0, 329.4309575469233, 142.22465541493148, 169.59511324064806, 160.31829140055925, 0.0, 0.0, 0.0, 0.0, 0.0, 0.0, 0.0, 0.0, 1.7103906907474916E9, 0.0, 2024-03-13 21:31:30.747
133.0, 313.5064635355957, 120.8361675683409, 155.89959960291162, 158.45208132266998, 0.0, 0.0, 0.0, 0.0, 0.0, 0.0, 0.0, 0.0, 1.7103906907474916E9, 0.0, 2024-03-13 21:31:30.747
134.0, 312.96043814206496, 118.61466699466109, 122.86880319425836, 151.6641629030928, 0.0, 0.0, 0.0, 0.0, 0.0, 0.0, 0.0, 0.0, 1.7103906907615244E9, 0.0, 2024-03-13 21:31:30.761
134.0, 332.11994561506435, 133.85849921405315, 157.10758728859946, 155.4078027587384, 0.0, 0.0, 0.0, 0.0, 0.0, 0.0, 0.0, 0.0, 1.7103906907615244E9, 0.0, 2024-03-13 21:31:30.761
135.0, 310.7576370681636, 129.4267177665606, 174.23258918570355, 156.50733334571123, 0.0, 0.0, 0.0, 0.0, 0.0, 0.0, 0.0, 0.0, 1.710390690777047E9, 0.0, 2024-03-13 21:31:30.777
135.0, 304.601761741098, 117.38050000928342, 148.14678699476644, 159.18136181402951, 0.0, 0.0, 0.0, 0.0, 0.0, 0.0, 0.0, 0.0, 1.710390690777047E9, 0.0, 2024-03-13 21:31:30.777
136.0, 314.6097340225242, 127.82230068556964, 160.54829524783418, 156.1146438503638, 0.0, 0.0, 0.0, 0.0, 0.0, 0.0, 0.0, 0.0, 1.7103906907777884E9, 0.0, 2024-03-13 21:31:30.777
136.0, 322.63555932743475, 139.18411675095558, 186.72385503770784, 171.5305114677176, 0.0, 0.0, 0.0, 0.0, 0.0, 0.0, 0.0, 0.0, 1.7103906907777884E9, 0.0, 2024-03-13 21:31:30.777
137.0, 311.07178866444156, 123.3531202385202, 159.22063076356426, 168.13094240799546, 0.0, 0.0, 0.0, 0.0, 0.0, 0.0, 0.0, 0.0, 1.7103906907913148E9, 0.0, 2024-03-13 21:31:30.791
137.0, 328.60817955667153, 137.83775276690722, 143.58036914886907, 171.10416287276894, 0.0, 0.0, 0.0, 0.0, 0.0, 0.0, 0.0, 0.0, 1.7103906907913148E9, 0.0, 2024-03-13 21:31:30.791
138.0, 347.97712142718956, 159.17762191407382, 189.64097700314596, 195.01334328949451, 0.0, 0.0, 0.0, 0.0, 0.0, 0.0, 0.0, 0.0, 1.7103906908067784E9, 0.0, 2024-03-13 21:31:30.806
138.0, 360.95083437347785, 182.2004460413009, 182.0714194928296, 214.20276996213943, 0.0, 0.0, 0.0, 0.0, 0.0, 0.0, 0.0, 0.0, 1.7103906908067784E9, 0.0, 2024-03-13 21:31:30.806
139.0, 355.4045627391897, 189.45211205538362, 135.8574757403694, 204.4678103774786, 0.0, 0.0, 0.0, 0.0, 0.0, 0.0, 0.0, 0.0, 1.710390690807485E9, 0.0, 2024-03-13 21:31:30.807
139.0, 369.4217077731155, 196.26620977465063, 174.37096548406407, 209.59521321672946, 0.0, 0.0, 0.0, 0.0, 0.0, 0.0, 0.0, 0.0, 1.710390690807485E9, 0.0, 2024-03-13 21:31:30.807
140.0, 354.5855246488936, 197.65745255816728, 184.44625596469268, 217.60233902186155, 0.0, 0.0, 0.0, 0.0, 0.0, 0.0, 0.0, 0.0, 1.710390690821111E9, 0.0, 2024-03-13 21:31:30.821
140.0, 346.2904265471734, 174.4513733331114, 138.72971890633926, 199.47504393663257, 0.0, 0.0, 0.0, 0.0, 0.0, 0.0, 0.0, 0.0, 1.710390690821111E9, 0.0, 2024-03-13 21:31:30.821
141.0, 343.6650167782791, 170.49455917999148, 146.7218851116486, 193.6482798056677, 0.0, 0.0, 0.0, 0.0, 0.0, 0.0, 0.0, 0.0, 1.7103906908368783E9, 0.0, 2024-03-13 21:31:30.836
141.0, 335.440976775717, 168.2281798068434, 172.75906860316172, 194.7552901925519, 0.0, 0.0, 0.0, 0.0, 0.0, 0.0, 0.0, 0.0, 1.7103906908368783E9, 0.0, 2024-03-13 21:31:30.836
142.0, 325.6162595921196, 158.21646762546152, 148.04206979600713, 187.4550054790452, 0.0, 0.0, 0.0, 0.0, 0.0, 0.0, 0.0, 0.0, 1.710390690838038E9, 0.0, 2024-03-13 21:31:30.838
142.0, 336.2600148660131, 161.5935972854495, 131.36585589358583, 177.98931869119406, 0.0, 0.0, 0.0, 0.0, 0.0, 0.0, 0.0, 0.0, 1.710390690838038E9, 0.0, 2024-03-13 21:31:30.838
143.0, 344.0614461735822, 172.5963829550892, 180.78863380802795, 190.18139254674315, 0.0, 0.0, 0.0, 0.0, 0.0, 0.0, 0.0, 0.0, 1.7103906908511107E9, 0.0, 2024-03-13 21:31:30.851
143.0, 333.49248889880255, 158.98688701633364, 173.63046529283747, 183.13542103022337, 0.0, 0.0, 0.0, 0.0, 0.0, 0.0, 0.0, 0.0, 1.7103906908511107E9, 0.0, 2024-03-13 21:31:30.851
144.0, 332.86792560620233, 151.17423600889742, 139.89282779255882, 171.46319326851517, 0.0, 0.0, 0.0, 0.0, 0.0, 0.0, 0.0, 0.0, 1.7103906908667643E9, 0.0, 2024-03-13 21:31:30.866
144.0, 338.0776062444784, 153.10402438603342, 160.04340875381604, 179.47031907364726, 0.0, 0.0, 0.0, 0.0, 0.0, 0.0, 0.0, 0.0, 1.7103906908667643E9, 0.0, 2024-03-13 21:31:30.866
145.0, 339.26689443038777, 156.4063560469076, 156.5391224953346, 181.2692109523341, 0.0, 0.0, 0.0, 0.0, 0.0, 0.0, 0.0, 0.0, 1.7103906908674936E9, 0.0, 2024-03-13 21:31:30.867
145.0, 345.4414692572318, 154.01282007526606, 128.20938033098355, 185.2335049053654, 0.0, 0.0, 0.0, 0.0, 0.0, 0.0, 0.0, 0.0, 1.7103906908674936E9, 0.0, 2024-03-13 21:31:30.867
146.0, 347.67792943073437, 147.6662098504603, 125.00054616900161, 179.3431624751538, 0.0, 0.0, 0.0, 0.0, 0.0, 0.0, 0.0, 0.0, 1.7103906908811195E9, 0.0, 2024-03-13 21:31:30.881
146.0, 343.7360748774372, 145.97203517053276, 148.95460538519546, 191.9054864263162, 0.0, 0.0, 0.0, 0.0, 0.0, 0.0, 0.0, 0.0, 1.7103906908811195E9, 0.0, 2024-03-13 21:31:30.881
147.0, 336.2562749660574, 146.72749496158212, 121.87024990608916, 189.06690235994756, 0.0, 0.0, 0.0, 0.0, 0.0, 0.0, 0.0, 0.0, 1.7103906908967724E9, 0.0, 2024-03-13 21:31:30.896
147.0, 345.9164365516044, 151.08073851000518, 102.08243924053386, 190.4992840429768, 0.0, 0.0, 0.0, 0.0, 0.0, 0.0, 0.0, 0.0, 1.7103906908967724E9, 0.0, 2024-03-13 21:31:30.896
148.0, 348.86347771668807, 158.31744492426515, 130.5991764026694, 195.33497468568385, 0.0, 0.0, 0.0, 0.0, 0.0, 0.0, 0.0, 0.0, 1.710390690897556E9, 0.0, 2024-03-13 21:31:30.897
148.0, 353.35135766351596, 159.0803845152259, 120.21721412567422, 208.11047293432057, 0.0, 0.0, 0.0, 0.0, 0.0, 0.0, 0.0, 0.0, 1.710390690897556E9, 0.0, 2024-03-13 21:31:30.897
149.0, 360.40106907999143, 162.18076157849282, 81.14273938862607, 206.44995735399425, 0.0, 0.0, 0.0, 0.0, 0.0, 0.0, 0.0, 0.0, 1.710390690911467E9, 0.0, 2024-03-13 21:31:30.911
149.0, 380.02806404745206, 170.95082697458565, 106.5852787871845, 222.9990146579221, 0.0, 0.0, 0.0, 0.0, 0.0, 0.0, 0.0, 0.0, 1.710390690911467E9, 0.0, 2024-03-13 21:31:30.911
150.0, 364.3691029329784, 164.75381274800748, 100.71737575670704, 222.78958026040345, 0.0, 0.0, 0.0, 0.0, 0.0, 0.0, 0.0, 0.0, 1.7103906909272027E9, 0.0, 2024-03-13 21:31:30.927
150.0, 367.3348435978405, 161.20090779010206, 59.563516644295305, 219.48724859952927, 0.0, 0.0, 0.0, 0.0, 0.0, 0.0, 0.0, 0.0, 1.7103906909272027E9, 0.0, 2024-03-13 21:31:30.927
151.0, 394.0863479808904, 182.87362803332508, 71.3479414046742, 237.83893768209964, 0.0, 0.0, 0.0, 0.0, 0.0, 0.0, 0.0, 0.0, 1.710390690927734E9, 0.0, 2024-03-13 21:31:30.927
151.0, 380.58530914084986, 175.20309322420508, 90.0624007829465, 241.32826434075832, 0.0, 0.0, 0.0, 0.0, 0.0, 0.0, 0.0, 0.0, 1.710390690927734E9, 0.0, 2024-03-13 21:31:30.927
152.0, 361.8184911631979, 149.35664463043213, 67.6043015490286, 231.1819157609716, 0.0, 0.0, 0.0, 0.0, 0.0, 0.0, 0.0, 0.0, 1.7103906909411013E9, 0.0, 2024-03-13 21:31:30.941
152.0, 372.0919963414781, 154.12127717398107, 54.59318960318342, 224.65579033829272, 0.0, 0.0, 0.0, 0.0, 0.0, 0.0, 0.0, 0.0, 1.7103906909411013E9, 0.0, 2024-03-13 21:31:30.941
153.0, 378.6443010638468, 168.2319197067991, 99.14661777531728, 239.7462866595015, 0.0, 0.0, 0.0, 0.0, 0.0, 0.0, 0.0, 0.0, 1.7103906909570687E9, 0.0, 2024-03-13 21:31:30.957
153.0, 357.1922349180095, 163.68794126063585, 74.0556289725937, 225.34767183009535, 0.0, 0.0, 0.0, 0.0, 0.0, 0.0, 0.0, 0.0, 1.7103906909570687E9, 0.0, 2024-03-13 21:31:30.957
154.0, 374.69122681068256, 184.36584811564535, 73.45724497968331, 242.98504002112895, 0.0, 0.0, 0.0, 0.0, 0.0, 0.0, 0.0, 0.0, 1.7103906909577148E9, 0.0, 2024-03-13 21:31:30.957
154.0, 383.3528351080604, 216.94037672970444, 107.09016528120264, 253.88310849200934, 0.0, 0.0, 0.0, 0.0, 0.0, 0.0, 0.0, 0.0, 1.7103906909577148E9, 0.0, 2024-03-13 21:31:30.957
155.0, 370.1958670639433, 222.01542096957564, 129.23785281879827, 254.59368948359042, 0.0, 0.0, 0.0, 0.0, 0.0, 0.0, 0.0, 0.0, 1.7103906909715128E9, 0.0, 2024-03-13 21:31:30.971
155.0, 370.7157131577842, 233.9644013280049, 112.54293941659853, 245.58801039028913, 0.0, 0.0, 0.0, 0.0, 0.0, 0.0, 0.0, 0.0, 1.7103906909715128E9, 0.0, 2024-03-13 21:31:30.971
156.0, 378.76771776238456, 246.24997268244624, 130.62535570235923, 250.1918272357434, 0.0, 0.0, 0.0, 0.0, 0.0, 0.0, 0.0, 0.0, 1.7103906910031612E9, 0.0, 2024-03-13 21:31:31.003
156.0, 364.6009767302312, 242.49511312693357, 152.0175834489055, 245.27385879401118, 0.0, 0.0, 0.0, 0.0, 0.0, 0.0, 0.0, 0.0, 1.7103906910031612E9, 0.0, 2024-03-13 21:31:31.003
157.0, 366.38864890905097, 232.9957672394812, 135.34884934639558, 239.667748760432, 0.0, 0.0, 0.0, 0.0, 0.0, 0.0, 0.0, 0.0, 1.7103906910038888E9, 0.0, 2024-03-13 21:31:31.003
157.0, 374.99415870709345, 227.93942249938846, 129.4884261158295, 224.30423974245787, 0.0, 0.0, 0.0, 0.0, 0.0, 0.0, 0.0, 0.0, 1.7103906910038888E9, 0.0, 2024-03-13 21:31:31.003
158.0, 383.0461633116938, 231.16695616114885, 164.78934179758653, 226.1068715211004, 0.0, 0.0, 0.0, 0.0, 0.0, 0.0, 0.0, 0.0, 1.7103906910046883E9, 0.0, 2024-03-13 21:31:31.004
158.0, 363.09753694804385, 204.07138098217547, 135.05339724989608, 209.69993041548878, 0.0, 0.0, 0.0, 0.0, 0.0, 0.0, 0.0, 0.0, 1.7103906910046883E9, 0.0, 2024-03-13 21:31:31.004
159.0, 381.22109213331714, 207.48590964172035, 134.73924565361813, 216.75338173191994, 0.0, 0.0, 0.0, 0.0, 0.0, 0.0, 0.0, 0.0, 1.710390691005714E9, 0.0, 2024-03-13 21:31:31.005
159.0, 382.51883741794154, 203.38697929028422, 154.66169271757826, 205.8366137612611, 0.0, 0.0, 0.0, 0.0, 0.0, 0.0, 0.0, 0.0, 1.710390691005714E9, 0.0, 2024-03-13 21:31:31.005
160.0, 376.0936892940663, 204.36683307867497, 183.8441320718266, 211.99622898828238, 0.0, 0.0, 0.0, 0.0, 0.0, 0.0, 0.0, 0.0, 1.710390691031798E9, 0.0, 2024-03-13 21:31:31.031
160.0, 371.55345074785873, 193.08355491235852, 156.48676389595494, 207.01094234734774, 0.0, 0.0, 0.0, 0.0, 0.0, 0.0, 0.0, 0.0, 1.710390691031798E9, 0.0, 2024-03-13 21:31:31.031
161.0, 380.233758545015, 194.2429238986224, 160.59317404730245, 199.16089234035462, 0.0, 0.0, 0.0, 0.0, 0.0, 0.0, 0.0, 0.0, 1.7103906910325277E9, 0.0, 2024-03-13 21:31:31.032
161.0, 374.7809844096191, 198.34185425005853, 185.2129354556091, 204.15739868115634, 0.0, 0.0, 0.0, 0.0, 0.0, 0.0, 0.0, 0.0, 1.7103906910325277E9, 0.0, 2024-03-13 21:31:31.032
162.0, 352.31166547583416, 179.18608667701483, 169.2061636452563, 194.98716398980469, 0.0, 0.0, 0.0, 0.0, 0.0, 0.0, 0.0, 0.0, 1.7103906910467768E9, 0.0, 2024-03-13 21:31:31.046
162.0, 369.57878357125446, 194.40373959671706, 172.64313170453534, 208.37600583117455, 0.0, 0.0, 0.0, 0.0, 0.0, 0.0, 0.0, 0.0, 1.7103906910467768E9, 0.0, 2024-03-13 21:31:31.046
163.0, 354.12551695434377, 181.83767574559897, 189.74569420190528, 193.73803740460426, 0.0, 0.0, 0.0, 0.0, 0.0, 0.0, 0.0, 0.0, 1.71039069104749E9, 0.0, 2024-03-13 21:31:31.047
163.0, 341.31261970615014, 172.80955725256354, 184.08348566899076, 191.07896853610873, 0.0, 0.0, 0.0, 0.0, 0.0, 0.0, 0.0, 0.0, 1.71039069104749E9, 0.0, 2024-03-13 21:31:31.047
164.0, 332.71832960797474, 153.4480951819569, 153.25923023419455, 178.57648298423737, 0.0, 0.0, 0.0, 0.0, 0.0, 0.0, 0.0, 0.0, 1.7103906910611424E9, 0.0, 2024-03-13 21:31:31.061
164.0, 334.9211306818761, 152.90206978842616, 162.89695242000744, 167.65223521366715, 0.0, 0.0, 0.0, 0.0, 0.0, 0.0, 0.0, 0.0, 1.7103906910611424E9, 0.0, 2024-03-13 21:31:31.061
165.0, 314.3479410256259, 137.97238916531205, 165.62333948770538, 159.97422060463578, 0.0, 0.0, 0.0, 0.0, 0.0, 0.0, 0.0, 0.0, 1.7103906910768688E9, 0.0, 2024-03-13 21:31:31.076
165.0, 304.7625774391927, 124.4676104253158, 127.80173123581335, 151.04333951044828, 0.0, 0.0, 0.0, 0.0, 0.0, 0.0, 0.0, 0.0, 1.7103906910768688E9, 0.0, 2024-03-13 21:31:31.076
166.0, 316.1991915036924, 139.45338954776525, 134.31289705866948, 150.7366677140817, 0.0, 0.0, 0.0, 0.0, 0.0, 0.0, 0.0, 0.0, 1.710390691077574E9, 0.0, 2024-03-13 21:31:31.077
166.0, 315.33527461392805, 138.4361367598176, 152.10734104784206, 158.91956881713122, 0.0, 0.0, 0.0, 0.0, 0.0, 0.0, 0.0, 0.0, 1.710390691077574E9, 0.0, 2024-03-13 21:31:31.077
167.0, 304.5681026414968, 128.30100787989795, 133.65841456642374, 149.89893012400717, 0.0, 0.0, 0.0, 0.0, 0.0, 0.0, 0.0, 0.0, 1.7103906910913424E9, 0.0, 2024-03-13 21:31:31.091
167.0, 319.71469746204093, 138.5819928580895, 129.6305423141457, 154.3681105710566, 0.0, 0.0, 0.0, 0.0, 0.0, 0.0, 0.0, 0.0, 1.7103906910913424E9, 0.0, 2024-03-13 21:31:31.091
168.0, 320.8778063482605, 146.23008826747537, 149.35851458040997, 152.9581682877615, 0.0, 0.0, 0.0, 0.0, 0.0, 0.0, 0.0, 0.0, 1.7103906911067803E9, 0.0, 2024-03-13 21:31:31.106
168.0, 320.33552085468546, 136.71578278020024, 153.1993918349035, 166.4816465275362, 0.0, 0.0, 0.0, 0.0, 0.0, 0.0, 0.0, 0.0, 1.7103906911067803E9, 0.0, 2024-03-13 21:31:31.106
169.0, 316.879853295628, 140.97178892977536, 123.1156365913339, 163.94225445762277, 0.0, 0.0, 0.0, 0.0, 0.0, 0.0, 0.0, 0.0, 1.710390691107508E9, 0.0, 2024-03-13 21:31:31.107
169.0, 341.24156160699204, 152.9581682877615, 153.8276950274594, 176.54197740834206, 0.0, 0.0, 0.0, 0.0, 0.0, 0.0, 0.0, 0.0, 1.710390691107508E9, 0.0, 2024-03-13 21:31:31.107
170.0, 321.92497833585367, 137.31042687315494, 162.2761290273629, 172.58142335526645, 0.0, 0.0, 0.0, 0.0, 0.0, 0.0, 0.0, 0.0, 1.7103906911211443E9, 0.0, 2024-03-13 21:31:31.121
170.0, 339.5436470271088, 148.45532874111086, 141.39626757474616, 184.3471486158669, 0.0, 0.0, 0.0, 0.0, 0.0, 0.0, 0.0, 0.0, 1.7103906911211443E9, 0.0, 2024-03-13 21:31:31.121
171.0, 359.39129609195516, 158.41468232311308, 144.59762193681672, 192.66094621736556, 0.0, 0.0, 0.0, 0.0, 0.0, 0.0, 0.0, 0.0, 1.7103906911367714E9, 0.0, 2024-03-13 21:31:31.136
171.0, 347.31515913503245, 151.22659460827708, 166.46107707777992, 189.6054479535669, 0.0, 0.0, 0.0, 0.0, 0.0, 0.0, 0.0, 0.0, 1.7103906911367714E9, 0.0, 2024-03-13 21:31:31.136
172.0, 344.68974936613813, 146.21138876769692, 145.33064232813194, 184.93057300895452, 0.0, 0.0, 0.0, 0.0, 0.0, 0.0, 0.0, 0.0, 1.710390691137548E9, 0.0, 2024-03-13 21:31:31.137
172.0, 353.5533122611232, 155.84163115359843, 123.32507098885253, 184.31722941622138, 0.0, 0.0, 0.0, 0.0, 0.0, 0.0, 0.0, 0.0, 1.710390691137548E9, 0.0, 2024-03-13 21:31:31.137
173.0, 359.47357389098033, 157.0421390393749, 155.8285415037535, 185.79822979867458, 0.0, 0.0, 0.0, 0.0, 0.0, 0.0, 0.0, 0.0, 1.710390691151194E9, 0.0, 2024-03-13 21:31:31.151
173.0, 332.93898370536044, 142.57620601076633, 144.36574813956395, 178.80835678149015, 0.0, 0.0, 0.0, 0.0, 0.0, 0.0, 0.0, 0.0, 1.710390691151194E9, 0.0, 2024-03-13 21:31:31.151
174.0, 334.4648628872819, 132.48595593031496, 121.1895881141536, 178.0454171905294, 0.0, 0.0, 0.0, 0.0, 0.0, 0.0, 0.0, 0.0, 1.7103906911671472E9, 0.0, 2024-03-13 21:31:31.167
174.0, 339.0051014334895, 144.52843378763646, 145.54755652556196, 176.98328560311347, 0.0, 0.0, 0.0, 0.0, 0.0, 0.0, 0.0, 0.0, 1.7103906911671472E9, 0.0, 2024-03-13 21:31:31.167
175.0, 331.581400021445, 130.70950345136225, 154.45225832005963, 174.03998433798552, 0.0, 0.0, 0.0, 0.0, 0.0, 0.0, 0.0, 0.0, 1.7103906911675203E9, 0.0, 2024-03-13 21:31:31.167
175.0, 315.03608261747286, 103.01928417943418, 106.24494789121673, 153.43313558213413, 0.0, 0.0, 0.0, 0.0, 0.0, 0.0, 0.0, 0.0, 1.7103906911675203E9, 0.0, 2024-03-13 21:31:31.167
176.0, 310.66039966931567, 98.67352043092251, 94.81955352658406, 143.72061539720744, 0.0, 0.0, 0.0, 0.0, 0.0, 0.0, 0.0, 0.0, 1.710390691181103E9, 0.0, 2024-03-13 21:31:31.181
176.0, 289.3429699218832, 93.03375129774213, 113.54149270476773, 135.68731029238552, 0.0, 0.0, 0.0, 0.0, 0.0, 0.0, 0.0, 0.0, 1.710390691181103E9, 0.0, 2024-03-13 21:31:31.181
177.0, 271.43258903408423, 84.1888879025355, 95.26086172135547, 128.11775278206915, 0.0, 0.0, 0.0, 0.0, 0.0, 0.0, 0.0, 0.0, 1.710390691196782E9, 0.0, 2024-03-13 21:31:31.196
177.0, 285.0121657731943, 81.06607143953443, 84.47499024914578, 128.36458617914468, 0.0, 0.0, 0.0, 0.0, 0.0, 0.0, 0.0, 0.0, 1.710390691196782E9, 0.0, 2024-03-13 21:31:31.196
178.0, 309.93111917795613, 92.38674860540777, 123.3736896882765, 138.8101267553866, 0.0, 0.0, 0.0, 0.0, 0.0, 0.0, 0.0, 0.0, 1.7103906911974752E9, 0.0, 2024-03-13 21:31:31.197
178.0, 299.81094989785925, 86.99007296934724, 115.53859928110614, 138.26036146190017, 0.0, 0.0, 0.0, 0.0, 0.0, 0.0, 0.0, 0.0, 1.7103906911974752E9, 0.0, 2024-03-13 21:31:31.197
179.0, 305.1178679349832, 97.64504794310778, 78.89131961530074, 138.6231317576021, 0.0, 0.0, 0.0, 0.0, 0.0, 0.0, 0.0, 0.0, 1.710390691211262E9, 0.0, 2024-03-13 21:31:31.211
179.0, 331.5851399214007, 120.36868007387966, 99.09425917593762, 145.78878007270396, 0.0, 0.0, 0.0, 0.0, 0.0, 0.0, 0.0, 0.0, 1.710390691211262E9, 0.0, 2024-03-13 21:31:31.211
180.0, 320.2794223553501, 118.20701789949089, 110.1830625445582, 148.39175044186413, 0.0, 0.0, 0.0, 0.0, 0.0, 0.0, 0.0, 0.0, 1.7103906912272325E9, 0.0, 2024-03-13 21:31:31.227
180.0, 316.77513609686866, 113.09831456001848, 89.71459008706734, 149.95128872338682, 0.0, 0.0, 0.0, 0.0, 0.0, 0.0, 0.0, 0.0, 1.7103906912272325E9, 0.0, 2024-03-13 21:31:31.227
181.0, 336.27871436579153, 137.41514407191426, 99.08677937602624, 156.91872234083712, 0.0, 0.0, 0.0, 0.0, 0.0, 0.0, 0.0, 0.0, 1.7103906912276213E9, 0.0, 2024-03-13 21:31:31.227
181.0, 337.8868713467382, 141.5851325225085, 126.95651384582743, 158.72135411947966, 0.0, 0.0, 0.0, 0.0, 0.0, 0.0, 0.0, 0.0, 1.7103906912276213E9, 0.0, 2024-03-13 21:31:31.227
182.0, 320.44771785335615, 142.2171756150201, 108.92645615944639, 153.2611001841724, 0.0, 0.0, 0.0, 0.0, 0.0, 0.0, 0.0, 0.0, 1.7103906912414453E9, 0.0, 2024-03-13 21:31:31.241
182.0, 342.8534584878944, 152.01571349892765, 110.45233534136787, 153.2199612846598, 0.0, 0.0, 0.0, 0.0, 0.0, 0.0, 0.0, 0.0, 1.7103906912414453E9, 0.0, 2024-03-13 21:31:31.241
183.0, 335.15674437908456, 148.5114272404462, 143.87956114532426, 145.46714867651463, 0.0, 0.0, 0.0, 0.0, 0.0, 0.0, 0.0, 0.0, 1.7103906912567563E9, 0.0, 2024-03-13 21:31:31.256
183.0, 326.44651738228276, 143.91135029494762, 155.71634450508282, 149.21078853216022, 0.0, 0.0, 0.0, 0.0, 0.0, 0.0, 0.0, 0.0, 1.7103906912567563E9, 0.0, 2024-03-13 21:31:31.256
184.0, 319.60250046337023, 148.04393974598497, 143.0829624547623, 150.4786146171391, 0.0, 0.0, 0.0, 0.0, 0.0, 0.0, 0.0, 0.0, 1.710390691257511E9, 0.0, 2024-03-13 21:31:31.257
184.0, 338.53387403907254, 154.19233527313918, 178.30908013740554, 153.34711788315326, 0.0, 0.0, 0.0, 0.0, 0.0, 0.0, 0.0, 0.0, 1.710390691257511E9, 0.0, 2024-03-13 21:31:31.257
185.0, 310.25275057414547, 139.00834145303816, 180.6988762090914, 135.83690629061311, 0.0, 0.0, 0.0, 0.0, 0.0, 0.0, 0.0, 0.0, 1.7103906912711325E9, 0.0, 2024-03-13 21:31:31.271
185.0, 285.1954208710231, 115.13656003586948, 139.54501709667966, 110.42802599165589, 0.0, 0.0, 0.0, 0.0, 0.0, 0.0, 0.0, 0.0, 1.7103906912711325E9, 0.0, 2024-03-13 21:31:31.271
186.0, 302.3503419677727, 119.91241227928549, 157.91914557898417, 111.6846323767677, 0.0, 0.0, 0.0, 0.0, 0.0, 0.0, 0.0, 0.0, 1.7103906912868059E9, 0.0, 2024-03-13 21:31:31.286
186.0, 291.8524427921511, 128.06913408264518, 189.74943410186097, 111.14982668310404, 0.0, 0.0, 0.0, 0.0, 0.0, 0.0, 0.0, 0.0, 1.7103906912868059E9, 0.0, 2024-03-13 21:31:31.286
187.0, 315.52600951166824, 154.71966116689146, 196.95248141651973, 138.71662925649434, 0.0, 0.0, 0.0, 0.0, 0.0, 0.0, 0.0, 0.0, 1.7103906912878788E9, 0.0, 2024-03-13 21:31:31.287
187.0, 352.7791529702954, 175.24423212371767, 209.03235827339813, 160.45666769891977, 0.0, 0.0, 0.0, 0.0, 0.0, 0.0, 0.0, 0.0, 1.7103906912878788E9, 0.0, 2024-03-13 21:31:31.287
188.0, 330.26121533708647, 171.115382572636, 208.13104238407686, 140.68007673323154, 0.0, 0.0, 0.0, 0.0, 0.0, 0.0, 0.0, 0.0, 1.710390691301102E9, 0.0, 2024-03-13 21:31:31.301
188.0, 293.4867790727876, 140.1452710395679, 170.81432062620297, 123.06514794193208, 0.0, 0.0, 0.0, 0.0, 0.0, 0.0, 0.0, 0.0, 1.710390691301102E9, 0.0, 2024-03-13 21:31:31.301
189.0, 292.9295339793898, 138.29776046145707, 143.2400382529013, 134.7635550033301, 0.0, 0.0, 0.0, 0.0, 0.0, 0.0, 0.0, 0.0, 1.7103906913168468E9, 0.0, 2024-03-13 21:31:31.316
189.0, 309.54964938247576, 166.95661382190883, 181.89938409486786, 157.77141953073442, 0.0, 0.0, 0.0, 0.0, 0.0, 0.0, 0.0, 0.0, 1.7103906913168468E9, 0.0, 2024-03-13 21:31:31.316
190.0, 317.40717918938026, 161.77311248332262, 223.13926090626046, 183.89462072122842, 0.0, 0.0, 0.0, 0.0, 0.0, 0.0, 0.0, 0.0, 1.7103906913176274E9, 0.0, 2024-03-13 21:31:31.317
190.0, 307.4253862076439, 141.3233395256102, 187.48679462866858, 174.70194663014263, 0.0, 0.0, 0.0, 0.0, 0.0, 0.0, 0.0, 0.0, 1.7103906913176274E9, 0.0, 2024-03-13 21:31:31.317
191.0, 313.25963013852015, 146.5853787632659, 186.17408974422142, 170.86480927560478, 0.0, 0.0, 0.0, 0.0, 0.0, 0.0, 0.0, 0.0, 1.710390691331112E9, 0.0, 2024-03-13 21:31:31.331
191.0, 301.9314731727354, 146.06179276946932, 196.49247372196987, 168.32167730573565, 0.0, 0.0, 0.0, 0.0, 0.0, 0.0, 0.0, 0.0, 1.710390691331112E9, 0.0, 2024-03-13 21:31:31.331
192.0, 292.05813728971407, 123.30450153909624, 171.14343182230368, 164.5929970499128, 0.0, 0.0, 0.0, 0.0, 0.0, 0.0, 0.0, 0.0, 1.710390691346878E9, 0.0, 2024-03-13 21:31:31.346
192.0, 311.9880641535856, 131.11341264657676, 154.91600591456518, 162.62206977326423, 0.0, 0.0, 0.0, 0.0, 0.0, 0.0, 0.0, 0.0, 1.710390691346878E9, 0.0, 2024-03-13 21:31:31.346
193.0, 305.1290876348503, 137.6582375690341, 174.8010539789684, 160.924155193381, 0.0, 0.0, 0.0, 0.0, 0.0, 0.0, 0.0, 0.0, 1.710390691347588E9, 0.0, 2024-03-13 21:31:31.347
193.0, 305.03185023600236, 132.31018063239753, 171.77547491481528, 166.01789893303066, 0.0, 0.0, 0.0, 0.0, 0.0, 0.0, 0.0, 0.0, 1.710390691347588E9, 0.0, 2024-03-13 21:31:31.347
194.0, 316.0121965059079, 139.3262329492718, 145.11372813070193, 170.17292778380215, 0.0, 0.0, 0.0, 0.0, 0.0, 0.0, 0.0, 0.0, 1.7103906913612893E9, 0.0, 2024-03-13 21:31:31.361
194.0, 308.4164596959017, 144.027287193574, 154.74023061664775, 164.20778735447675, 0.0, 0.0, 0.0, 0.0, 0.0, 0.0, 0.0, 0.0, 1.7103906913612893E9, 0.0, 2024-03-13 21:31:31.361
195.0, 304.0071176481433, 133.72386281564832, 149.8634010744281, 155.34422445949167, 0.0, 0.0, 0.0, 0.0, 0.0, 0.0, 0.0, 0.0, 1.71039069137728E9, 0.0, 2024-03-13 21:31:31.377
195.0, 285.715266964864, 106.76292403507978, 96.1359983109869, 151.69034220278263, 0.0, 0.0, 0.0, 0.0, 0.0, 0.0, 0.0, 0.0, 1.71039069137728E9, 0.0, 2024-03-13 21:31:31.377
196.0, 320.4327582535334, 127.49318948946893, 124.05435148021206, 176.84116940479726, 0.0, 0.0, 0.0, 0.0, 0.0, 0.0, 0.0, 0.0, 1.7103906913777227E9, 0.0, 2024-03-13 21:31:31.377
196.0, 313.4728044359945, 130.06998055893928, 153.36394743295386, 169.46608669217676, 0.0, 0.0, 0.0, 0.0, 0.0, 0.0, 0.0, 0.0, 1.7103906913777227E9, 0.0, 2024-03-13 21:31:31.377
197.0, 302.84774866187945, 125.30908791534603, 120.59120412124321, 166.54148492682725, 0.0, 0.0, 0.0, 0.0, 0.0, 0.0, 0.0, 0.0, 1.7103906913912878E9, 0.0, 2024-03-13 21:31:31.391
197.0, 312.0965212523006, 132.60937262885273, 93.17773744603619, 173.3032240467146, 0.0, 0.0, 0.0, 0.0, 0.0, 0.0, 0.0, 0.0, 1.7103906913912878E9, 0.0, 2024-03-13 21:31:31.391
198.0, 330.5417078337632, 149.551119428128, 133.13856847258285, 191.99898392520845, 0.0, 0.0, 0.0, 0.0, 0.0, 0.0, 0.0, 0.0, 1.7103906914068515E9, 0.0, 2024-03-13 21:31:31.406
198.0, 303.10580175882205, 127.21269699279219, 105.10053850477561, 179.46283927373588, 0.0, 0.0, 0.0, 0.0, 0.0, 0.0, 0.0, 0.0, 1.7103906914068515E9, 0.0, 2024-03-13 21:31:31.406
199.0, 312.212458150927, 128.44686397816986, 66.72168515948579, 175.58830291964114, 0.0, 0.0, 0.0, 0.0, 0.0, 0.0, 0.0, 0.0, 1.7103906914075885E9, 0.0, 2024-03-13 21:31:31.407
199.0, 345.8528582523577, 134.59151960536838, 90.43639077851549, 183.47575192619115, 0.0, 0.0, 0.0, 0.0, 0.0, 0.0, 0.0, 0.0, 1.7103906914075885E9, 0.0, 2024-03-13 21:31:31.407
200.0, 336.0356208686717, 124.49752962496132, 90.75428227474913, 175.86879541631788, 0.0, 0.0, 0.0, 0.0, 0.0, 0.0, 0.0, 0.0, 1.7103906914218378E9, 0.0, 2024-03-13 21:31:31.421
200.0, 333.6308651971631, 113.8687339508906, 60.15816073725, 172.4168677572161, 0.0, 0.0, 0.0, 0.0, 0.0, 0.0, 0.0, 0.0, 1.7103906914218378E9, 0.0, 2024-03-13 21:31:31.421
0.0, 354.8248782460578, 130.6365754022263, 61.18850317504257, 176.771981255617, 0.0, 0.0, 0.0, 0.0, 0.0, 0.0, 0.0, 0.0, 1.7103906914225879E9, 0.0, 2024-03-13 21:31:31.422
101.0, 356.57889132527635, 146.48627141444013, 90.55045772716403, 183.66835677390918, 0.0, 0.0, 0.0, 0.0, 0.0, 0.0, 0.0, 0.0, 1.7103906914361105E9, 0.0, 2024-03-13 21:31:31.436
101.0, 325.30958779575303, 138.94663310376927, 59.62896489351988, 174.24380888557062, 0.0, 0.0, 0.0, 0.0, 0.0, 0.0, 0.0, 0.0, 1.7103906914361105E9, 0.0, 2024-03-13 21:31:31.436
102.0, 340.19812951935455, 142.55937646096572, 47.332173839211464, 174.13161188689992, 0.0, 0.0, 0.0, 0.0, 0.0, 0.0, 0.0, 0.0, 1.7103906914518187E9, 0.0, 2024-03-13 21:31:31.451
102.0, 351.94889518013224, 162.8333741207607, 91.64998831413686, 188.57136561581865, 0.0, 0.0, 0.0, 0.0, 0.0, 0.0, 0.0, 0.0, 1.7103906914518187E9, 0.0, 2024-03-13 21:31:31.451
103.0, 324.3671330069192, 127.56611753860489, 79.08766436297446, 172.22426290949807, 0.0, 0.0, 0.0, 0.0, 0.0, 0.0, 0.0, 0.0, 1.7103906914525533E9, 0.0, 2024-03-13 21:31:31.452
103.0, 329.7376293432899, 142.30132336402312, 47.11151974182576, 166.21424368070439, 0.0, 0.0, 0.0, 0.0, 0.0, 0.0, 0.0, 0.0, 1.7103906914525533E9, 0.0, 2024-03-13 21:31:31.452
104.0, 334.801453883294, 150.36454766849056, 81.67567513231188, 173.11061919899657, 0.0, 0.0, 0.0, 0.0, 0.0, 0.0, 0.0, 0.0, 1.710390691466141E9, 0.0, 2024-03-13 21:31:31.466
104.0, 327.77792176650837, 140.83154268143699, 86.27575207781047, 169.15006514592096, 0.0, 0.0, 0.0, 0.0, 0.0, 0.0, 0.0, 0.0, 1.710390691466141E9, 0.0, 2024-03-13 21:31:31.466
105.0, 315.275436214637, 126.18235455499962, 64.83490563184023, 167.89345876080915, 0.0, 0.0, 0.0, 0.0, 0.0, 0.0, 0.0, 0.0, 1.7103906914820056E9, 0.0, 2024-03-13 21:31:31.482
105.0, 333.90013799397275, 148.09442839538679, 73.42171593010426, 174.0642936876975, 0.0, 0.0, 0.0, 0.0, 0.0, 0.0, 0.0, 0.0, 1.7103906914820056E9, 0.0, 2024-03-13 21:31:31.482
106.0, 328.9260710529052, 148.8685876862146, 93.55733729153872, 172.19434370985255, 0.0, 0.0, 0.0, 0.0, 0.0, 0.0, 0.0, 0.0, 1.7103906914827943E9, 0.0, 2024-03-13 21:31:31.482
106.0, 303.5620695534162, 126.02153885690495, 66.60761821083724, 163.29712171526626, 0.0, 0.0, 0.0, 0.0, 0.0, 0.0, 0.0, 0.0, 1.7103906914827943E9, 0.0, 2024-03-13 21:31:31.482
107.0, 322.1007536337711, 137.3833549222909, 56.577206529676914, 165.9823698834516, 0.0, 0.0, 0.0, 0.0, 0.0, 0.0, 0.0, 0.0, 1.7103906914962816E9, 0.0, 2024-03-13 21:31:31.496
107.0, 335.52325457474217, 155.97439760202542, 89.5219852393493, 176.6560443569906, 0.0, 0.0, 0.0, 0.0, 0.0, 0.0, 0.0, 0.0, 1.7103906914962816E9, 0.0, 2024-03-13 21:31:31.496
108.0, 320.41779865371063, 141.73285857075825, 78.41448237095028, 174.85341257834807, 0.0, 0.0, 0.0, 0.0, 0.0, 0.0, 0.0, 0.0, 1.7103906915118217E9, 0.0, 2024-03-13 21:31:31.511
108.0, 328.55582095729187, 144.6051017367281, 39.291388934478164, 175.56773346988484, 0.0, 0.0, 0.0, 0.0, 0.0, 0.0, 0.0, 0.0, 1.7103906915118217E9, 0.0, 2024-03-13 21:31:31.511
109.0, 322.5832007280551, 148.48337799077854, 60.07027308829129, 171.14717172225937, 0.0, 0.0, 0.0, 0.0, 0.0, 0.0, 0.0, 0.0, 1.7103906915125396E9, 0.0, 2024-03-13 21:31:31.512
109.0, 328.64183865627274, 137.63392821932212, 59.49806839507073, 166.62189277587458, 0.0, 0.0, 0.0, 0.0, 0.0, 0.0, 0.0, 0.0, 1.7103906915125396E9, 0.0, 2024-03-13 21:31:31.512
110.0, 305.73121152771637, 129.57070391485468, 45.89605225622654, 167.5755672645755, 0.0, 0.0, 0.0, 0.0, 0.0, 0.0, 0.0, 0.0, 1.7103906915266635E9, 0.0, 2024-03-13 21:31:31.526
110.0, 327.11595947435126, 155.6078874063678, 48.861792921088636, 170.04764113528654, 0.0, 0.0, 0.0, 0.0, 0.0, 0.0, 0.0, 0.0, 1.7103906915266635E9, 0.0, 2024-03-13 21:31:31.526
111.0, 328.93729075277224, 158.1323198764585, 79.69726805575192, 179.64048452163115, 0.0, 0.0, 0.0, 0.0, 0.0, 0.0, 0.0, 0.0, 1.7103906915424967E9, 0.0, 2024-03-13 21:31:31.542
111.0, 309.8413615790196, 139.14110790146515, 55.92272403743118, 174.77861457923427, 0.0, 0.0, 0.0, 0.0, 0.0, 0.0, 0.0, 0.0, 1.7103906915424967E9, 0.0, 2024-03-13 21:31:31.542
112.0, 326.0239086872898, 149.46697167912498, 58.22276251018047, 184.39389736531302, 0.0, 0.0, 0.0, 0.0, 0.0, 0.0, 0.0, 0.0, 1.7103906915432768E9, 0.0, 2024-03-13 21:31:31.543
112.0, 325.8369136895053, 150.40568656800315, 83.2987917130813, 183.52250067563727, 0.0, 0.0, 0.0, 0.0, 0.0, 0.0, 0.0, 0.0, 1.7103906915432768E9, 0.0, 2024-03-13 21:31:31.543
113.0, 311.28870286187157, 140.90634068055078, 71.85843774862587, 167.08938027033582, 0.0, 0.0, 0.0, 0.0, 0.0, 0.0, 0.0, 0.0, 1.7103906915562563E9, 0.0, 2024-03-13 21:31:31.556
113.0, 315.38015341339633, 136.4147208337672, 47.96047703176737, 167.5082490653731, 0.0, 0.0, 0.0, 0.0, 0.0, 0.0, 0.0, 0.0, 1.7103906915562563E9, 0.0, 2024-03-13 21:31:31.556
114.0, 321.70806413842365, 149.62404747726396, 74.05375902261585, 167.48954956559464, 0.0, 0.0, 0.0, 0.0, 0.0, 0.0, 0.0, 0.0, 1.710390691571858E9, 0.0, 2024-03-13 21:31:31.571
114.0, 313.29702913807705, 147.92239299742505, 89.27141194231808, 169.00794894760475, 0.0, 0.0, 0.0, 0.0, 0.0, 0.0, 0.0, 0.0, 1.710390691571858E9, 0.0, 2024-03-13 21:31:31.571
115.0, 307.7283181040548, 132.72343957750127, 62.44136966019869, 162.63141952315345, 0.0, 0.0, 0.0, 0.0, 0.0, 0.0, 0.0, 0.0, 1.7103906915726404E9, 0.0, 2024-03-13 21:31:31.572
115.0, 310.6491799694486, 145.80186972254887, 68.93757588323206, 165.024955494795, 0.0, 0.0, 0.0, 0.0, 0.0, 0.0, 0.0, 0.0, 1.7103906915726404E9, 0.0, 2024-03-13 21:31:31.572
116.0, 306.99155781278387, 146.32545571634546, 94.84760277625173, 157.7620697808452, 0.0, 0.0, 0.0, 0.0, 0.0, 0.0, 0.0, 0.0, 1.710390691586203E9, 0.0, 2024-03-13 21:31:31.586
116.0, 290.68933390593156, 134.2642783592455, 77.95821457635611, 155.6826854054816, 0.0, 0.0, 0.0, 0.0, 0.0, 0.0, 0.0, 0.0, 1.710390691586203E9, 0.0, 2024-03-13 21:31:31.586
117.0, 301.32186947995797, 123.16425529075786, 54.75961515121162, 154.26152342231944, 0.0, 0.0, 0.0, 0.0, 0.0, 0.0, 0.0, 0.0, 1.7103906916018016E9, 0.0, 2024-03-13 21:31:31.601
117.0, 304.3586682439782, 144.24607134098187, 103.93181976862252, 158.6858250699006, 0.0, 0.0, 0.0, 0.0, 0.0, 0.0, 0.0, 0.0, 1.7103906916018016E9, 0.0, 2024-03-13 21:31:31.601
118.0, 291.7140664937906, 133.05629067355767, 89.5593842389062, 153.60330103011802, 0.0, 0.0, 0.0, 0.0, 0.0, 0.0, 0.0, 0.0, 1.7103906916025517E9, 0.0, 2024-03-13 21:31:31.602
118.0, 302.0922888708301, 134.4849324566312, 61.5475335707888, 154.65795281762257, 0.0, 0.0, 0.0, 0.0, 0.0, 0.0, 0.0, 0.0, 1.7103906916025517E9, 0.0, 2024-03-13 21:31:31.602
119.0, 321.47993024112657, 156.59896089462563, 97.39073474612087, 168.96307014813647, 0.0, 0.0, 0.0, 0.0, 0.0, 0.0, 0.0, 0.0, 1.710390691632516E9, 0.0, 2024-03-13 21:31:31.632
119.0, 308.1546666990034, 150.51040376676247, 100.97729880362749, 166.1020466820337, 0.0, 0.0, 0.0, 0.0, 0.0, 0.0, 0.0, 0.0, 1.710390691632516E9, 0.0, 2024-03-13 21:31:31.632
120.0, 299.47061900189146, 138.42304710997269, 70.42605606559664, 160.54829524783418, 0.0, 0.0, 0.0, 0.0, 0.0, 0.0, 0.0, 0.0, 1.7103906916335242E9, 0.0, 2024-03-13 21:31:31.633
120.0, 319.0489952699281, 155.4994303076528, 78.84831076581031, 162.11905322922394, 0.0, 0.0, 0.0, 0.0, 0.0, 0.0, 0.0, 0.0, 1.7103906916335242E9, 0.0, 2024-03-13 21:31:31.633
121.0, 312.2049783510156, 143.8982606451027, 99.77679091785103, 162.7585761216469, 0.0, 0.0, 0.0, 0.0, 0.0, 0.0, 0.0, 0.0, 1.7103906916340497E9, 0.0, 2024-03-13 21:31:31.634
121.0, 303.73784485133365, 139.0064715030603, 82.76024611946195, 159.29916866263375, 0.0, 0.0, 0.0, 0.0, 0.0, 0.0, 0.0, 0.0, 1.7103906916340497E9, 0.0, 2024-03-13 21:31:31.634
122.0, 316.8461941960268, 147.00237760832533, 69.99970747064799, 160.91854534344748, 0.0, 0.0, 0.0, 0.0, 0.0, 0.0, 0.0, 0.0, 1.7103906916463792E9, 0.0, 2024-03-13 21:31:31.646
122.0, 323.4321580179967, 147.54466310190037, 99.96004601567984, 166.55083467671648, 0.0, 0.0, 0.0, 0.0, 0.0, 0.0, 0.0, 0.0, 1.7103906916463792E9, 0.0, 2024-03-13 21:31:31.646
123.0, 306.8045628149994, 142.6005153604783, 82.38625612389296, 159.51234296010807, 0.0, 0.0, 0.0, 0.0, 0.0, 0.0, 0.0, 0.0, 1.710390691662238E9, 0.0, 2024-03-13 21:31:31.662
123.0, 317.51937618805096, 145.46901862649247, 68.24195449147373, 167.34743336727843, 0.0, 0.0, 0.0, 0.0, 0.0, 0.0, 0.0, 0.0, 1.710390691662238E9, 0.0, 2024-03-13 21:31:31.662
124.0, 332.1012461152859, 151.0564291602932, 88.23919955454767, 173.3611924960278, 0.0, 0.0, 0.0, 0.0, 0.0, 0.0, 0.0, 0.0, 1.710390691662701E9, 0.0, 2024-03-13 21:31:31.662
124.0, 323.3162211193703, 148.51329719042405, 99.01759122684598, 174.09421288734302, 0.0, 0.0, 0.0, 0.0, 0.0, 0.0, 0.0, 0.0, 1.710390691662701E9, 0.0, 2024-03-13 21:31:31.662
125.0, 310.4621849716641, 144.02541724359617, 69.28164667915553, 168.83217364968732, 0.0, 0.0, 0.0, 0.0, 0.0, 0.0, 0.0, 0.0, 1.7103906916765242E9, 0.0, 2024-03-13 21:31:31.676
125.0, 329.34119994798675, 152.51125024305657, 75.50858010537922, 166.18806438101456, 0.0, 0.0, 0.0, 0.0, 0.0, 0.0, 0.0, 0.0, 1.7103906916765242E9, 0.0, 2024-03-13 21:31:31.676
126.0, 321.8763596364297, 147.28661000495777, 92.92155429907143, 168.11411285819486, 0.0, 0.0, 0.0, 0.0, 0.0, 0.0, 0.0, 0.0, 1.710390691692202E9, 0.0, 2024-03-13 21:31:31.692
126.0, 328.8737124535255, 148.5693956897594, 79.2970987604931, 171.56230061734095, 0.0, 0.0, 0.0, 0.0, 0.0, 0.0, 0.0, 0.0, 1.710390691692202E9, 0.0, 2024-03-13 21:31:31.692
127.0, 340.8152130120434, 151.70343185262755, 60.48166208341718, 168.9555903482251, 0.0, 0.0, 0.0, 0.0, 0.0, 0.0, 0.0, 0.0, 1.7103906916928134E9, 0.0, 2024-03-13 21:31:31.692
127.0, 334.59949928568676, 148.9433856853284, 89.63044233806431, 173.18915709806606, 0.0, 0.0, 0.0, 0.0, 0.0, 0.0, 0.0, 0.0, 1.7103906916928134E9, 0.0, 2024-03-13 21:31:31.692
128.0, 326.9888028758578, 154.24656382249668, 88.02228535711765, 179.08697932818905, 0.0, 0.0, 0.0, 0.0, 0.0, 0.0, 0.0, 0.0, 1.7103906917225616E9, 0.0, 2024-03-13 21:31:31.722
128.0, 336.3722118646838, 153.0946746361442, 57.84877251461148, 175.53781427023932, 0.0, 0.0, 0.0, 0.0, 0.0, 0.0, 0.0, 0.0, 1.7103906917225616E9, 0.0, 2024-03-13 21:31:31.722
129.0, 342.23637499520555, 156.6812386936508, 91.13014222029597, 177.51622134679928, 0.0, 0.0, 0.0, 0.0, 0.0, 0.0, 0.0, 0.0, 1.7103906917232387E9, 0.0, 2024-03-13 21:31:31.723
129.0, 326.2109036850743, 149.2724968814291, 99.32800292316824, 171.1022929227911, 0.0, 0.0, 0.0, 0.0, 0.0, 0.0, 0.0, 0.0, 1.7103906917232387E9, 0.0, 2024-03-13 21:31:31.723
130.0, 327.82280056597665, 142.30132336402312, 75.02239311113954, 169.00046914769337, 0.0, 0.0, 0.0, 0.0, 0.0, 0.0, 0.0, 0.0, 1.7103906917240188E9, 0.0, 2024-03-13 21:31:31.724
130.0, 344.45413566892967, 154.78136951616034, 94.10710258502513, 175.07406667573377, 0.0, 0.0, 0.0, 0.0, 0.0, 0.0, 0.0, 0.0, 1.7103906917240188E9, 0.0, 2024-03-13 21:31:31.724
131.0, 334.5546204862185, 152.58230834221467, 108.77873011119664, 168.74989585066214, 0.0, 0.0, 0.0, 0.0, 0.0, 0.0, 0.0, 0.0, 1.7103906917361052E9, 0.0, 2024-03-13 21:31:31.736
131.0, 328.3276870599948, 143.35223525157198, 93.18708719592541, 171.89515171339735, 0.0, 0.0, 0.0, 0.0, 0.0, 0.0, 0.0, 0.0, 1.7103906917361052E9, 0.0, 2024-03-13 21:31:31.736
132.0, 327.7255631671287, 136.23894553584978, 68.80293948482722, 156.71115789329633, 0.0, 0.0, 0.0, 0.0, 0.0, 0.0, 0.0, 0.0, 1.7103906917519524E9, 0.0, 2024-03-13 21:31:31.751
132.0, 325.575120692607, 125.74104636022821, 93.74433228932321, 152.69824524084106, 0.0, 0.0, 0.0, 0.0, 0.0, 0.0, 0.0, 0.0, 1.7103906917519524E9, 0.0, 2024-03-13 21:31:31.751
133.0, 306.25479752151296, 130.44210060453042, 83.19407451432198, 156.1987915993668, 0.0, 0.0, 0.0, 0.0, 0.0, 0.0, 0.0, 0.0, 1.7103906917527092E9, 0.0, 2024-03-13 21:31:31.752
133.0, 325.9603303880431, 125.55031146248803, 53.753582063131034, 147.28287010500208, 0.0, 0.0, 0.0, 0.0, 0.0, 0.0, 0.0, 0.0, 1.7103906917527092E9, 0.0, 2024-03-13 21:31:31.752
134.0, 325.7247166908346, 135.03843765007332, 76.97836078796536, 146.5274103139527, 0.0, 0.0, 0.0, 0.0, 0.0, 0.0, 0.0, 0.0, 1.7103906917825165E9, 0.0, 2024-03-13 21:31:31.782
134.0, 318.11776018096134, 122.83888399461284, 83.25391291361302, 141.65806057164446, 0.0, 0.0, 0.0, 0.0, 0.0, 0.0, 0.0, 0.0, 1.7103906917825165E9, 0.0, 2024-03-13 21:31:31.782
135.0, 320.8703265483491, 114.63728339178488, 65.54548662342131, 148.50955729046836, 0.0, 0.0, 0.0, 0.0, 0.0, 0.0, 0.0, 0.0, 1.7103906917832007E9, 0.0, 2024-03-13 21:31:31.783
135.0, 331.26350852521136, 126.38430915260687, 71.60412455163896, 146.4974911143072, 0.0, 0.0, 0.0, 0.0, 0.0, 0.0, 0.0, 0.0, 1.7103906917832007E9, 0.0, 2024-03-13 21:31:31.783
136.0, 329.52445504581556, 136.83358962880448, 108.36360121611506, 159.5385222597979, 0.0, 0.0, 0.0, 0.0, 0.0, 0.0, 0.0, 0.0, 1.7103906917840252E9, 0.0, 2024-03-13 21:31:31.784
136.0, 316.6778986980207, 124.49565967498347, 79.39807605929673, 145.76073082303628, 0.0, 0.0, 0.0, 0.0, 0.0, 0.0, 0.0, 0.0, 1.7103906917840252E9, 0.0, 2024-03-13 21:31:31.784
137.0, 325.5489413929172, 133.73695246549323, 68.60472478717566, 150.85821446264163, 0.0, 0.0, 0.0, 0.0, 0.0, 0.0, 0.0, 0.0, 1.7103906917961428E9, 0.0, 2024-03-13 21:31:31.796
137.0, 323.2750822198577, 128.23555963067338, 101.34006909932941, 153.44996513193473, 0.0, 0.0, 0.0, 0.0, 0.0, 0.0, 0.0, 0.0, 1.7103906917961428E9, 0.0, 2024-03-13 21:31:31.796
138.0, 308.6408536932431, 125.39697556430474, 105.20712565351278, 159.18697166396305, 0.0, 0.0, 0.0, 0.0, 0.0, 0.0, 0.0, 0.0, 1.7103906918118515E9, 0.0, 2024-03-13 21:31:31.811
138.0, 317.07058819336817, 130.39348190510646, 76.09948429837823, 163.16248531686142, 0.0, 0.0, 0.0, 0.0, 0.0, 0.0, 0.0, 0.0, 1.7103906918118515E9, 0.0, 2024-03-13 21:31:31.811
139.0, 334.64437808515504, 133.69955346593633, 103.96921876817942, 165.57098088832572, 0.0, 0.0, 0.0, 0.0, 0.0, 0.0, 0.0, 0.0, 1.7103906918125572E9, 0.0, 2024-03-13 21:31:31.812
139.0, 332.7295493078418, 140.25559808826074, 115.2375373346731, 171.62961881654337, 0.0, 0.0, 0.0, 0.0, 0.0, 0.0, 0.0, 0.0, 1.7103906918125572E9, 0.0, 2024-03-13 21:31:31.812
140.0, 327.1421387740411, 135.47226604493335, 83.20529421418905, 165.33536719111726, 0.0, 0.0, 0.0, 0.0, 0.0, 0.0, 0.0, 0.0, 1.7103906918262582E9, 0.0, 2024-03-13 21:31:31.826
140.0, 350.8867635927163, 155.6527662058361, 95.57314336765558, 167.6952440631576, 0.0, 0.0, 0.0, 0.0, 0.0, 0.0, 0.0, 0.0, 1.7103906918262582E9, 0.0, 2024-03-13 21:31:31.826
141.0, 325.7995146899484, 140.0461636907421, 114.24646384641528, 160.28650225093588, 0.0, 0.0, 0.0, 0.0, 0.0, 0.0, 0.0, 0.0, 1.7103906918582613E9, 0.0, 2024-03-13 21:31:31.858
141.0, 307.22343161003664, 131.71740648942068, 85.84566358290613, 159.78161575691774, 0.0, 0.0, 0.0, 0.0, 0.0, 0.0, 0.0, 0.0, 1.7103906918582613E9, 0.0, 2024-03-13 21:31:31.858
142.0, 329.63665204448625, 140.80536338174716, 64.19912263937294, 160.37999974982813, 0.0, 0.0, 0.0, 0.0, 0.0, 0.0, 0.0, 0.0, 1.7103906918591754E9, 0.0, 2024-03-13 21:31:31.859
142.0, 332.74450890766457, 141.8674949691631, 91.38445541728288, 161.76750263338909, 0.0, 0.0, 0.0, 0.0, 0.0, 0.0, 0.0, 0.0, 1.7103906918591754E9, 0.0, 2024-03-13 21:31:31.859
143.0, 324.2736355080269, 144.5677027371712, 99.49629842117429, 166.55457457667217, 0.0, 0.0, 0.0, 0.0, 0.0, 0.0, 0.0, 0.0, 1.7103906918600566E9, 0.0, 2024-03-13 21:31:31.860
143.0, 339.5436470271088, 155.36853380920365, 81.91876862943172, 174.89455147786066, 0.0, 0.0, 0.0, 0.0, 0.0, 0.0, 0.0, 0.0, 1.7103906918600566E9, 0.0, 2024-03-13 21:31:31.860
144.0, 350.6361902956851, 150.44308556756005, 103.21375897713006, 178.2118427385576, 0.0, 0.0, 0.0, 0.0, 0.0, 0.0, 0.0, 0.0, 1.7103906918606145E9, 0.0, 2024-03-13 21:31:31.860
144.0, 339.7755208243616, 153.760376828257, 119.34020758606493, 180.1827700152062, 0.0, 0.0, 0.0, 0.0, 0.0, 0.0, 0.0, 0.0, 1.7103906918606145E9, 0.0, 2024-03-13 21:31:31.860
145.0, 327.00376247568056, 154.04460922488943, 103.32221607584506, 184.90252375928685, 0.0, 0.0, 0.0, 0.0, 0.0, 0.0, 0.0, 0.0, 1.7103906918711238E9, 0.0, 2024-03-13 21:31:31.871
145.0, 341.90352389914915, 158.58484777109697, 106.7180452356115, 186.34986504213884, 0.0, 0.0, 0.0, 0.0, 0.0, 0.0, 0.0, 0.0, 1.7103906918711238E9, 0.0, 2024-03-13 21:31:31.871
146.0, 334.15819109091535, 156.58774119475856, 122.99782974272966, 181.67125019757077, 0.0, 0.0, 0.0, 0.0, 0.0, 0.0, 0.0, 0.0, 1.7103906918861115E9, 0.0, 2024-03-13 21:31:31.886
146.0, 330.11535923881456, 136.36610213434324, 98.44912643358111, 174.41584428353235, 0.0, 0.0, 0.0, 0.0, 0.0, 0.0, 0.0, 0.0, 1.7103906918861115E9, 0.0, 2024-03-13 21:31:31.886
147.0, 338.4665558398701, 148.44223909126595, 92.15113490819931, 179.70780272083357, 0.0, 0.0, 0.0, 0.0, 0.0, 0.0, 0.0, 0.0, 1.710390691902028E9, 0.0, 2024-03-13 21:31:31.902
147.0, 336.89953775843605, 140.98487857962027, 112.1670794710517, 169.18372424552217, 0.0, 0.0, 0.0, 0.0, 0.0, 0.0, 0.0, 0.0, 1.710390691902028E9, 0.0, 2024-03-13 21:31:31.902
148.0, 323.0693877222948, 147.2379913055338, 106.1234011426568, 168.34972655540332, 0.0, 0.0, 0.0, 0.0, 0.0, 0.0, 0.0, 0.0, 1.7103906919026089E9, 0.0, 2024-03-13 21:31:31.902
148.0, 321.41635194187984, 143.74118484696373, 75.83021150156856, 167.01084237126634, 0.0, 0.0, 0.0, 0.0, 0.0, 0.0, 0.0, 0.0, 1.7103906919026089E9, 0.0, 2024-03-13 21:31:31.902
149.0, 331.7609152193181, 146.51993051404133, 95.54322416801006, 168.26744875637814, 0.0, 0.0, 0.0, 0.0, 0.0, 0.0, 0.0, 0.0, 1.7103906919161608E9, 0.0, 2024-03-13 21:31:31.916
149.0, 310.08071517618373, 135.68170044245198, 109.23125800583512, 170.657244828064, 0.0, 0.0, 0.0, 0.0, 0.0, 0.0, 0.0, 0.0, 1.7103906919161608E9, 0.0, 2024-03-13 21:31:31.916
150.0, 316.34878750192, 125.97292015748098, 86.15607527922839, 169.3632394433953, 0.0, 0.0, 0.0, 0.0, 0.0, 0.0, 0.0, 0.0, 1.7103906919318736E9, 0.0, 2024-03-13 21:31:31.931
150.0, 338.4815154396929, 150.865694262553, 95.8611156642437, 174.1353517868556, 0.0, 0.0, 0.0, 0.0, 0.0, 0.0, 0.0, 0.0, 1.7103906919318736E9, 0.0, 2024-03-13 21:31:31.931
151.0, 334.56584018608555, 150.99285086104646, 116.10145422443748, 171.70441681565717, 0.0, 0.0, 0.0, 0.0, 0.0, 0.0, 0.0, 0.0, 1.7103906919325771E9, 0.0, 2024-03-13 21:31:31.932
151.0, 312.8370214435272, 134.9748593508266, 96.33234305866063, 167.04076157091185, 0.0, 0.0, 0.0, 0.0, 0.0, 0.0, 0.0, 0.0, 1.7103906919325771E9, 0.0, 2024-03-13 21:31:31.932
152.0, 323.1329660215415, 143.7486646468751, 76.51461319345981, 163.25598281575367, 0.0, 0.0, 0.0, 0.0, 0.0, 0.0, 0.0, 0.0, 1.7103906919464312E9, 0.0, 2024-03-13 21:31:31.946
152.0, 323.9968829113059, 149.11542108329013, 109.36963430419564, 167.2427161685191, 0.0, 0.0, 0.0, 0.0, 0.0, 0.0, 0.0, 0.0, 1.7103906919464312E9, 0.0, 2024-03-13 21:31:31.946
153.0, 312.6014077463187, 140.65202748356387, 105.73445154726505, 171.3266869201325, 0.0, 0.0, 0.0, 0.0, 0.0, 0.0, 0.0, 0.0, 1.7103906919621584E9, 0.0, 2024-03-13 21:31:31.962
153.0, 321.70806413842365, 134.53729105601087, 82.35259702429175, 174.61405898118392, 0.0, 0.0, 0.0, 0.0, 0.0, 0.0, 0.0, 0.0, 1.7103906919621584E9, 0.0, 2024-03-13 21:31:31.962
154.0, 348.695182218682, 148.6479335888289, 112.27179666981101, 186.49946104036644, 0.0, 0.0, 0.0, 0.0, 0.0, 0.0, 0.0, 0.0, 1.7103906919625816E9, 0.0, 2024-03-13 21:31:31.962
154.0, 330.1377986385487, 151.92782584996894, 122.91929184366018, 182.49028828786686, 0.0, 0.0, 0.0, 0.0, 0.0, 0.0, 0.0, 0.0, 1.7103906919625816E9, 0.0, 2024-03-13 21:31:31.962
155.0, 321.981076835189, 141.88245456898585, 88.99091944564134, 168.4357442543842, 0.0, 0.0, 0.0, 0.0, 0.0, 0.0, 0.0, 0.0, 1.7103906919764242E9, 0.0, 2024-03-13 21:31:31.976
155.0, 339.4426697283052, 153.78655612794682, 99.11108872573823, 170.48520943010226, 0.0, 0.0, 0.0, 0.0, 0.0, 0.0, 0.0, 0.0, 1.7103906919764242E9, 0.0, 2024-03-13 21:31:31.976
156.0, 330.93065742915496, 145.7943899226375, 122.48546344880015, 172.5795534052886, 0.0, 0.0, 0.0, 0.0, 0.0, 0.0, 0.0, 0.0, 1.7103906919921658E9, 0.0, 2024-03-13 21:31:31.992
156.0, 316.33756780205294, 136.0856096376665, 107.96343192085624, 172.5795534052886, 0.0, 0.0, 0.0, 0.0, 0.0, 0.0, 0.0, 0.0, 1.7103906919921658E9, 0.0, 2024-03-13 21:31:31.992
157.0, 330.3621926358901, 142.6753133595921, 84.39832230005413, 164.31063460325822, 0.0, 0.0, 0.0, 0.0, 0.0, 0.0, 0.0, 0.0, 1.7103906919926565E9, 0.0, 2024-03-13 21:31:31.992
157.0, 339.01632113335654, 153.6893187290989, 131.7342360392213, 181.00554800545797, 0.0, 0.0, 0.0, 0.0, 0.0, 0.0, 0.0, 0.0, 1.7103906919926565E9, 0.0, 2024-03-13 21:31:31.992
158.0, 322.3962057302706, 138.9316735039465, 113.7602768521756, 170.97887622425333, 0.0, 0.0, 0.0, 0.0, 0.0, 0.0, 0.0, 0.0, 1.7103906920225062E9, 0.0, 2024-03-13 21:31:32.022
158.0, 312.4218925484456, 123.68410138459876, 74.44644851796329, 149.80730257509276, 0.0, 0.0, 0.0, 0.0, 0.0, 0.0, 0.0, 0.0, 1.7103906920225062E9, 0.0, 2024-03-13 21:31:32.022
159.0, 318.6563057745807, 137.23749882401899, 90.55419762711972, 150.2037319703959, 0.0, 0.0, 0.0, 0.0, 0.0, 0.0, 0.0, 0.0, 1.7103906920232587E9, 0.0, 2024-03-13 21:31:32.023
159.0, 306.10520152328536, 126.55260465061292, 107.00601753219962, 152.51125024305657, 0.0, 0.0, 0.0, 0.0, 0.0, 0.0, 0.0, 0.0, 1.7103906920232587E9, 0.0, 2024-03-13 21:31:32.023
160.0, 307.9078333019279, 124.71631377236918, 81.31664473656565, 151.2808231576346, 0.0, 0.0, 0.0, 0.0, 0.0, 0.0, 0.0, 0.0, 1.710390692024036E9, 0.0, 2024-03-13 21:31:32.024
160.0, 300.1550206937827, 109.66695635067299, 80.0001999521628, 144.50038453796878, 0.0, 0.0, 0.0, 0.0, 0.0, 0.0, 0.0, 0.0, 1.710390692024036E9, 0.0, 2024-03-13 21:31:32.024
161.0, 294.5563904601149, 116.7017081673257, 112.13342037145048, 150.07283547194675, 0.0, 0.0, 0.0, 0.0, 0.0, 0.0, 0.0, 0.0, 1.710390692036128E9, 0.0, 2024-03-13 21:31:32.036
161.0, 290.1545282122679, 106.63389748660848, 92.53260470367968, 149.20891858218238, 0.0, 0.0, 0.0, 0.0, 0.0, 0.0, 0.0, 0.0, 1.710390692036128E9, 0.0, 2024-03-13 21:31:32.036
162.0, 298.21027271682397, 115.86771047720686, 74.2557136202231, 150.0503960722126, 0.0, 0.0, 0.0, 0.0, 0.0, 0.0, 0.0, 0.0, 1.7103906920518131E9, 0.0, 2024-03-13 21:31:32.051
162.0, 302.2418848690577, 117.34123105974868, 106.63950733654201, 155.63406670605764, 0.0, 0.0, 0.0, 0.0, 0.0, 0.0, 0.0, 0.0, 1.7103906920518131E9, 0.0, 2024-03-13 21:31:32.051
163.0, 294.9827390550636, 120.50518642226234, 94.12954198475927, 151.1237473594956, 0.0, 0.0, 0.0, 0.0, 0.0, 0.0, 0.0, 0.0, 1.7103906920525455E9, 0.0, 2024-03-13 21:31:32.052
163.0, 298.37108841491863, 111.20779513241723, 61.801846767775714, 143.76362424669787, 0.0, 0.0, 0.0, 0.0, 0.0, 0.0, 0.0, 0.0, 1.7103906920525455E9, 0.0, 2024-03-13 21:31:32.052
164.0, 300.0166443954222, 118.88206984149292, 78.7772526666522, 138.58012290811166, 0.0, 0.0, 0.0, 0.0, 0.0, 0.0, 0.0, 0.0, 1.710390692066495E9, 0.0, 2024-03-13 21:31:32.066
164.0, 291.95715999091044, 104.52833381155506, 89.76881863642484, 140.12844148976728, 0.0, 0.0, 0.0, 0.0, 0.0, 0.0, 0.0, 0.0, 1.710390692066495E9, 0.0, 2024-03-13 21:31:32.066
165.0, 294.8181834570132, 106.40950348926708, 66.4019237132743, 139.91900709224865, 0.0, 0.0, 0.0, 0.0, 0.0, 0.0, 0.0, 0.0, 1.7103906920825365E9, 0.0, 2024-03-13 21:31:32.082
165.0, 316.0495955054648, 125.66624836111441, 83.94205450545996, 148.85362808639184, 0.0, 0.0, 0.0, 0.0, 0.0, 0.0, 0.0, 0.0, 1.7103906920825365E9, 0.0, 2024-03-13 21:31:32.082
166.0, 317.0892876931466, 129.8549363114871, 102.07682939060032, 148.62923408905044, 0.0, 0.0, 0.0, 0.0, 0.0, 0.0, 0.0, 0.0, 1.7103906920832503E9, 0.0, 2024-03-13 21:31:32.083
166.0, 299.77355089830235, 121.38032301189378, 86.78811837173998, 148.92842608550563, 0.0, 0.0, 0.0, 0.0, 0.0, 0.0, 0.0, 0.0, 1.7103906920832503E9, 0.0, 2024-03-13 21:31:32.083
167.0, 318.82086137263104, 128.64320872584358, 80.39662934746593, 155.22641761088744, 0.0, 0.0, 0.0, 0.0, 0.0, 0.0, 0.0, 0.0, 1.7103906920964713E9, 0.0, 2024-03-13 21:31:32.096
167.0, 309.91989947808906, 124.98558656917885, 109.33223530463874, 151.830588451121, 0.0, 0.0, 0.0, 0.0, 0.0, 0.0, 0.0, 0.0, 1.7103906920964713E9, 0.0, 2024-03-13 21:31:32.096
168.0, 296.10844894172624, 112.53919951664284, 97.5627701440826, 147.4586454029195, 0.0, 0.0, 0.0, 0.0, 0.0, 0.0, 0.0, 0.0, 1.7103906921122005E9, 0.0, 2024-03-13 21:31:32.112
168.0, 291.6056093950756, 106.46186208864674, 61.319399673491716, 136.58675623172894, 0.0, 0.0, 0.0, 0.0, 0.0, 0.0, 0.0, 0.0, 1.7103906921122005E9, 0.0, 2024-03-13 21:31:32.112
169.0, 305.25624423334375, 117.34497095970437, 92.77943810075521, 144.1563137420453, 0.0, 0.0, 0.0, 0.0, 0.0, 0.0, 0.0, 0.0, 1.7103906921127295E9, 0.0, 2024-03-13 21:31:32.112
169.0, 297.92604032019153, 104.23288171505556, 100.96607910376042, 146.8340821103193, 0.0, 0.0, 0.0, 0.0, 0.0, 0.0, 0.0, 0.0, 1.7103906921127295E9, 0.0, 2024-03-13 21:31:32.112
170.0, 301.35926847951487, 114.34557119524106, 78.34716417174786, 155.72756420494989, 0.0, 0.0, 0.0, 0.0, 0.0, 0.0, 0.0, 0.0, 1.7103906921261456E9, 0.0, 2024-03-13 21:31:32.126
170.0, 308.26312379771844, 121.77675240719691, 83.20903411414474, 155.86220060335472, 0.0, 0.0, 0.0, 0.0, 0.0, 0.0, 0.0, 0.0, 1.7103906921261456E9, 0.0, 2024-03-13 21:31:32.126
171.0, 309.5309498826973, 124.52931877458468, 111.10868778359145, 163.19988431641832, 0.0, 0.0, 0.0, 0.0, 0.0, 0.0, 0.0, 0.0, 1.7103906921425393E9, 0.0, 2024-03-13 21:31:32.142
171.0, 294.3132969629951, 116.89992286497727, 91.27599831856787, 154.88982661487535, 0.0, 0.0, 0.0, 0.0, 0.0, 0.0, 0.0, 0.0, 1.7103906921425393E9, 0.0, 2024-03-13 21:31:32.142
172.0, 319.0639548697509, 129.8175373119302, 76.41363589465618, 164.542508400511, 0.0, 0.0, 0.0, 0.0, 0.0, 0.0, 0.0, 0.0, 1.7103906921571512E9, 0.0, 2024-03-13 21:31:32.157
172.0, 313.3867867370136, 127.85408983519301, 111.89032687433064, 163.51403591269627, 0.0, 0.0, 0.0, 0.0, 0.0, 0.0, 0.0, 0.0, 1.7103906921571512E9, 0.0, 2024-03-13 21:31:32.157
173.0, 307.52262360649183, 127.46888013975695, 108.4196997154504, 163.82444760901853, 0.0, 0.0, 0.0, 0.0, 0.0, 0.0, 0.0, 0.0, 1.7103906921576056E9, 0.0, 2024-03-13 21:31:32.157
173.0, 324.7299033026211, 138.045317214448, 82.61439002119005, 165.8776526846923, 0.0, 0.0, 0.0, 0.0, 0.0, 0.0, 0.0, 0.0, 1.7103906921576056E9, 0.0, 2024-03-13 21:31:32.157
174.0, 329.6478717443533, 148.43849919131026, 111.92024607397616, 171.45384351862594, 0.0, 0.0, 0.0, 0.0, 0.0, 0.0, 0.0, 0.0, 1.7103906921719563E9, 0.0, 2024-03-13 21:31:32.171
174.0, 327.5011691697873, 147.43620600318536, 124.7630625218153, 171.97742951242253, 0.0, 0.0, 0.0, 0.0, 0.0, 0.0, 0.0, 0.0, 1.7103906921719563E9, 0.0, 2024-03-13 21:31:32.171
175.0, 315.15201951609924, 136.36236223438755, 90.71501332521439, 160.60439374716952, 0.0, 0.0, 0.0, 0.0, 0.0, 0.0, 0.0, 0.0, 1.7103906921727817E9, 0.0, 2024-03-13 21:31:32.172
175.0, 335.97204256942496, 154.41111942054704, 100.62574820779264, 176.7682413556613, 0.0, 0.0, 0.0, 0.0, 0.0, 0.0, 0.0, 0.0, 1.7103906921727817E9, 0.0, 2024-03-13 21:31:32.172
176.0, 332.74450890766457, 157.51523638376966, 127.45579048991203, 179.35625212499872, 0.0, 0.0, 0.0, 0.0, 0.0, 0.0, 0.0, 0.0, 1.7103906921863096E9, 0.0, 2024-03-13 21:31:32.186
176.0, 324.2811153079383, 150.97041146131232, 110.77209678757936, 175.12642527511343, 0.0, 0.0, 0.0, 0.0, 0.0, 0.0, 0.0, 0.0, 1.7103906921863096E9, 0.0, 2024-03-13 21:31:32.186
177.0, 332.8454862064682, 151.54261615453288, 93.80791058856994, 176.91035755397752, 0.0, 0.0, 0.0, 0.0, 0.0, 0.0, 0.0, 0.0, 1.7103906922017992E9, 0.0, 2024-03-13 21:31:32.201
177.0, 331.67489752033725, 150.51414366671816, 128.3571063792333, 181.41319710062817, 0.0, 0.0, 0.0, 0.0, 0.0, 0.0, 0.0, 0.0, 1.7103906922017992E9, 0.0, 2024-03-13 21:31:32.201
178.0, 319.4940433646552, 141.29903017589822, 116.98781051393598, 173.24151569744572, 0.0, 0.0, 0.0, 0.0, 0.0, 0.0, 0.0, 0.0, 1.7103906922025104E9, 0.0, 2024-03-13 21:31:32.202
178.0, 317.904585883487, 137.71994591830298, 85.5202922867611, 163.77208900963888, 0.0, 0.0, 0.0, 0.0, 0.0, 0.0, 0.0, 0.0, 1.7103906922025104E9, 0.0, 2024-03-13 21:31:32.202
179.0, 326.8766058771871, 157.78824908053502, 115.31981513369828, 175.07032677577808, 0.0, 0.0, 0.0, 0.0, 0.0, 0.0, 0.0, 0.0, 1.7103906922161307E9, 0.0, 2024-03-13 21:31:32.216
179.0, 314.0225697294809, 141.40748727461323, 126.51707560103387, 170.88537872536108, 0.0, 0.0, 0.0, 0.0, 0.0, 0.0, 0.0, 0.0, 1.7103906922161307E9, 0.0, 2024-03-13 21:31:32.216
180.0, 315.9822773062624, 135.79763734107837, 97.06536344997585, 172.81890700245276, 0.0, 0.0, 0.0, 0.0, 0.0, 0.0, 0.0, 0.0, 1.7103906922318172E9, 0.0, 2024-03-13 21:31:32.231
180.0, 341.9671021983959, 158.2744360747747, 119.85631377995014, 183.39534407714382, 0.0, 0.0, 0.0, 0.0, 0.0, 0.0, 0.0, 0.0, 1.7103906922318172E9, 0.0, 2024-03-13 21:31:32.231
181.0, 320.4589375532232, 134.25305865937844, 126.49837610125542, 166.96222367184237, 0.0, 0.0, 0.0, 0.0, 0.0, 0.0, 0.0, 0.0, 1.7103906922325523E9, 0.0, 2024-03-13 21:31:32.232
181.0, 306.13886062288657, 127.40530184051022, 106.30665624048561, 168.26370885642245, 0.0, 0.0, 0.0, 0.0, 0.0, 0.0, 0.0, 0.0, 1.7103906922325523E9, 0.0, 2024-03-13 21:31:32.232
182.0, 314.73689062101766, 119.90680242935196, 89.24149274267256, 165.23812979226932, 0.0, 0.0, 0.0, 0.0, 0.0, 0.0, 0.0, 0.0, 1.7103906922624905E9, 0.0, 2024-03-13 21:31:32.262
182.0, 324.93185790022835, 143.14280085405335, 121.24755656346679, 167.29507476789877, 0.0, 0.0, 0.0, 0.0, 0.0, 0.0, 0.0, 0.0, 1.7103906922624905E9, 0.0, 2024-03-13 21:31:32.262
183.0, 310.25649047410116, 131.76602518884465, 111.72951117623597, 164.6135664996691, 0.0, 0.0, 0.0, 0.0, 0.0, 0.0, 0.0, 0.0, 1.7103906922633357E9, 0.0, 2024-03-13 21:31:32.263
183.0, 323.3274408192374, 135.80885704094544, 91.58267011493444, 175.48545567085966, 0.0, 0.0, 0.0, 0.0, 0.0, 0.0, 0.0, 0.0, 1.7103906922633357E9, 0.0, 2024-03-13 21:31:32.263
184.0, 326.90278517687693, 150.94797206157818, 123.60369353555143, 183.8852709713392, 0.0, 0.0, 0.0, 0.0, 0.0, 0.0, 0.0, 0.0, 1.7103906922642312E9, 0.0, 2024-03-13 21:31:32.264
184.0, 322.49344312911853, 145.93276622099802, 139.85355884302408, 185.81879924843088, 0.0, 0.0, 0.0, 0.0, 0.0, 0.0, 0.0, 0.0, 1.7103906922642312E9, 0.0, 2024-03-13 21:31:32.264
185.0, 321.4948898409493, 147.58954190136865, 110.82445538695902, 184.6669100620784, 0.0, 0.0, 0.0, 0.0, 0.0, 0.0, 0.0, 0.0, 1.710390692276641E9, 0.0, 2024-03-13 21:31:32.276
185.0, 341.7427082010545, 167.63914556382224, 118.01254310179502, 183.8104729722254, 0.0, 0.0, 0.0, 0.0, 0.0, 0.0, 0.0, 0.0, 1.710390692276641E9, 0.0, 2024-03-13 21:31:32.276
186.0, 332.56499370979145, 157.87800667947158, 139.9545361418277, 185.43358955299482, 0.0, 0.0, 0.0, 0.0, 0.0, 0.0, 0.0, 0.0, 1.7103906922920837E9, 0.0, 2024-03-13 21:31:32.292
186.0, 332.5201149103232, 154.0969678242691, 121.95439765509218, 189.19592890841886, 0.0, 0.0, 0.0, 0.0, 0.0, 0.0, 0.0, 0.0, 1.7103906922920837E9, 0.0, 2024-03-13 21:31:32.292
187.0, 348.53062662063166, 171.89515171339735, 117.99010370206088, 200.38944947579876, 0.0, 0.0, 0.0, 0.0, 0.0, 0.0, 0.0, 0.0, 1.7103906922925785E9, 0.0, 2024-03-13 21:31:32.292
187.0, 355.19886824162677, 178.9149439302273, 153.41443608235568, 203.67682153685018, 0.0, 0.0, 0.0, 0.0, 0.0, 0.0, 0.0, 0.0, 1.7103906922925785E9, 0.0, 2024-03-13 21:31:32.292
188.0, 343.48924148036167, 164.12363960547373, 146.82847226038575, 196.39897622307763, 0.0, 0.0, 0.0, 0.0, 0.0, 0.0, 0.0, 0.0, 1.7103906923061328E9, 0.0, 2024-03-13 21:31:32.306
188.0, 337.7297955485992, 157.14872618811205, 102.16658698953688, 185.26529405498877, 0.0, 0.0, 0.0, 0.0, 0.0, 0.0, 0.0, 0.0, 1.7103906923061328E9, 0.0, 2024-03-13 21:31:32.306
189.0, 366.58312370674685, 183.9563290704973, 142.05635991692543, 200.83823747048154, 0.0, 0.0, 0.0, 0.0, 0.0, 0.0, 0.0, 0.0, 1.7103906923216352E9, 0.0, 2024-03-13 21:31:32.321
189.0, 365.9249013145454, 182.11255839234218, 161.07001129165292, 213.23974572354928, 0.0, 0.0, 0.0, 0.0, 0.0, 0.0, 0.0, 0.0, 1.7103906923216352E9, 0.0, 2024-03-13 21:31:32.321
190.0, 348.4894877211191, 176.08009976381436, 132.94222372490913, 208.7481258767657, 0.0, 0.0, 0.0, 0.0, 0.0, 0.0, 0.0, 0.0, 1.7103906923368783E9, 0.0, 2024-03-13 21:31:32.336
190.0, 375.5252245008014, 188.5489262160845, 133.510688518174, 214.11488231318071, 0.0, 0.0, 0.0, 0.0, 0.0, 0.0, 0.0, 0.0, 1.7103906923368783E9, 0.0, 2024-03-13 21:31:32.336
191.0, 376.81175008555874, 196.58597122086212, 167.30816441774368, 219.66489384742454, 0.0, 0.0, 0.0, 0.0, 0.0, 0.0, 0.0, 0.0, 1.7103906923379116E9, 0.0, 2024-03-13 21:31:32.337
191.0, 353.8637239574455, 176.5475872582756, 144.0721659930423, 215.4201073977165, 0.0, 0.0, 0.0, 0.0, 0.0, 0.0, 0.0, 0.0, 1.7103906923379116E9, 0.0, 2024-03-13 21:31:32.337
192.0, 371.3440163503401, 184.8127661603503, 127.51562888920307, 211.3062174464576, 0.0, 0.0, 0.0, 0.0, 0.0, 0.0, 0.0, 0.0, 1.7103906923518524E9, 0.0, 2024-03-13 21:31:32.351
192.0, 374.80716370930895, 191.50718708103523, 163.8524968586862, 215.35278919851407, 0.0, 0.0, 0.0, 0.0, 0.0, 0.0, 0.0, 0.0, 1.7103906923518524E9, 0.0, 2024-03-13 21:31:32.351
193.0, 364.6832545292564, 187.26614053128287, 147.5876719513908, 209.06601737299934, 0.0, 0.0, 0.0, 0.0, 0.0, 0.0, 0.0, 0.0, 1.7103906923525777E9, 0.0, 2024-03-13 21:31:32.352
193.0, 368.5615307833068, 188.72844141395763, 132.38497863151133, 213.80821051681414, 0.0, 0.0, 0.0, 0.0, 0.0, 0.0, 0.0, 0.0, 1.7103906923525777E9, 0.0, 2024-03-13 21:31:32.352
194.0, 376.3928812905215, 186.6266176388599, 154.62242376804352, 215.09099620161578, 0.0, 0.0, 0.0, 0.0, 0.0, 0.0, 0.0, 0.0, 1.7103906923661432E9, 0.0, 2024-03-13 21:31:32.366
194.0, 353.87494365731254, 181.68246989743784, 152.01197359897196, 204.48090002732351, 0.0, 0.0, 0.0, 0.0, 0.0, 0.0, 0.0, 0.0, 1.7103906923661432E9, 0.0, 2024-03-13 21:31:32.366
195.0, 353.9983603558503, 174.00819518836215, 124.56110792420805, 205.31863761739805, 0.0, 0.0, 0.0, 0.0, 0.0, 0.0, 0.0, 0.0, 1.7103906923818302E9, 0.0, 2024-03-13 21:31:32.381
195.0, 367.80233109230176, 185.74774114927277, 130.8030009502545, 201.34312396449968, 0.0, 0.0, 0.0, 0.0, 0.0, 0.0, 0.0, 0.0, 1.7103906923818302E9, 0.0, 2024-03-13 21:31:32.381
196.0, 356.6275100247003, 167.6167061640881, 148.50394744053483, 196.65702932002023, 0.0, 0.0, 0.0, 0.0, 0.0, 0.0, 0.0, 0.0, 1.7103906923825705E9, 0.0, 2024-03-13 21:31:32.382
196.0, 352.1396300778724, 169.51657534157857, 131.89505173731595, 197.79395890654996, 0.0, 0.0, 0.0, 0.0, 0.0, 0.0, 0.0, 0.0, 1.7103906923825705E9, 0.0, 2024-03-13 21:31:32.382
197.0, 361.0518116722815, 169.56145414104685, 108.22522491775453, 196.94500161660835, 0.0, 0.0, 0.0, 0.0, 0.0, 0.0, 0.0, 0.0, 1.7103906923961303E9, 0.0, 2024-03-13 21:31:32.396
197.0, 356.16376243019477, 167.6578450636007, 136.68212368059903, 190.6245706914924, 0.0, 0.0, 0.0, 0.0, 0.0, 0.0, 0.0, 0.0, 1.7103906923961303E9, 0.0, 2024-03-13 21:31:32.396
198.0, 331.1363519267179, 148.4983375906013, 119.1307731885463, 179.27397432597354, 0.0, 0.0, 0.0, 0.0, 0.0, 0.0, 0.0, 0.0, 1.7103906924121208E9, 0.0, 2024-03-13 21:31:32.412
198.0, 340.5571599151008, 147.70173890003935, 99.13726802542806, 180.48944181157276, 0.0, 0.0, 0.0, 0.0, 0.0, 0.0, 0.0, 0.0, 1.7103906924121208E9, 0.0, 2024-03-13 21:31:32.412
199.0, 354.38357005128637, 163.10638681752607, 124.64712562318891, 182.31825288990512, 0.0, 0.0, 0.0, 0.0, 0.0, 0.0, 0.0, 0.0, 1.7103906924125984E9, 0.0, 2024-03-13 21:31:32.412
199.0, 339.89893752289936, 153.8276950274594, 134.19883011002094, 182.49028828786686, 0.0, 0.0, 0.0, 0.0, 0.0, 0.0, 0.0, 0.0, 1.7103906924125984E9, 0.0, 2024-03-13 21:31:32.412
200.0, 325.2086104969494, 145.22218522941694, 100.2704577120021, 170.85919942567125, 0.0, 0.0, 0.0, 0.0, 0.0, 0.0, 0.0, 0.0, 1.710390692427151E9, 0.0, 2024-03-13 21:31:32.427
200.0, 335.8000071714632, 150.77967656357214, 103.35213527549058, 175.30594047298655, 0.0, 0.0, 0.0, 0.0, 0.0, 0.0, 0.0, 0.0, 1.710390692427151E9, 0.0, 2024-03-13 21:31:32.427
0.0, 334.0347743923776, 139.3468023990281, 125.43624451383948, 177.12353185145184, 0.0, 0.0, 0.0, 0.0, 0.0, 0.0, 0.0, 0.0, 1.7103906924276936E9, 0.0, 2024-03-13 21:31:32.427
101.0, 324.99917609943077, 136.69895323039964, 102.61163508426398, 166.88742567272857, 0.0, 0.0, 0.0, 0.0, 0.0, 0.0, 0.0, 0.0, 1.710390692441608E9, 0.0, 2024-03-13 21:31:32.441
101.0, 337.6325581497513, 145.2371448292397, 89.13303564395756, 165.42138489009812, 0.0, 0.0, 0.0, 0.0, 0.0, 0.0, 0.0, 0.0, 1.710390692441608E9, 0.0, 2024-03-13 21:31:32.441
102.0, 332.94272360531613, 140.88390128081664, 124.22077702824026, 167.16417826944962, 0.0, 0.0, 0.0, 0.0, 0.0, 0.0, 0.0, 0.0, 1.7103906924568596E9, 0.0, 2024-03-13 21:31:32.456
102.0, 317.59791408712044, 132.40180818131194, 117.52261620759964, 162.0592148299329, 0.0, 0.0, 0.0, 0.0, 0.0, 0.0, 0.0, 0.0, 1.7103906924568596E9, 0.0, 2024-03-13 21:31:32.456
103.0, 332.2845012131147, 134.72428605379537, 100.14704101346433, 169.66617133980617, 0.0, 0.0, 0.0, 0.0, 0.0, 0.0, 0.0, 0.0, 1.7103906924577568E9, 0.0, 2024-03-13 21:31:32.457
103.0, 323.03572862269357, 135.05339724989608, 121.74496325757354, 172.26540180901065, 0.0, 0.0, 0.0, 0.0, 0.0, 0.0, 0.0, 0.0, 1.7103906924577568E9, 0.0, 2024-03-13 21:31:32.457
104.0, 320.78804874932393, 141.50846457341686, 131.84643303789198, 175.26854147342965, 0.0, 0.0, 0.0, 0.0, 0.0, 0.0, 0.0, 0.0, 1.7103906924712048E9, 0.0, 2024-03-13 21:31:32.471
104.0, 314.6471330220811, 129.64550191396847, 99.63093481957912, 165.81033448548988, 0.0, 0.0, 0.0, 0.0, 0.0, 0.0, 0.0, 0.0, 1.7103906924712048E9, 0.0, 2024-03-13 21:31:32.471
105.0, 322.74401642614976, 142.39108096295968, 101.84869549330324, 166.5844937763177, 0.0, 0.0, 0.0, 0.0, 0.0, 0.0, 0.0, 0.0, 1.7103906924868548E9, 0.0, 2024-03-13 21:31:32.486
105.0, 319.3893261658959, 133.13856847258285, 126.44227760192007, 166.99962267139927, 0.0, 0.0, 0.0, 0.0, 0.0, 0.0, 0.0, 0.0, 1.7103906924868548E9, 0.0, 2024-03-13 21:31:32.486
106.0, 309.07094218814746, 130.3411233057268, 102.87716798111796, 159.51982276001945, 0.0, 0.0, 0.0, 0.0, 0.0, 0.0, 0.0, 0.0, 1.710390692487563E9, 0.0, 2024-03-13 21:31:32.487
106.0, 326.60359318042174, 139.21216600062326, 92.4877259042114, 167.88223906094208, 0.0, 0.0, 0.0, 0.0, 0.0, 0.0, 0.0, 0.0, 1.710390692487563E9, 0.0, 2024-03-13 21:31:32.487
107.0, 326.0313884872012, 140.87642148090526, 119.78525568079203, 168.33102705562487, 0.0, 0.0, 0.0, 0.0, 0.0, 0.0, 0.0, 0.0, 1.7103906925011685E9, 0.0, 2024-03-13 21:31:32.501
107.0, 297.28651742776856, 121.65333570865914, 105.13232765439898, 159.77039605705068, 0.0, 0.0, 0.0, 0.0, 0.0, 0.0, 0.0, 0.0, 1.7103906925011685E9, 0.0, 2024-03-13 21:31:32.501
108.0, 317.67271208623424, 137.3833549222909, 91.47795291617513, 165.32788739120588, 0.0, 0.0, 0.0, 0.0, 0.0, 0.0, 0.0, 0.0, 1.7103906925168152E9, 0.0, 2024-03-13 21:31:32.516
108.0, 324.7710422021337, 144.66120023606345, 119.2803691867739, 169.2510424447246, 0.0, 0.0, 0.0, 0.0, 0.0, 0.0, 0.0, 0.0, 1.7103906925168152E9, 0.0, 2024-03-13 21:31:32.516
109.0, 295.4614462493919, 123.62052308535203, 113.77897635195404, 162.78101552138105, 0.0, 0.0, 0.0, 0.0, 0.0, 0.0, 0.0, 0.0, 1.710390692517618E9, 0.0, 2024-03-13 21:31:32.517
109.0, 292.746278881561, 120.64356272062287, 84.54791829828173, 157.30580198625103, 0.0, 0.0, 0.0, 0.0, 0.0, 0.0, 0.0, 0.0, 1.710390692517618E9, 0.0, 2024-03-13 21:31:32.517
110.0, 311.0605689645745, 126.32821065327153, 96.37348195817322, 167.95703706005588, 0.0, 0.0, 0.0, 0.0, 0.0, 0.0, 0.0, 0.0, 1.7103906925312114E9, 0.0, 2024-03-13 21:31:32.531
110.0, 300.3420156915672, 113.98654079949483, 120.47339727263898, 161.77872233325616, 0.0, 0.0, 0.0, 0.0, 0.0, 0.0, 0.0, 0.0, 1.7103906925312114E9, 0.0, 2024-03-13 21:31:32.531
111.0, 288.3032777342014, 112.6289571155794, 98.73709873016924, 161.99563653068617, 0.0, 0.0, 0.0, 0.0, 0.0, 0.0, 0.0, 0.0, 1.7103906925471213E9, 0.0, 2024-03-13 21:31:32.547
111.0, 306.3183758207597, 123.21661389013752, 82.88740271795541, 159.30290856258944, 0.0, 0.0, 0.0, 0.0, 0.0, 0.0, 0.0, 0.0, 1.7103906925471213E9, 0.0, 2024-03-13 21:31:32.547
112.0, 300.5664096889086, 127.49131953949109, 116.63625991810113, 162.51922252448276, 0.0, 0.0, 0.0, 0.0, 0.0, 0.0, 0.0, 0.0, 1.7103906925477157E9, 0.0, 2024-03-13 21:31:32.547
112.0, 296.10844894172624, 118.78857234260067, 112.04740267246962, 162.3584068263881, 0.0, 0.0, 0.0, 0.0, 0.0, 0.0, 0.0, 0.0, 1.7103906925477157E9, 0.0, 2024-03-13 21:31:32.547
113.0, 299.6725735994987, 122.06472470378503, 78.32472477201372, 155.33487470960245, 0.0, 0.0, 0.0, 0.0, 0.0, 0.0, 0.0, 0.0, 1.7103906925611556E9, 0.0, 2024-03-13 21:31:32.561
113.0, 307.9489722014405, 128.68434762535617, 100.38639461062849, 156.76725639263168, 0.0, 0.0, 0.0, 0.0, 0.0, 0.0, 0.0, 0.0, 1.7103906925611556E9, 0.0, 2024-03-13 21:31:32.561
114.0, 296.44503993773833, 119.67492863209918, 109.22003830596805, 149.4931509788148, 0.0, 0.0, 0.0, 0.0, 0.0, 0.0, 0.0, 0.0, 1.710390692576902E9, 0.0, 2024-03-13 21:31:32.576
114.0, 287.6637548417784, 106.88821068359539, 79.95906105265021, 144.7584376349114, 0.0, 0.0, 0.0, 0.0, 0.0, 0.0, 0.0, 0.0, 1.710390692576902E9, 0.0, 2024-03-13 21:31:32.576
115.0, 302.3092030682601, 123.0744976918213, 83.86351660639048, 147.1968524060212, 0.0, 0.0, 0.0, 0.0, 0.0, 0.0, 0.0, 0.0, 1.7103906925776813E9, 0.0, 2024-03-13 21:31:32.577
115.0, 297.9110807203688, 115.73681397875771, 110.09891479555517, 148.0495495959185, 0.0, 0.0, 0.0, 0.0, 0.0, 0.0, 0.0, 0.0, 1.7103906925776813E9, 0.0, 2024-03-13 21:31:32.577
116.0, 288.62490913039073, 109.59215835155919, 86.90405527036637, 146.9350594091229, 0.0, 0.0, 0.0, 0.0, 0.0, 0.0, 0.0, 0.0, 1.7103906925911546E9, 0.0, 2024-03-13 21:31:32.591
116.0, 308.1247474993579, 117.89847615314648, 74.5549056166783, 149.0107038845308, 0.0, 0.0, 0.0, 0.0, 0.0, 0.0, 0.0, 0.0, 1.7103906925911546E9, 0.0, 2024-03-13 21:31:32.591
117.0, 310.8399148671888, 129.40988821676, 114.91590593848377, 161.59172733547166, 0.0, 0.0, 0.0, 0.0, 0.0, 0.0, 0.0, 0.0, 1.7103906926068127E9, 0.0, 2024-03-13 21:31:32.606
117.0, 305.30112303281203, 131.05918409721926, 110.03533649630845, 163.70851071039215, 0.0, 0.0, 0.0, 0.0, 0.0, 0.0, 0.0, 0.0, 1.7103906926068127E9, 0.0, 2024-03-13 21:31:32.606
118.0, 308.77922999160364, 122.7416465957649, 80.45272784680128, 157.81816828018054, 0.0, 0.0, 0.0, 0.0, 0.0, 0.0, 0.0, 0.0, 1.7103906926075425E9, 0.0, 2024-03-13 21:31:32.607
118.0, 317.7624696851708, 138.81573660532013, 101.95715259201825, 156.51294319564477, 0.0, 0.0, 0.0, 0.0, 0.0, 0.0, 0.0, 0.0, 1.7103906926075425E9, 0.0, 2024-03-13 21:31:32.607
119.0, 304.03329694783315, 124.61533647356555, 103.98417836800218, 153.45370503189042, 0.0, 0.0, 0.0, 0.0, 0.0, 0.0, 0.0, 0.0, 1.7103906926211758E9, 0.0, 2024-03-13 21:31:32.621
119.0, 292.62660208297893, 112.32228531921282, 78.54537886939943, 152.5710886423476, 0.0, 0.0, 0.0, 0.0, 0.0, 0.0, 0.0, 0.0, 1.7103906926211758E9, 0.0, 2024-03-13 21:31:32.621
120.0, 318.60394717520103, 136.0444707381539, 92.28951120655984, 166.25912248017266, 0.0, 0.0, 0.0, 0.0, 0.0, 0.0, 0.0, 0.0, 1.710390692636824E9, 0.0, 2024-03-13 21:31:32.636
120.0, 318.59272747533396, 133.81549036456272, 129.63241226412356, 174.25876848539338, 0.0, 0.0, 0.0, 0.0, 0.0, 0.0, 0.0, 0.0, 1.710390692636824E9, 0.0, 2024-03-13 21:31:32.636
121.0, 311.62903375783935, 130.38600210519508, 107.10699483100325, 169.15006514592096, 0.0, 0.0, 0.0, 0.0, 0.0, 0.0, 0.0, 0.0, 1.7103906926375306E9, 0.0, 2024-03-13 21:31:32.637
121.0, 313.1324735400267, 130.35234300559387, 83.59050390962511, 163.03158881841227, 0.0, 0.0, 0.0, 0.0, 0.0, 0.0, 0.0, 0.0, 1.7103906926375306E9, 0.0, 2024-03-13 21:31:32.637
122.0, 323.5443550166674, 143.13158115418628, 118.49125029612333, 166.4648169777356, 0.0, 0.0, 0.0, 0.0, 0.0, 0.0, 0.0, 0.0, 1.7103906926511412E9, 0.0, 2024-03-13 21:31:32.651
122.0, 300.682346587535, 131.73610598919913, 109.84834149852395, 158.11362037668005, 0.0, 0.0, 0.0, 0.0, 0.0, 0.0, 0.0, 0.0, 1.7103906926511412E9, 0.0, 2024-03-13 21:31:32.651
123.0, 310.8660941668786, 128.3028778298758, 83.7438398078084, 156.47180429613218, 0.0, 0.0, 0.0, 0.0, 0.0, 0.0, 0.0, 0.0, 1.7103906926668923E9, 0.0, 2024-03-13 21:31:32.666
123.0, 310.1929121748544, 131.99789898609743, 103.00806447956711, 151.65855305315927, 0.0, 0.0, 0.0, 0.0, 0.0, 0.0, 0.0, 0.0, 1.7103906926668923E9, 0.0, 2024-03-13 21:31:32.666
124.0, 310.3948667724617, 127.79799133585766, 112.1670794710517, 157.66857228195295, 0.0, 0.0, 0.0, 0.0, 0.0, 0.0, 0.0, 0.0, 1.7103906926675491E9, 0.0, 2024-03-13 21:31:32.667
124.0, 299.69875289918855, 121.88520950591192, 88.10830305609852, 153.06101553654298, 0.0, 0.0, 0.0, 0.0, 0.0, 0.0, 0.0, 0.0, 1.7103906926675491E9, 0.0, 2024-03-13 21:31:32.667
125.0, 316.66293909819797, 131.21251999540254, 93.08984979707748, 160.11820675292984, 0.0, 0.0, 0.0, 0.0, 0.0, 0.0, 0.0, 0.0, 1.7103906926811774E9, 0.0, 2024-03-13 21:31:32.681
125.0, 310.4285258720629, 124.49191977502778, 111.90154657419771, 154.7551902164705, 0.0, 0.0, 0.0, 0.0, 0.0, 0.0, 0.0, 0.0, 1.7103906926811774E9, 0.0, 2024-03-13 21:31:32.681
126.0, 311.3822003607638, 118.14530955022201, 104.97899175621569, 160.5445553478785, 0.0, 0.0, 0.0, 0.0, 0.0, 0.0, 0.0, 0.0, 1.7103906926970289E9, 0.0, 2024-03-13 21:31:32.697
126.0, 328.26036886079237, 134.61208905512467, 84.18140810262412, 160.29772195080295, 0.0, 0.0, 0.0, 0.0, 0.0, 0.0, 0.0, 0.0, 1.7103906926970289E9, 0.0, 2024-03-13 21:31:32.697
127.0, 319.96527075907215, 138.58012290811166, 112.4961906671524, 161.60668693529442, 0.0, 0.0, 0.0, 0.0, 0.0, 0.0, 0.0, 0.0, 1.7103906926977055E9, 0.0, 2024-03-13 21:31:32.697
127.0, 316.1767521039583, 137.02058462658897, 115.39087323285639, 167.7663021623157, 0.0, 0.0, 0.0, 0.0, 0.0, 0.0, 0.0, 0.0, 1.7103906926977055E9, 0.0, 2024-03-13 21:31:32.697
128.0, 319.8792530600913, 133.7107731658034, 82.5956905214116, 161.26261613937095, 0.0, 0.0, 0.0, 0.0, 0.0, 0.0, 0.0, 0.0, 1.7103906927112472E9, 0.0, 2024-03-13 21:31:32.711
128.0, 328.4810229581781, 137.70124641852453, 103.62140807230026, 159.501123260241, 0.0, 0.0, 0.0, 0.0, 0.0, 0.0, 0.0, 0.0, 1.7103906927112472E9, 0.0, 2024-03-13 21:31:32.711
129.0, 309.534689782653, 130.374782405328, 111.85666777472943, 155.4956904076971, 0.0, 0.0, 0.0, 0.0, 0.0, 0.0, 0.0, 0.0, 1.7103906927432392E9, 0.0, 2024-03-13 21:31:32.743
129.0, 313.55882213497534, 126.02901865681633, 89.83987673558295, 159.02615596586838, 0.0, 0.0, 0.0, 0.0, 0.0, 0.0, 0.0, 0.0, 1.7103906927432392E9, 0.0, 2024-03-13 21:31:32.743
130.0, 326.0351283871569, 139.85542879300192, 95.266471571289, 159.3889262615703, 0.0, 0.0, 0.0, 0.0, 0.0, 0.0, 0.0, 0.0, 1.7103906927439685E9, 0.0, 2024-03-13 21:31:32.743
130.0, 329.71518994355574, 146.8266023104079, 130.6534049520269, 173.40607129549608, 0.0, 0.0, 0.0, 0.0, 0.0, 0.0, 0.0, 0.0, 1.7103906927439685E9, 0.0, 2024-03-13 21:31:32.743
131.0, 296.5684566362761, 115.31794518372044, 93.72189288958907, 155.63780660601333, 0.0, 0.0, 0.0, 0.0, 0.0, 0.0, 0.0, 0.0, 1.7103906927446575E9, 0.0, 2024-03-13 21:31:32.744
131.0, 326.3866789829917, 139.8255095933564, 92.34560970589519, 166.10952648194507, 0.0, 0.0, 0.0, 0.0, 0.0, 0.0, 0.0, 0.0, 1.7103906927446575E9, 0.0, 2024-03-13 21:31:32.744
132.0, 317.1640856922604, 133.62101556686684, 117.53009600751102, 164.63600589940324, 0.0, 0.0, 0.0, 0.0, 0.0, 0.0, 0.0, 0.0, 1.7103906927455163E9, 0.0, 2024-03-13 21:31:32.745
132.0, 298.1616540174, 120.97267391672358, 102.68269318342209, 154.12314712395892, 0.0, 0.0, 0.0, 0.0, 0.0, 0.0, 0.0, 0.0, 1.7103906927455163E9, 0.0, 2024-03-13 21:31:32.745
133.0, 318.58898757537827, 132.35692938184366, 88.31773745361716, 161.03822214202955, 0.0, 0.0, 0.0, 0.0, 0.0, 0.0, 0.0, 0.0, 1.7103906927561843E9, 0.0, 2024-03-13 21:31:32.756
133.0, 332.34059971245006, 137.8957212162204, 110.30460929311812, 164.40413210215047, 0.0, 0.0, 0.0, 0.0, 0.0, 0.0, 0.0, 0.0, 1.7103906927561843E9, 0.0, 2024-03-13 21:31:32.756
134.0, 311.4270791602321, 125.09030376793817, 121.7262637577951, 162.49304322479293, 0.0, 0.0, 0.0, 0.0, 0.0, 0.0, 0.0, 0.0, 1.7103906927711725E9, 0.0, 2024-03-13 21:31:32.771
134.0, 316.40488600125536, 126.63862234959379, 88.38879555277526, 160.75398974539712, 0.0, 0.0, 0.0, 0.0, 0.0, 0.0, 0.0, 0.0, 1.7103906927711725E9, 0.0, 2024-03-13 21:31:32.771
135.0, 325.1824311972596, 136.17536723660305, 95.17297407239676, 160.07332795346156, 0.0, 0.0, 0.0, 0.0, 0.0, 0.0, 0.0, 0.0, 1.7103906927870102E9, 0.0, 2024-03-13 21:31:32.787
135.0, 312.0479025528766, 126.51146575110033, 122.63879934698343, 160.840007444378, 0.0, 0.0, 0.0, 0.0, 0.0, 0.0, 0.0, 0.0, 1.7103906927870102E9, 0.0, 2024-03-13 21:31:32.787
136.0, 306.92797951353714, 129.16679471964017, 98.57628303207457, 161.7226238339208, 0.0, 0.0, 0.0, 0.0, 0.0, 0.0, 0.0, 0.0, 1.7103906927876444E9, 0.0, 2024-03-13 21:31:32.787
136.0, 320.52999565238133, 139.83298939326778, 91.87064241152257, 167.77378196222708, 0.0, 0.0, 0.0, 0.0, 0.0, 0.0, 0.0, 0.0, 1.7103906927876444E9, 0.0, 2024-03-13 21:31:32.787
