%OpenBCI Raw EXG Data
%Number of channels = 4
%Sample Rate = 200 Hz
%Board = OpenBCI_GUI$BoardGanglionBLE
Sample Index, EXG Channel 0, EXG Channel 1, EXG Channel 2, EXG Channel 3, Accel Channel 0, Accel Channel 1, Accel Channel 2, Other, Other, Other, Other, Other, Timestamp, Other, Timestamp (Formatted)
0.0, 200.9279950694181, 95.63859161688015, -59.986125339288265, 66.18313956586644, 0.0, 0.0, 0.0, 0.0, 0.0, 0.0, 0.0, 0.0, 1.7103912650254908E9, 0.0, 2024-03-13 21:41:05.025
1.0, 202.94754104549065, 91.85755276167765, -78.49115032004192, 65.40150047512725, 0.0, 0.7840000372380018, 0.0, 0.0, 0.0, 0.0, 0.0, 0.0, 1.7103912650388677E9, 0.0, 2024-03-13 21:41:05.038
1.0, 212.9368138271384, 103.27546732639894, -71.7181915002875, 81.6850248822011, 0.0, 0.7840000372380018, 0.0, 0.0, 0.0, 0.0, 0.0, 0.0, 1.7103912650388677E9, 0.0, 2024-03-13 21:41:05.038
2.0, 218.72243905859068, 109.72679474996403, -38.86691028950736, 80.31248159846291, 0.5920000281184912, 0.7840000372380018, 0.0, 0.0, 0.0, 0.0, 0.0, 0.0, 1.7103912650558114E9, 0.0, 2024-03-13 21:41:05.055
2.0, 208.99869917379692, 96.2145362100564, -66.26915726484731, 68.47195833874866, 0.5920000281184912, 0.7840000372380018, 0.0, 0.0, 0.0, 0.0, 0.0, 0.0, 1.7103912650558114E9, 0.0, 2024-03-13 21:41:05.055
3.0, 214.17098081251606, 103.21188902715221, -69.90060012182221, 81.44193138508126, 0.5920000281184912, 0.7840000372380018, 0.0, 0.0, 0.0, 0.0, 0.0, 0.0, 1.7103912650562708E9, 0.0, 2024-03-13 21:41:05.056
3.0, 209.69806046551093, 102.69204293331131, -54.709126501809806, 75.86574055114761, 0.5920000281184912, 0.7840000372380018, 0.0, 0.0, 0.0, 0.0, 0.0, 0.0, 1.7103912650562708E9, 0.0, 2024-03-13 21:41:05.056
4.0, 199.98928018053994, 95.04020762396976, -55.25889179529622, 69.06660243170336, 0.5920000281184912, 0.7840000372380018, 0.0, 0.0, 0.0, 0.0, 0.0, 0.0, 1.7103912650689163E9, 0.0, 2024-03-13 21:41:05.068
4.0, 202.6670485488139, 91.62941886438057, -73.01967668486759, 69.35457472829148, 0.5920000281184912, 0.7840000372380018, 0.0, 0.0, 0.0, 0.0, 0.0, 0.0, 1.7103912650689163E9, 0.0, 2024-03-13 21:41:05.068
5.0, 209.974813062232, 99.8459790670313, -53.62829541461542, 80.98940349044278, 0.5920000281184912, 0.7840000372380018, 0.0, 0.0, 0.0, 0.0, 0.0, 0.0, 1.7103912650843549E9, 0.0, 2024-03-13 21:41:05.084
5.0, 195.7407538308762, 88.86563279712573, -49.959453558083624, 64.18603298952803, 0.5920000281184912, 0.7840000372380018, 0.0, 0.0, 0.0, 0.0, 0.0, 0.0, 1.7103912650843549E9, 0.0, 2024-03-13 21:41:05.084
6.0, 204.73147332435474, 90.9150979728438, -70.30450931703672, 69.09652163134888, 0.5920000281184912, 0.7840000372380018, 0.0, 0.0, 0.0, 0.0, 0.0, 0.0, 1.7103912650858383E9, 0.0, 2024-03-13 21:41:05.085
6.0, 219.3058634516783, 108.6272641629912, -64.10375519050285, 84.54604834830388, 0.5920000281184912, 0.7840000372380018, 0.0, 0.0, 0.0, 0.0, 0.0, 0.0, 1.7103912650858383E9, 0.0, 2024-03-13 21:41:05.085
7.0, 209.44374726852402, 103.45124262431636, -58.16853396082297, 72.17819919483736, 0.5920000281184912, 0.7840000372380018, 0.0, 0.0, 0.0, 0.0, 0.0, 0.0, 1.7103912651149871E9, 0.0, 2024-03-13 21:41:05.114
7.0, 198.46714089857414, 89.33686019154266, -77.11486713634804, 61.983231915626675, 0.5920000281184912, 0.7840000372380018, 0.0, 0.0, 0.0, 0.0, 0.0, 0.0, 1.7103912651149871E9, 0.0, 2024-03-13 21:41:05.114
8.0, 208.3741358811967, 99.93573666596785, -76.03403604915366, 70.94777210941538, 0.5920000281184912, 0.7840000372380018, 0.0, 0.0, 0.0, 0.0, 0.0, 0.0, 1.7103912651156976E9, 0.0, 2024-03-13 21:41:05.115
8.0, 199.12162339081988, 99.05686017638072, -64.76197758270428, 67.18917265394703, 0.5920000281184912, 0.7840000372380018, 0.0, 0.0, 0.0, 0.0, 0.0, 0.0, 1.7103912651156976E9, 0.0, 2024-03-13 21:41:05.115
9.0, 194.0353594510816, 90.19703718135133, -64.03269709134474, 62.742431606631726, 0.5920000281184912, 0.7840000372380018, 0.0, 0.0, 0.0, 0.0, 0.0, 0.0, 1.7103912651166084E9, 0.0, 2024-03-13 21:41:05.116
9.0, 203.90869533410296, 89.37799909105524, -83.32310106279328, 66.0148440678604, 0.5920000281184912, 0.7840000372380018, 0.0, 0.0, 0.0, 0.0, 0.0, 0.0, 1.7103912651166084E9, 0.0, 2024-03-13 21:41:05.116
10.0, 199.64894928457215, 88.77961509814486, -69.17879943037406, 62.54047700902447, 0.5920000281184912, 0.7840000372380018, 0.3680000174790621, 0.0, 0.0, 0.0, 0.0, 0.0, 1.710391265128575E9, 0.0, 2024-03-13 21:41:05.128
10.0, 188.42176961759105, 80.47703719651327, -63.591388896573335, 53.63951511448249, 0.5920000281184912, 0.7840000372380018, 0.3680000174790621, 0.0, 0.0, 0.0, 0.0, 0.0, 1.710391265128575E9, 0.0, 2024-03-13 21:41:05.128
11.0, 191.17059608502313, 74.84474786324427, -85.34638693882152, 50.449380452279, 0.5920000281184912, 0.7840000372380018, 0.3680000174790621, 0.0, 0.0, 0.0, 0.0, 0.0, 1.7103912651443045E9, 0.0, 2024-03-13 21:41:05.144
11.0, 194.39438984682783, 83.60733345942572, -84.40767204994336, 56.46687948098406, 0.5920000281184912, 0.7840000372380018, 0.3680000174790621, 0.0, 0.0, 0.0, 0.0, 0.0, 1.7103912651443045E9, 0.0, 2024-03-13 21:41:05.144
12.0, 187.80468612490222, 83.94018455548212, -67.59308184916154, 51.107602844480425, 0.5920000281184912, 0.7840000372380018, 0.3680000174790621, 0.0, 0.0, 0.0, 0.0, 0.0, 1.710391265145043E9, 0.0, 2024-03-13 21:41:05.145
12.0, 194.93667534040287, 88.29716800386086, -73.92847237410024, 61.50452472129837, 0.5920000281184912, 0.7840000372380018, 0.3680000174790621, 0.0, 0.0, 0.0, 0.0, 0.0, 1.710391265145043E9, 0.0, 2024-03-13 21:41:05.145
13.0, 206.28353180596605, 94.13141193473712, -77.51129653165117, 65.10978827858344, 0.5920000281184912, 0.7840000372380018, 0.3680000174790621, 0.0, 0.0, 0.0, 0.0, 0.0, 1.7103912651586487E9, 0.0, 2024-03-13 21:41:05.158
13.0, 197.71542100748047, 93.64522494049743, -66.50851086201146, 68.02317034406587, 0.5920000281184912, 0.7840000372380018, 0.3680000174790621, 0.0, 0.0, 0.0, 0.0, 0.0, 1.7103912651586487E9, 0.0, 2024-03-13 21:41:05.158
14.0, 191.98589427536353, 83.92896485561505, -69.96791832102463, 56.04801068594679, 0.5920000281184912, 0.7840000372380018, 0.3680000174790621, 0.0, 0.0, 0.0, 0.0, 0.0, 1.7103912651743808E9, 0.0, 2024-03-13 21:41:05.174
14.0, 200.50164647446945, 83.65969205880538, -90.41769127873704, 54.25659860717133, 0.5920000281184912, 0.7840000372380018, 0.3680000174790621, 0.0, 0.0, 0.0, 0.0, 0.0, 1.7103912651743808E9, 0.0, 2024-03-13 21:41:05.174
15.0, 205.06806432036683, 96.71942270407453, -63.224878700915724, 69.52661012625322, 0.5920000281184912, 0.7840000372380018, 0.3680000174790621, 0.0, 0.0, 0.0, 0.0, 0.0, 1.7103912651750412E9, 0.0, 2024-03-13 21:41:05.175
15.0, 188.37315091816708, 88.51408220129088, -65.90638696914539, 57.00168517464772, 0.5920000281184912, 0.7840000372380018, 0.3680000174790621, 0.0, 0.0, 0.0, 0.0, 0.0, 1.7103912651750412E9, 0.0, 2024-03-13 21:41:05.175
16.0, 180.5492802108638, 76.93909183843061, -93.72002293961123, 46.20459400257096, 0.5920000281184912, 0.7840000372380018, 0.3680000174790621, 0.0, 0.0, 0.0, 0.0, 0.0, 1.7103912651890197E9, 0.0, 2024-03-13 21:41:05.189
16.0, 196.32417822396383, 92.1006462587975, -79.80759510444477, 70.78321651136503, 0.5920000281184912, 0.7840000372380018, 0.3680000174790621, 0.0, 0.0, 0.0, 0.0, 0.0, 1.7103912651890197E9, 0.0, 2024-03-13 21:41:05.189
17.0, 193.19762186100706, 92.0258482596837, -67.17795295407996, 60.84256242914125, 0.5920000281184912, 0.7840000372380018, 0.3680000174790621, 0.0, 0.0, 0.0, 0.0, 0.0, 1.710391265204342E9, 0.0, 2024-03-13 21:41:05.204
17.0, 186.8846707358025, 74.47449776763096, -87.00316261919215, 46.294351601507515, 0.5920000281184912, 0.7840000372380018, 0.3680000174790621, 0.0, 0.0, 0.0, 0.0, 0.0, 1.710391265204342E9, 0.0, 2024-03-13 21:41:05.204
18.0, 205.66270841332152, 93.73872243938968, -78.21439772332087, 60.05718343844637, 0.5920000281184912, 0.7840000372380018, 0.3680000174790621, 0.0, 0.0, 0.0, 0.0, 0.0, 1.7103912652050247E9, 0.0, 2024-03-13 21:41:05.205
18.0, 202.83908394677565, 95.89664471382275, -76.9091726387851, 65.67077327193692, 0.5920000281184912, 0.7840000372380018, 0.3680000174790621, 0.0, 0.0, 0.0, 0.0, 0.0, 1.7103912652050247E9, 0.0, 2024-03-13 21:41:05.205
19.0, 203.80397813534364, 97.56837999401614, -67.73145814752206, 59.582216144073755, 0.5920000281184912, 0.7840000372380018, 0.3680000174790621, 0.0, 0.0, 0.0, 0.0, 0.0, 1.7103912652187915E9, 0.0, 2024-03-13 21:41:05.218
19.0, 209.96359336236492, 97.41130419587716, -76.81567513989285, 66.41127346316352, 0.5920000281184912, 0.7840000372380018, 0.3680000174790621, 0.0, 0.0, 0.0, 0.0, 0.0, 1.7103912652187915E9, 0.0, 2024-03-13 21:41:05.218
20.0, 208.74438597681, 103.38766432506964, -60.004824839066714, 74.38100026873872, 0.5920000281184912, 0.7840000372380018, 0.3680000174790621, 0.0, 0.0, 0.0, 0.0, 0.0, 1.710391265234302E9, 0.0, 2024-03-13 21:41:05.234
20.0, 205.0830239201896, 100.87071165489033, -53.153328120242804, 64.25709108868614, 0.5920000281184912, 0.7840000372380018, 0.3680000174790621, 0.0, 0.0, 0.0, 0.0, 0.0, 1.710391265234302E9, 0.0, 2024-03-13 21:41:05.234
21.0, 201.97516705701128, 95.1374450228177, -75.03922266094014, 59.974905639421195, 0.5920000281184912, 0.7840000372380018, 0.3680000174790621, 0.0, 0.0, 0.0, 0.0, 0.0, 1.7103912652351031E9, 0.0, 2024-03-13 21:41:05.235
21.0, 199.89952258160338, 96.52494790637866, -77.61601373041049, 68.78237003507093, 0.5920000281184912, 0.7840000372380018, 0.3680000174790621, 0.0, 0.0, 0.0, 0.0, 0.0, 1.7103912652351031E9, 0.0, 2024-03-13 21:41:05.235
22.0, 199.50683308625594, 97.57959969388321, -54.55953050358221, 68.54675633786246, 0.5920000281184912, 0.7840000372380018, 0.3680000174790621, 0.0, 0.0, 0.0, 0.0, 0.0, 1.7103912652487483E9, 0.0, 2024-03-13 21:41:05.248
22.0, 204.04707163246349, 96.60722570540383, -61.50078482134268, 66.39631386334077, 0.5920000281184912, 0.7840000372380018, 0.3680000174790621, 0.0, 0.0, 0.0, 0.0, 0.0, 1.7103912652487483E9, 0.0, 2024-03-13 21:41:05.248
23.0, 206.76597890025005, 104.83126570796594, -67.48088485049084, 75.42817225633189, 0.5920000281184912, 0.7840000372380018, 0.3680000174790621, 0.0, 0.0, 0.0, 0.0, 0.0, 1.710391265264321E9, 0.0, 2024-03-13 21:41:05.264
23.0, 203.58332403795794, 103.59335882263258, -66.755344259087, 69.02172363223508, 0.5920000281184912, 0.7840000372380018, 0.3680000174790621, 0.0, 0.0, 0.0, 0.0, 0.0, 1.710391265264321E9, 0.0, 2024-03-13 21:41:05.264
24.0, 206.9342743982561, 101.34193904930726, -51.05150434514508, 66.4187532630749, 0.5920000281184912, 0.7840000372380018, 0.3680000174790621, 0.0, 0.0, 0.0, 0.0, 0.0, 1.7103912652650568E9, 0.0, 2024-03-13 21:41:05.265
24.0, 211.29125784663484, 100.51916105905548, -82.0216158782132, 69.54904952598736, 0.5920000281184912, 0.7840000372380018, 0.3680000174790621, 0.0, 0.0, 0.0, 0.0, 0.0, 1.7103912652650568E9, 0.0, 2024-03-13 21:41:05.265
25.0, 202.24069995386526, 98.95962277753279, -75.33841465739533, 60.43865323392674, 0.5920000281184912, 0.7840000372380018, 0.3680000174790621, 0.0, 0.0, 0.0, 0.0, 0.0, 1.7103912652789867E9, 0.0, 2024-03-13 21:41:05.278
25.0, 202.38281615218148, 101.13250465178862, -61.36240852298215, 60.58450933219865, 0.5920000281184912, 0.7840000372380018, 0.3680000174790621, 0.0, 0.0, 0.0, 0.0, 0.0, 1.7103912652789867E9, 0.0, 2024-03-13 21:41:05.278
26.0, 206.4518273039721, 98.76514797983691, -71.12354740733281, 66.41501336311921, 0.5920000281184912, 0.7840000372380018, 0.3680000174790621, 0.0, 0.0, 0.0, 0.0, 0.0, 1.7103912652944212E9, 0.0, 2024-03-13 21:41:05.294
26.0, 213.31080382270738, 114.26329339621589, -67.63048084871843, 80.9819236905314, 0.5920000281184912, 0.7840000372380018, 0.3680000174790621, 0.0, 0.0, 0.0, 0.0, 0.0, 1.7103912652944212E9, 0.0, 2024-03-13 21:41:05.294
27.0, 214.21959951194003, 116.69422836741433, -40.691981467884034, 86.03078863071278, 0.5920000281184912, 0.7840000372380018, 0.3680000174790621, 0.0, 0.0, 0.0, 0.0, 0.0, 1.7103912652953756E9, 0.0, 2024-03-13 21:41:05.295
27.0, 212.7161597297527, 108.1074180691503, -54.07334350934252, 75.32345505757257, 0.5920000281184912, 0.7840000372380018, 0.3680000174790621, 0.0, 0.0, 0.0, 0.0, 0.0, 1.7103912652953756E9, 0.0, 2024-03-13 21:41:05.295
28.0, 229.18667913461104, 118.036852451507, -62.360961811151356, 81.89819917967543, 0.5920000281184912, 0.7840000372380018, 0.3680000174790621, 0.0, 0.0, 0.0, 0.0, 0.0, 1.7103912653087113E9, 0.0, 2024-03-13 21:41:05.308
28.0, 212.27859143493697, 114.49142729351297, -55.961992986965925, 74.35482096904889, 0.5920000281184912, 0.7840000372380018, 0.3680000174790621, 0.0, 0.0, 0.0, 0.0, 0.0, 1.7103912653087113E9, 0.0, 2024-03-13 21:41:05.308
29.0, 207.60745639028028, 107.57635227544233, -59.4924585451372, 71.3105424051173, 0.5920000281184912, 0.7840000372380018, 0.3680000174790621, 0.0, 0.0, 0.0, 0.0, 0.0, 1.7103912653245382E9, 0.0, 2024-03-13 21:41:05.324
29.0, 216.20174648845568, 114.4054095945321, -69.26481712935492, 84.38897255016491, 0.5920000281184912, 0.7840000372380018, 0.3680000174790621, 0.0, 0.0, 0.0, 0.0, 0.0, 1.7103912653245382E9, 0.0, 2024-03-13 21:41:05.324
30.0, 219.62375494791195, 116.6680490677245, -57.23355897190049, 82.31332807475701, 0.5920000281184912, 0.7840000372380018, 0.3680000174790621, 0.0, 0.0, 0.0, 0.0, 0.0, 1.7103912653251312E9, 0.0, 2024-03-13 21:41:05.325
30.0, 212.43940713303164, 105.698922497686, -55.150434696581215, 74.93076556222513, 0.5920000281184912, 0.7840000372380018, 0.3680000174790621, 0.0, 0.0, 0.0, 0.0, 0.0, 1.7103912653251312E9, 0.0, 2024-03-13 21:41:05.325
31.0, 211.39223514543846, 106.15519029228017, -65.22572517720982, 78.32659472199157, 0.5920000281184912, 0.7840000372380018, 0.3680000174790621, 0.0, 0.0, 0.0, 0.0, 0.0, 1.7103912653553448E9, 0.0, 2024-03-13 21:41:05.355
31.0, 211.69142714189366, 111.4060098300688, -64.46652548620477, 76.22477094689384, 0.5920000281184912, 0.7840000372380018, 0.3680000174790621, 0.0, 0.0, 0.0, 0.0, 0.0, 1.7103912653553448E9, 0.0, 2024-03-13 21:41:05.355
32.0, 219.44797964999452, 113.13010370964184, -48.59065017430112, 84.46003064932302, 0.5920000281184912, 0.7840000372380018, 0.3680000174790621, 0.0, 0.0, 0.0, 0.0, 0.0, 1.7103912653558784E9, 0.0, 2024-03-13 21:41:05.355
32.0, 214.94888000329956, 106.63389748660848, -61.2689110240899, 77.64219303010032, 0.5920000281184912, 0.7840000372380018, 0.3680000174790621, 0.0, 0.0, 0.0, 0.0, 0.0, 1.7103912653558784E9, 0.0, 2024-03-13 21:41:05.355
33.0, 225.0466098836623, 117.7414003550075, -72.4212926919572, 78.5360291195102, 0.5920000281184912, 0.7840000372380018, 0.3680000174790621, 0.0, 0.0, 0.0, 0.0, 0.0, 1.71039126535653E9, 0.0, 2024-03-13 21:41:05.356
33.0, 214.76562490547076, 110.7739667375572, -62.63397450791672, 67.5295035499148, 0.5920000281184912, 0.7840000372380018, 0.3680000174790621, 0.0, 0.0, 0.0, 0.0, 0.0, 1.71039126535653E9, 0.0, 2024-03-13 21:41:05.356
34.0, 200.4792070747353, 93.88831843761727, -62.420800210442394, 59.619615143630654, 0.5920000281184912, 0.7840000372380018, 0.3680000174790621, 0.0, 0.0, 0.0, 0.0, 0.0, 1.710391265368624E9, 0.0, 2024-03-13 21:41:05.368
34.0, 206.8557364991866, 96.02380131231621, -76.89047313900664, 65.09108877880499, 0.5920000281184912, 0.7840000372380018, 0.3680000174790621, 0.0, 0.0, 0.0, 0.0, 0.0, 1.710391265368624E9, 0.0, 2024-03-13 21:41:05.368
35.0, 200.18001507828012, 98.59685248183087, -61.81493641762063, 69.74352432368323, 0.5920000281184912, 0.7840000372380018, 0.3680000174790621, 0.0, 0.0, 0.0, 0.0, 0.0, 1.7103912653843343E9, 0.0, 2024-03-13 21:41:05.384
35.0, 190.1421235972084, 92.88228534953669, -70.02027692040429, 64.67595988372341, 0.5920000281184912, 0.7840000372380018, 0.3680000174790621, 0.0, 0.0, 0.0, 0.0, 0.0, 1.7103912653843343E9, 0.0, 2024-03-13 21:41:05.384
36.0, 205.88336251070723, 100.31720646144822, -76.25843004649505, 73.06455548433587, 0.5920000281184912, 0.7840000372380018, 0.3680000174790621, 0.0, 0.0, 0.0, 0.0, 0.0, 1.7103912653853908E9, 0.0, 2024-03-13 21:41:05.385
36.0, 214.6384683069773, 109.46500175306574, -56.61273557925597, 82.70601757010445, 0.5920000281184912, 0.7840000372380018, 0.3680000174790621, 0.0, 0.0, 0.0, 0.0, 0.0, 1.7103912653853908E9, 0.0, 2024-03-13 21:41:05.385
37.0, 193.46315475786105, 92.07820685906336, -45.916621705982834, 62.787310406100005, 0.5920000281184912, 0.7840000372380018, 0.3680000174790621, 0.0, 0.0, 0.0, 0.0, 0.0, 1.710391265398708E9, 0.0, 2024-03-13 21:41:05.398
37.0, 185.90855684736744, 85.38378593837842, -67.58934194920585, 59.72059244243428, 0.5920000281184912, 0.7840000372380018, 0.3680000174790621, 0.0, 0.0, 0.0, 0.0, 0.0, 1.710391265398708E9, 0.0, 2024-03-13 21:41:05.398
38.0, 192.0345129747875, 88.08773360634223, -84.37401295034215, 64.68343968363479, 0.5920000281184912, 0.7840000372380018, 0.3680000174790621, 0.0, 0.0, 0.0, 0.0, 0.0, 1.7103912654144378E9, 0.0, 2024-03-13 21:41:05.414
38.0, 186.35360494209453, 88.23358970461413, -61.990711715538055, 59.518637844827026, 0.5920000281184912, 0.7840000372380018, 0.3680000174790621, 0.0, 0.0, 0.0, 0.0, 0.0, 1.7103912654144378E9, 0.0, 2024-03-13 21:41:05.414
39.0, 189.54747950425372, 84.9088186440058, -64.5675027850084, 59.148387749213725, 0.5920000281184912, 0.7840000372380018, 0.3680000174790621, 0.0, 0.0, 0.0, 0.0, 0.0, 1.7103912654150245E9, 0.0, 2024-03-13 21:41:05.415
39.0, 206.36580960499123, 95.67973051639274, -80.12174670072272, 64.42538658669218, 0.5920000281184912, 0.7840000372380018, 0.3680000174790621, 0.0, 0.0, 0.0, 0.0, 0.0, 1.7103912654150245E9, 0.0, 2024-03-13 21:41:05.415
40.0, 210.28148485859856, 107.13130418071523, -51.941600534599274, 73.01967668486759, 0.5920000281184912, 0.7840000372380018, 0.3680000174790621, 0.0, 0.0, 0.0, 0.0, 0.0, 1.710391265428628E9, 0.0, 2024-03-13 21:41:05.428
40.0, 202.038745356258, 105.04817990539595, -51.57509033894166, 71.21330500626937, 0.5920000281184912, 0.7840000372380018, 0.3680000174790621, 0.0, 0.0, 0.0, 0.0, 0.0, 1.710391265428628E9, 0.0, 2024-03-13 21:41:05.428
41.0, 217.96323936758563, 106.20380899170414, -73.90977287432179, 74.56425536656752, 0.5920000281184912, 0.7840000372380018, 0.3680000174790621, 0.0, 0.0, 0.0, 0.0, 0.0, 1.71039126544429E9, 0.0, 2024-03-13 21:41:05.444
41.0, 217.17038057697937, 105.90835689520463, -61.68777981912717, 71.09362820768729, 0.5920000281184912, 0.7840000372380018, 0.3680000174790621, 0.0, 0.0, 0.0, 0.0, 0.0, 1.71039126544429E9, 0.0, 2024-03-13 21:41:05.444
42.0, 193.02932636300102, 87.9119583084248, -73.18423228291795, 49.910834858659655, 0.5920000281184912, 0.7840000372380018, 0.3680000174790621, 0.0, 0.0, 0.0, 0.0, 0.0, 1.7103912654450157E9, 0.0, 2024-03-13 21:41:05.445
42.0, 196.87768341740593, 85.66801833501086, -77.72821072908118, 54.327656706329435, 0.5920000281184912, 0.7840000372380018, 0.3680000174790621, 0.0, 0.0, 0.0, 0.0, 0.0, 1.7103912654450157E9, 0.0, 2024-03-13 21:41:05.445
43.0, 204.31260452931747, 90.31297407997772, -74.30994216958061, 65.1210079784505, 0.5920000281184912, 0.7840000372380018, 0.3680000174790621, 0.0, 0.0, 0.0, 0.0, 0.0, 1.710391265458609E9, 0.0, 2024-03-13 21:41:05.458
43.0, 201.4889800627716, 100.15639076335356, -57.65616766689345, 70.39800681592897, 0.5920000281184912, 0.7840000372380018, 0.3680000174790621, 0.0, 0.0, 0.0, 0.0, 0.0, 1.710391265458609E9, 0.0, 2024-03-13 21:41:05.458
44.0, 206.72857990069315, 97.7703345916234, -47.01241239299998, 72.32031539315358, 0.5920000281184912, 0.7840000372380018, 0.3680000174790621, 0.0, 0.0, 0.0, 0.0, 0.0, 1.710391265474321E9, 0.0, 2024-03-13 21:41:05.474
44.0, 214.36171571025625, 101.14372435165569, -69.67246622452512, 74.19774517090991, 0.5920000281184912, 0.7840000372380018, 0.3680000174790621, 0.0, 0.0, 0.0, 0.0, 0.0, 1.710391265474321E9, 0.0, 2024-03-13 21:41:05.474
45.0, 214.0812232135795, 106.34218529006466, -53.979846010450274, 81.25119648734108, 0.5920000281184912, 0.7840000372380018, 0.3680000174790621, 0.0, 0.0, 0.0, 0.0, 0.0, 1.7103912654751303E9, 0.0, 2024-03-13 21:41:05.475
45.0, 213.8231701166369, 104.7003692095168, -47.70055398484692, 74.69889176497236, 0.5920000281184912, 0.7840000372380018, 0.3680000174790621, 0.0, 0.0, 0.0, 0.0, 0.0, 1.7103912654751303E9, 0.0, 2024-03-13 21:41:05.475
46.0, 208.2320196828805, 96.07242001174018, -65.74557127105072, 66.29159666458145, 0.5920000281184912, 0.7840000372380018, 0.3680000174790621, 0.0, 0.0, 0.0, 0.0, 0.0, 1.710391265488794E9, 0.0, 2024-03-13 21:41:05.488
46.0, 207.84680998744443, 99.37849157257006, -63.65870709577575, 78.66318571800366, 0.5920000281184912, 0.7840000372380018, 0.3680000174790621, 0.0, 0.0, 0.0, 0.0, 0.0, 1.710391265488794E9, 0.0, 2024-03-13 21:41:05.488
47.0, 209.77285846462473, 97.7665946916677, -52.704540125560015, 73.62554047768936, 0.5920000281184912, 0.7840000372380018, 0.3680000174790621, 0.0, 0.0, 0.0, 0.0, 0.0, 1.7103912655047565E9, 0.0, 2024-03-13 21:41:05.504
47.0, 198.15672920225188, 88.49538270151243, -74.60165436612442, 62.25250471243635, 0.5920000281184912, 0.7840000372380018, 0.3680000174790621, 0.0, 0.0, 0.0, 0.0, 0.0, 1.7103912655047565E9, 0.0, 2024-03-13 21:41:05.504
48.0, 210.72653295332566, 98.89230457833037, -93.84717953810468, 72.56340889027342, 0.5920000281184912, 0.7840000372380018, 0.3680000174790621, 0.0, 0.0, 0.0, 0.0, 0.0, 1.710391265505469E9, 0.0, 2024-03-13 21:41:05.505
48.0, 213.51275842031464, 110.43363584158942, -56.306063782889396, 78.76790291676298, 0.5920000281184912, 0.7840000372380018, 0.3680000174790621, 0.0, 0.0, 0.0, 0.0, 0.0, 1.710391265505469E9, 0.0, 2024-03-13 21:41:05.505
49.0, 213.8979681157507, 104.42735651275143, -73.2029317826964, 65.33792217588052, 0.5920000281184912, 0.7840000372380018, 0.3680000174790621, 0.0, 0.0, 0.0, 0.0, 0.0, 1.7103912655190935E9, 0.0, 2024-03-13 21:41:05.519
49.0, 218.96927245566621, 103.75791442068294, -86.88348582061008, 63.67366669559851, 0.5920000281184912, 0.7840000372380018, 0.3680000174790621, 0.0, 0.0, 0.0, 0.0, 0.0, 1.7103912655190935E9, 0.0, 2024-03-13 21:41:05.519
50.0, 220.8691416331567, 118.24628684902564, -67.06575595540926, 80.07312800129876, 0.5920000281184912, 0.7840000372380018, 0.3680000174790621, 0.0, 0.0, 0.0, 0.0, 0.0, 1.7103912655343797E9, 0.0, 2024-03-13 21:41:05.534
50.0, 216.75899158185348, 113.76588670210913, -53.538537815678865, 70.25589061761275, 0.5920000281184912, 0.7840000372380018, 0.3680000174790621, 0.0, 0.0, 0.0, 0.0, 0.0, 1.7103912655343797E9, 0.0, 2024-03-13 21:41:05.534
51.0, 211.14540174836293, 101.98520184168592, -83.80928805703297, 63.187479701358825, 0.5920000281184912, 0.7840000372380018, 0.3680000174790621, 0.0, 0.0, 0.0, 0.0, 0.0, 1.7103912655355124E9, 0.0, 2024-03-13 21:41:05.535
51.0, 209.5222851675935, 109.1471102568321, -74.5380760668777, 73.6068409779109, 0.5920000281184912, 0.7840000372380018, 0.3680000174790621, 0.0, 0.0, 0.0, 0.0, 0.0, 1.7103912655355124E9, 0.0, 2024-03-13 21:41:05.535
52.0, 205.28497851779684, 104.76768740871921, -60.20677943667397, 71.50127730285749, 0.5920000281184912, 0.7840000372380018, 0.3680000174790621, 0.0, 0.0, 0.0, 0.0, 0.0, 1.7103912655488536E9, 0.0, 2024-03-13 21:41:05.548
52.0, 209.73171956511214, 99.36727187270299, -77.75439002877101, 72.2380375941284, 0.5920000281184912, 0.7840000372380018, 0.3680000174790621, 0.0, 0.0, 0.0, 0.0, 0.0, 1.7103912655488536E9, 0.0, 2024-03-13 21:41:05.548
53.0, 204.61553642572835, 99.89833766641095, -75.73858395265415, 68.59163513733074, 0.5920000281184912, 0.7840000372380018, 0.3680000174790621, 0.0, 0.0, 0.0, 0.0, 0.0, 1.7103912655807405E9, 0.0, 2024-03-13 21:41:05.580
53.0, 204.94838752178475, 100.53038075892255, -54.61562900291756, 78.7604231168516, 0.5920000281184912, 0.7840000372380018, 0.3680000174790621, 0.0, 0.0, 0.0, 0.0, 0.0, 1.7103912655807405E9, 0.0, 2024-03-13 21:41:05.580
54.0, 198.00713320402429, 91.33022686792538, -68.77115033520386, 68.67765283631161, 0.5920000281184912, 0.7840000372380018, 0.3680000174790621, 0.0, 0.0, 0.0, 0.0, 0.0, 1.7103912655815532E9, 0.0, 2024-03-13 21:41:05.581
54.0, 197.7378604072146, 87.08918031817302, -93.43953044293448, 60.20303953671828, 0.5920000281184912, 0.7840000372380018, 0.3680000174790621, 0.0, 0.0, 0.0, 0.0, 0.0, 1.7103912655815532E9, 0.0, 2024-03-13 21:41:05.581
55.0, 210.31888385815546, 103.33530572568998, -67.55942274956033, 68.94692563312128, 0.5920000281184912, 0.7840000372380018, 0.3680000174790621, 0.0, 0.0, 0.0, 0.0, 0.0, 1.7103912655822248E9, 0.0, 2024-03-13 21:41:05.582
55.0, 202.147202454973, 100.22744886251166, -46.649642097298056, 66.9012003573589, 0.5920000281184912, 0.7840000372380018, 0.3680000174790621, 0.0, 0.0, 0.0, 0.0, 0.0, 1.7103912655822248E9, 0.0, 2024-03-13 21:41:05.582
56.0, 201.0364521681331, 95.85176591435447, -81.82340118056163, 61.541923720855266, 0.5920000281184912, 0.7840000372380018, 0.3680000174790621, 0.0, 0.0, 0.0, 0.0, 0.0, 1.7103912655829856E9, 0.0, 2024-03-13 21:41:05.582
56.0, 213.55763721978292, 110.48599444096908, -68.47943813866004, 78.30415532225743, 0.5920000281184912, 0.7840000372380018, 0.3680000174790621, 0.0, 0.0, 0.0, 0.0, 0.0, 1.7103912655829856E9, 0.0, 2024-03-13 21:41:05.582
57.0, 220.02766414312646, 117.9246554528363, -39.37553668348119, 92.96830304851755, 0.5920000281184912, 0.7840000372380018, 0.3680000174790621, 0.0, 0.0, 0.0, 0.0, 0.0, 1.7103912655936086E9, 0.0, 2024-03-13 21:41:05.593
57.0, 216.7178526823409, 111.23023453215137, -59.70189294265583, 79.0184762137942, 0.5920000281184912, 0.7840000372380018, 0.3680000174790621, 0.0, 0.0, 0.0, 0.0, 0.0, 1.7103912655936086E9, 0.0, 2024-03-13 21:41:05.593
58.0, 201.36182346427813, 98.40237768413499, -86.2103038285859, 65.42393987486139, 0.5920000281184912, 0.7840000372380018, 0.3680000174790621, 0.0, 0.0, 0.0, 0.0, 0.0, 1.7103912656087863E9, 0.0, 2024-03-13 21:41:05.608
58.0, 208.58357027871534, 109.61085785133764, -56.43322038138285, 77.47389753209427, 0.5920000281184912, 0.7840000372380018, 0.3680000174790621, 0.0, 0.0, 0.0, 0.0, 0.0, 1.7103912656087863E9, 0.0, 2024-03-13 21:41:05.608
59.0, 208.84536327561364, 105.64282399835065, -52.55494412733242, 80.40223919739947, 0.5920000281184912, 0.7840000372380018, 0.3680000174790621, 0.0, 0.0, 0.0, 0.0, 0.0, 1.7103912656243536E9, 0.0, 2024-03-13 21:41:05.624
59.0, 211.4483336447738, 101.8094265437685, -77.57861473085359, 78.72676401725039, 0.5920000281184912, 0.7840000372380018, 0.3680000174790621, 0.0, 0.0, 0.0, 0.0, 0.0, 1.7103912656243536E9, 0.0, 2024-03-13 21:41:05.624
60.0, 205.71506701270118, 102.75562123255804, -64.93027308071032, 74.9793842616491, 0.5920000281184912, 0.7840000372380018, 0.3680000174790621, 0.0, 0.0, 0.0, 0.0, 0.0, 1.7103912656250837E9, 0.0, 2024-03-13 21:41:05.625
60.0, 213.91292771557346, 106.3309655901976, -56.5267178802751, 77.6085339304991, 0.5920000281184912, 0.7840000372380018, 0.3680000174790621, 0.0, 0.0, 0.0, 0.0, 0.0, 1.7103912656250837E9, 0.0, 2024-03-13 21:41:05.625
61.0, 220.59612893639132, 113.1488032094203, -68.36350124003366, 76.44168514432386, 0.5920000281184912, 0.7840000372380018, 0.3680000174790621, 0.0, 0.0, 0.0, 0.0, 0.0, 1.710391265639034E9, 0.0, 2024-03-13 21:41:05.639
61.0, 213.77455141721293, 106.95178898284212, -74.4595381678082, 73.96587137365714, 0.5920000281184912, 0.7840000372380018, 0.3680000174790621, 0.0, 0.0, 0.0, 0.0, 0.0, 1.710391265639034E9, 0.0, 2024-03-13 21:41:05.639
62.0, 215.77913779346272, 109.38272395404056, -64.17481328966096, 69.65376672474667, 0.5920000281184912, 0.7840000372380018, 0.3680000174790621, 0.0, 0.0, 0.0, 0.0, 0.0, 1.7103912656551907E9, 0.0, 2024-03-13 21:41:05.655
62.0, 209.64944176608697, 96.68202370451763, -77.50755663169548, 60.4910118333064, 0.5920000281184912, 0.7840000372380018, 0.3680000174790621, 0.0, 0.0, 0.0, 0.0, 0.0, 1.7103912656551907E9, 0.0, 2024-03-13 21:41:05.655
63.0, 211.5642705434002, 105.24639460304752, -86.54689482459798, 71.96502489736304, 0.5920000281184912, 0.7840000372380018, 0.3680000174790621, 0.0, 0.0, 0.0, 0.0, 0.0, 1.7103912656559649E9, 0.0, 2024-03-13 21:41:05.655
63.0, 209.0847168727778, 107.92790287127718, -62.60031540831551, 71.65461320104077, 0.5920000281184912, 0.7840000372380018, 0.3680000174790621, 0.0, 0.0, 0.0, 0.0, 0.0, 1.7103912656559649E9, 0.0, 2024-03-13 21:41:05.655
64.0, 205.1952209188603, 98.85490557877347, -68.3448017402552, 65.46881867432967, 0.5920000281184912, 0.7840000372380018, 0.3680000174790621, 0.0, 0.0, 0.0, 0.0, 0.0, 1.710391265668824E9, 0.0, 2024-03-13 21:41:05.668
64.0, 210.87612895155326, 101.54015374695882, -82.4629240729846, 69.83328192261979, 0.5920000281184912, 0.7840000372380018, 0.3680000174790621, 0.0, 0.0, 0.0, 0.0, 0.0, 1.710391265668824E9, 0.0, 2024-03-13 21:41:05.668
65.0, 205.10172341996804, 103.09221222857013, -66.1980991656892, 73.07577518420294, 0.5920000281184912, 0.7840000372380018, 0.3680000174790621, 0.0, 0.0, 0.0, 0.0, 0.0, 1.7103912656843274E9, 0.0, 2024-03-13 21:41:05.684
65.0, 202.62216974934563, 106.15893019223586, -59.140907949302346, 75.69370515318587, 0.5920000281184912, 0.7840000372380018, 0.3680000174790621, 0.0, 0.0, 0.0, 0.0, 0.0, 1.7103912656843274E9, 0.0, 2024-03-13 21:41:05.684
66.0, 210.51335865585133, 103.02489402936772, -85.15565204108134, 70.44662551535293, 0.5920000281184912, 0.7840000372380018, 0.3680000174790621, 0.0, 0.0, 0.0, 0.0, 0.0, 1.7103912656852074E9, 0.0, 2024-03-13 21:41:05.685
66.0, 199.51057298621163, 105.52688709972426, -81.04924188973382, 67.0881953551434, 0.5920000281184912, 0.7840000372380018, 0.3680000174790621, 0.0, 0.0, 0.0, 0.0, 0.0, 1.7103912656852074E9, 0.0, 2024-03-13 21:41:05.685
67.0, 212.81339712860063, 112.55789901642129, -55.70767978997901, 80.70517109381035, 0.5920000281184912, 0.7840000372380018, 0.3680000174790621, 0.0, 0.0, 0.0, 0.0, 0.0, 1.7103912656986756E9, 0.0, 2024-03-13 21:41:05.698
67.0, 199.3385375882499, 97.46740269521251, -73.54700257861987, 63.86814149329439, 0.5920000281184912, 0.7840000372380018, 0.3680000174790621, 0.0, 0.0, 0.0, 0.0, 0.0, 1.7103912656986756E9, 0.0, 2024-03-13 21:41:05.698
68.0, 196.1072640265338, 92.49333575414494, -93.88457853766158, 54.772704801056534, 0.5920000281184912, 0.7840000372380018, 0.3680000174790621, 0.0, 0.0, 0.0, 0.0, 0.0, 1.710391265714345E9, 0.0, 2024-03-13 21:41:05.714
68.0, 188.14501702087, 85.65679863514379, -70.74955741176382, 44.88066941825673, 0.5920000281184912, 0.7840000372380018, 0.3680000174790621, 0.0, 0.0, 0.0, 0.0, 0.0, 1.710391265714345E9, 0.0, 2024-03-13 21:41:05.714
69.0, 187.23248143168166, 82.67983827041462, -73.74147737631574, 51.80696413619444, 0.5920000281184912, 0.7840000372380018, 0.3680000174790621, 0.0, 0.0, 0.0, 0.0, 0.0, 1.7103912657150087E9, 0.0, 2024-03-13 21:41:05.715
69.0, 193.79974575387314, 89.71085018711165, -91.77527496265247, 56.54915728000924, 0.5920000281184912, 0.7840000372380018, 0.3680000174790621, 0.0, 0.0, 0.0, 0.0, 0.0, 1.7103912657150087E9, 0.0, 2024-03-13 21:41:05.715
70.0, 198.53071919782087, 100.37330496078357, -72.40633309213445, 63.08276250259951, 0.5920000281184912, 0.7840000372380018, 0.3680000174790621, 0.0, 0.0, 0.0, 0.0, 0.0, 1.7103912657287557E9, 0.0, 2024-03-13 21:41:05.728
70.0, 193.78852605400607, 89.41539809061214, -72.21933809434995, 57.21111957216635, 0.5920000281184912, 0.7840000372380018, 0.3680000174790621, 0.0, 0.0, 0.0, 0.0, 0.0, 1.7103912657287557E9, 0.0, 2024-03-13 21:41:05.728
71.0, 191.2192147844471, 84.60962664755061, -93.38717184355482, 52.89153512334451, 0.5920000281184912, 0.7840000372380018, 0.3680000174790621, 0.0, 0.0, 0.0, 0.0, 0.0, 1.7103912657443595E9, 0.0, 2024-03-13 21:41:05.744
71.0, 196.3727969233878, 95.23842232162133, -85.29402833944187, 61.149234225507826, 0.5920000281184912, 0.7840000372380018, 0.3680000174790621, 0.0, 0.0, 0.0, 0.0, 0.0, 1.7103912657443595E9, 0.0, 2024-03-13 21:41:05.744
72.0, 206.2685722061433, 103.29790672613308, -65.33418227592483, 69.92677942151204, 0.5920000281184912, 0.7840000372380018, 0.3680000174790621, 0.0, 0.0, 0.0, 0.0, 0.0, 1.7103912657450728E9, 0.0, 2024-03-13 21:41:05.745
72.0, 201.04767186800018, 92.8037474504672, -86.74136962229386, 53.59089641505852, 0.5920000281184912, 0.7840000372380018, 0.3680000174790621, 0.0, 0.0, 0.0, 0.0, 0.0, 1.7103912657450728E9, 0.0, 2024-03-13 21:41:05.745
73.0, 198.7775525948964, 89.00400909548625, -100.60517875803635, 49.465786763932556, 0.5920000281184912, 0.7840000372380018, 0.3680000174790621, 0.0, 0.0, 0.0, 0.0, 0.0, 1.710391265758712E9, 0.0, 2024-03-13 21:41:05.758
73.0, 195.7444937308319, 97.41504409583285, -70.37930731615052, 58.01893796259537, 0.5920000281184912, 0.7840000372380018, 0.3680000174790621, 0.0, 0.0, 0.0, 0.0, 0.0, 1.710391265758712E9, 0.0, 2024-03-13 21:41:05.758
74.0, 196.0773448268883, 92.97204294847324, -76.572581642773, 57.42803376959637, 0.5920000281184912, 0.7840000372380018, 0.3680000174790621, 0.0, 0.0, 0.0, 0.0, 0.0, 1.710391265774316E9, 0.0, 2024-03-13 21:41:05.774
74.0, 206.4518273039721, 102.02260084124282, -76.9091726387851, 61.85607531713322, 0.5920000281184912, 0.7840000372380018, 0.3680000174790621, 0.0, 0.0, 0.0, 0.0, 0.0, 1.710391265774316E9, 0.0, 2024-03-13 21:41:05.774
75.0, 206.30971110565588, 106.55909948749468, -56.15272788470611, 69.11896103108302, 0.5920000281184912, 0.7840000372380018, 0.3680000174790621, 0.0, 0.0, 0.0, 0.0, 0.0, 1.7103912657750137E9, 0.0, 2024-03-13 21:41:05.775
75.0, 192.8498111651279, 92.72146965144202, -82.63495947094634, 56.61273557925597, 0.5920000281184912, 0.7840000372380018, 0.3680000174790621, 0.0, 0.0, 0.0, 0.0, 0.0, 1.7103912657750137E9, 0.0, 2024-03-13 21:41:05.775
76.0, 197.1469562142156, 87.70252391090617, -104.19174281554297, 54.56701030349359, 0.5920000281184912, 0.7840000372380018, 0.3680000174790621, 0.0, 0.0, 0.0, 0.0, 0.0, 1.710391265788742E9, 0.0, 2024-03-13 21:41:05.788
76.0, 195.96888772817329, 93.0281414478086, -80.93330499110743, 55.950773287098855, 0.5920000281184912, 0.7840000372380018, 0.3680000174790621, 0.0, 0.0, 0.0, 0.0, 0.0, 1.710391265788742E9, 0.0, 2024-03-13 21:41:05.788
77.0, 190.86766418861225, 89.49393598968163, -69.21245852997527, 57.184940272476524, 0.5920000281184912, 0.7840000372380018, 0.3680000174790621, 0.0, 0.0, 0.0, 0.0, 0.0, 1.7103912658045704E9, 0.0, 2024-03-13 21:41:05.804
77.0, 191.19303548475727, 84.32539425091818, -83.69335115840659, 50.5989764505066, 0.5920000281184912, 0.7840000372380018, 0.3680000174790621, 0.0, 0.0, 0.0, 0.0, 0.0, 1.7103912658045704E9, 0.0, 2024-03-13 21:41:05.804
78.0, 199.47317398665473, 95.78818761510774, -88.02041540713981, 56.59403607947752, 0.5920000281184912, 0.7840000372380018, 0.3680000174790621, 0.0, 0.0, 0.0, 0.0, 0.0, 1.7103912658051195E9, 0.0, 2024-03-13 21:41:05.805
78.0, 202.7418465479277, 99.42711027199402, -73.1991918827407, 58.43032695772126, 0.5920000281184912, 0.7840000372380018, 0.3680000174790621, 0.0, 0.0, 0.0, 0.0, 0.0, 1.7103912658051195E9, 0.0, 2024-03-13 21:41:05.805
79.0, 206.1563752074726, 100.01427456503734, -68.10170824313536, 59.915067240130156, 0.5920000281184912, 0.7840000372380018, 0.3680000174790621, 0.0, 0.0, 0.0, 0.0, 0.0, 1.710391265819152E9, 0.0, 2024-03-13 21:41:05.819
79.0, 201.5637780618854, 94.41938423132524, -93.66392444027588, 55.483285792637616, 0.5920000281184912, 0.7840000372380018, 0.3680000174790621, 0.0, 0.0, 0.0, 0.0, 0.0, 1.710391265819152E9, 0.0, 2024-03-13 21:41:05.819
80.0, 209.06975727295503, 103.13709102803841, -64.69465938350186, 65.56231617322192, 0.5920000281184912, 0.7840000372380018, 0.3680000174790621, 0.0, 0.0, 0.0, 0.0, 0.0, 1.7103912658346596E9, 0.0, 2024-03-13 21:41:05.834
80.0, 210.88360875146464, 108.60482476325706, -62.364701711107045, 63.84944199351594, 0.5920000281184912, 0.7840000372380018, 0.3680000174790621, 0.0, 0.0, 0.0, 0.0, 0.0, 1.7103912658346596E9, 0.0, 2024-03-13 21:41:05.834
81.0, 211.34735634597018, 100.45932265976444, -75.48053085571155, 62.53673710906878, 0.5920000281184912, 0.7840000372380018, 0.3680000174790621, 0.0, 0.0, 0.0, 0.0, 0.0, 1.7103912658353124E9, 0.0, 2024-03-13 21:41:05.835
81.0, 208.77056527649984, 99.81231996743008, -75.82086175167933, 64.53384368540719, 0.5920000281184912, 0.7840000372380018, 0.3680000174790621, 0.0, 0.0, 0.0, 0.0, 0.0, 1.7103912658353124E9, 0.0, 2024-03-13 21:41:05.835
82.0, 209.4512270684354, 104.8836243073456, -56.6763138785027, 67.03957665571943, 0.5920000281184912, 0.7840000372380018, 0.3680000174790621, 0.0, 0.0, 0.0, 0.0, 0.0, 1.7103912658486753E9, 0.0, 2024-03-13 21:41:05.848
82.0, 201.5637780618854, 94.03043463593349, -82.20113107608631, 58.59114265581593, 0.5920000281184912, 0.7840000372380018, 0.3680000174790621, 0.0, 0.0, 0.0, 0.0, 0.0, 1.7103912658486753E9, 0.0, 2024-03-13 21:41:05.848
83.0, 200.10521707916632, 92.14926495822147, -98.36871858453378, 52.02761823358014, 0.5920000281184912, 0.7840000372380018, 0.3680000174790621, 0.0, 0.0, 0.0, 0.0, 0.0, 1.710391265864349E9, 0.0, 2024-03-13 21:41:05.864
83.0, 202.03500545630231, 100.88941115466878, -62.87706800503656, 62.44323961017653, 0.5920000281184912, 0.7840000372380018, 0.3680000174790621, 0.0, 0.0, 0.0, 0.0, 0.0, 1.710391265864349E9, 0.0, 2024-03-13 21:41:05.864
84.0, 202.65956874890253, 101.21104255085811, -73.63302027760074, 64.61612148443237, 0.5920000281184912, 0.7840000372380018, 0.3680000174790621, 0.0, 0.0, 0.0, 0.0, 0.0, 1.7103912658650467E9, 0.0, 2024-03-13 21:41:05.865
84.0, 207.0389915970154, 98.86612527864054, -86.48331652535126, 61.36614842293784, 0.5920000281184912, 0.7840000372380018, 0.3680000174790621, 0.0, 0.0, 0.0, 0.0, 0.0, 1.7103912658650467E9, 0.0, 2024-03-13 21:41:05.865
85.0, 204.14056913135573, 96.69698330434039, -72.07348199607804, 61.24647162435576, 0.5920000281184912, 0.7840000372380018, 0.3680000174790621, 0.0, 0.0, 0.0, 0.0, 0.0, 1.7103912658787105E9, 0.0, 2024-03-13 21:41:05.878
85.0, 213.83812971645966, 110.78144653746858, -68.73001143569127, 64.4216466867365, 0.5920000281184912, 0.7840000372380018, 0.3680000174790621, 0.0, 0.0, 0.0, 0.0, 0.0, 1.7103912658787105E9, 0.0, 2024-03-13 21:41:05.878
86.0, 207.22224669484422, 100.69119645701721, -80.62663319474086, 65.28182367654517, 0.5920000281184912, 0.7840000372380018, 0.3680000174790621, 0.0, 0.0, 0.0, 0.0, 0.0, 1.71039126589441E9, 0.0, 2024-03-13 21:41:05.894
86.0, 212.80591732868925, 110.1456635450013, -81.7635627812706, 69.29099642904475, 0.5920000281184912, 0.7840000372380018, 0.3680000174790621, 0.0, 0.0, 0.0, 0.0, 0.0, 1.71039126589441E9, 0.0, 2024-03-13 21:41:05.894
87.0, 220.35303543927148, 117.78627915447578, -50.77849164837971, 82.54894177196547, 0.5920000281184912, 0.7840000372380018, 0.3680000174790621, 0.0, 0.0, 0.0, 0.0, 0.0, 1.710391265895043E9, 0.0, 2024-03-13 21:41:05.895
87.0, 215.21815280010924, 112.89449001243338, -66.9759983564727, 82.80699486890808, 0.5920000281184912, 0.7840000372380018, 0.3680000174790621, 0.0, 0.0, 0.0, 0.0, 0.0, 1.710391265895043E9, 0.0, 2024-03-13 21:41:05.895
88.0, 224.84465528605506, 120.73332031955943, -66.25045776506886, 86.49453622521833, 0.5920000281184912, 0.7840000372380018, 0.3680000174790621, 0.0, 0.0, 0.0, 0.0, 0.0, 1.7103912659086647E9, 0.0, 2024-03-13 21:41:05.908
88.0, 219.21984575269744, 119.83574433019385, -53.934967210981995, 83.37919956212863, 0.5920000281184912, 0.7840000372380018, 0.3680000174790621, 0.0, 0.0, 0.0, 0.0, 0.0, 1.7103912659086647E9, 0.0, 2024-03-13 21:41:05.908
89.0, 225.4542589788325, 118.99052694020793, -57.65616766689345, 78.46871092030779, 0.5920000281184912, 0.7840000372380018, 0.3680000174790621, 0.0, 0.0, 0.0, 0.0, 0.0, 1.710391265924373E9, 0.0, 2024-03-13 21:41:05.924
89.0, 221.99111161986366, 112.51302021695301, -91.88747196132317, 73.1281337835826, 0.5920000281184912, 0.7840000372380018, 0.3680000174790621, 0.0, 0.0, 0.0, 0.0, 0.0, 1.710391265924373E9, 0.0, 2024-03-13 21:41:05.924
90.0, 216.7477718819864, 115.80413217796013, -68.12040774291381, 70.9066332099028, 0.5920000281184912, 0.7840000372380018, 0.3680000174790621, 0.0, 0.0, 0.0, 0.0, 0.0, 1.7103912659250295E9, 0.0, 2024-03-13 21:41:05.925
90.0, 216.50841828482226, 110.6243707393296, -71.18338580662385, 68.89830693369731, 0.5920000281184912, 0.7840000372380018, 0.3680000174790621, 0.0, 0.0, 0.0, 0.0, 0.0, 1.7103912659250295E9, 0.0, 2024-03-13 21:41:05.925
91.0, 210.51335865585133, 102.75936113251373, -88.42058470239863, 56.354682482313365, 0.5920000281184912, 0.7840000372380018, 0.3680000174790621, 0.0, 0.0, 0.0, 0.0, 0.0, 1.7103912659392076E9, 0.0, 2024-03-13 21:41:05.939
91.0, 215.99605199089274, 113.69482860295102, -69.41067322762683, 75.74606375256553, 0.5920000281184912, 0.7840000372380018, 0.3680000174790621, 0.0, 0.0, 0.0, 0.0, 0.0, 1.7103912659392076E9, 0.0, 2024-03-13 21:41:05.939
92.0, 211.55679074348882, 108.50758736440912, -55.04197759786621, 73.49464397924021, 0.5920000281184912, 0.7840000372380018, 0.3680000174790621, 0.0, 0.0, 0.0, 0.0, 0.0, 1.7103912659546657E9, 0.0, 2024-03-13 21:41:05.954
92.0, 216.65801428304985, 102.35171203734353, -68.86090793414041, 72.95983828557655, 0.5920000281184912, 0.7840000372380018, 0.3680000174790621, 0.0, 0.0, 0.0, 0.0, 0.0, 1.7103912659546657E9, 0.0, 2024-03-13 21:41:05.954
93.0, 212.3795687337406, 104.55451311124489, -84.8377605448477, 69.24237772962078, 0.5920000281184912, 0.7840000372380018, 0.3680000174790621, 0.0, 0.0, 0.0, 0.0, 0.0, 1.7103912659552112E9, 0.0, 2024-03-13 21:41:05.955
93.0, 213.28836442297325, 109.43134265346453, -70.33816841663793, 73.38244698056951, 0.5920000281184912, 0.7840000372380018, 0.3680000174790621, 0.0, 0.0, 0.0, 0.0, 0.0, 1.7103912659552112E9, 0.0, 2024-03-13 21:41:05.955
94.0, 206.14515550760552, 100.52664085896686, -87.81846080953255, 60.797683629672974, 0.5920000281184912, 0.7840000372380018, 0.3680000174790621, 0.0, 0.0, 0.0, 0.0, 0.0, 1.7103912659687E9, 0.0, 2024-03-13 21:41:05.968
94.0, 204.36870302865282, 92.83740655006841, -100.03297406481579, 49.922054558526725, 0.5920000281184912, 0.7840000372380018, 0.3680000174790621, 0.0, 0.0, 0.0, 0.0, 0.0, 1.7103912659687E9, 0.0, 2024-03-13 21:41:05.968
95.0, 208.47137328004465, 101.29706024983898, -74.80734886368737, 64.76945738261566, 0.5920000281184912, 0.7840000372380018, 0.3680000174790621, 0.0, 0.0, 0.0, 0.0, 0.0, 1.7103912659847057E9, 0.0, 2024-03-13 21:41:05.984
95.0, 212.91063452744856, 102.6247247341089, -66.94607915682718, 67.4584454507567, 0.5920000281184912, 0.7840000372380018, 0.3680000174790621, 0.0, 0.0, 0.0, 0.0, 0.0, 1.7103912659847057E9, 0.0, 2024-03-13 21:41:05.984
96.0, 210.28522475855425, 97.67683709273115, -88.55896100075915, 56.40330118173733, 0.5920000281184912, 0.7840000372380018, 0.3680000174790621, 0.0, 0.0, 0.0, 0.0, 0.0, 1.7103912659854872E9, 0.0, 2024-03-13 21:41:05.985
96.0, 210.85368955181912, 102.04878014093265, -78.28545582247898, 61.979492015670985, 0.5920000281184912, 0.7840000372380018, 0.3680000174790621, 0.0, 0.0, 0.0, 0.0, 0.0, 1.7103912659854872E9, 0.0, 2024-03-13 21:41:05.985
97.0, 203.56836443813518, 96.10981901129708, -72.30535579333082, 60.03100413875654, 0.5920000281184912, 0.7840000372380018, 0.3680000174790621, 0.0, 0.0, 0.0, 0.0, 0.0, 1.7103912659986193E9, 0.0, 2024-03-13 21:41:05.998
97.0, 200.9242551694624, 91.26664856867865, -95.1748440223746, 52.96633312245831, 0.5920000281184912, 0.7840000372380018, 0.3680000174790621, 0.0, 0.0, 0.0, 0.0, 0.0, 1.7103912659986193E9, 0.0, 2024-03-13 21:41:05.998
98.0, 214.0064252144657, 103.8813311192207, -97.31406679702923, 64.8666947814636, 0.5920000281184912, 0.7840000372380018, 0.3680000174790621, 0.0, 0.0, 0.0, 0.0, 0.0, 1.710391266014383E9, 0.0, 2024-03-13 21:41:06.014
98.0, 211.53809124371037, 103.98604831798002, -70.73085791198537, 63.44927269825712, 0.5920000281184912, 0.7840000372380018, 0.3680000174790621, 0.0, 0.0, 0.0, 0.0, 0.0, 1.710391266014383E9, 0.0, 2024-03-13 21:41:06.014
99.0, 210.24034595908597, 98.49961508298293, -73.84619457507506, 64.70587908336893, 0.5920000281184912, 0.7840000372380018, 0.3680000174790621, 0.0, 0.0, 0.0, 0.0, 0.0, 1.7103912660151994E9, 0.0, 2024-03-13 21:41:06.015
99.0, 211.48199274437502, 99.68516336893663, -87.53048851294443, 67.06949585536495, 0.5920000281184912, 0.7840000372380018, 0.3680000174790621, 0.0, 0.0, 0.0, 0.0, 0.0, 1.7103912660151994E9, 0.0, 2024-03-13 21:41:06.015
100.0, 217.22647907631472, 112.94684861181304, -66.27663706475869, 73.56570207839832, 0.5920000281184912, 0.7840000372380018, 0.35200001671910286, 0.0, 0.0, 0.0, 0.0, 0.0, 1.7103912660295677E9, 0.0, 2024-03-13 21:41:06.029
100.0, 212.83957642829046, 108.17473626835272, -56.57907647965476, 72.73170438827947, 0.5920000281184912, 0.7840000372380018, 0.35200001671910286, 0.0, 0.0, 0.0, 0.0, 0.0, 1.7103912660295677E9, 0.0, 2024-03-13 21:41:06.029
0.0, 209.4512270684354, 104.48719491204247, -76.80445544002578, 67.46405530069023, 0.5920000281184912, 0.7840000372380018, 0.35200001671910286, 0.0, 0.0, 0.0, 0.0, 0.0, 1.7103912660300303E9, 0.0, 2024-03-13 21:41:06.030
1.0, 212.95177342696115, 109.61833765124902, -79.43360510887578, 73.58627152815461, 0.5920000281184912, 0.7840000372380018, 0.35200001671910286, 0.0, 0.0, 0.0, 0.0, 0.0, 1.7103912660436416E9, 0.0, 2024-03-13 21:41:06.043
1.0, 214.79928400507197, 116.87000366533175, -45.075144215952605, 83.08187751565129, 0.5920000281184912, 0.7840000372380018, 0.35200001671910286, 0.0, 0.0, 0.0, 0.0, 0.0, 1.7103912660436416E9, 0.0, 2024-03-13 21:41:06.043
2.0, 210.3749823574908, 105.28005370264873, -71.51249700272456, 67.96894179470837, 0.5920000281184912, 0.7840000372380018, 0.35200001671910286, 0.0, 0.0, 0.0, 0.0, 0.0, 1.7103912660593436E9, 0.0, 2024-03-13 21:41:06.059
2.0, 213.3818619218655, 107.59879167517647, -73.69285867689177, 68.52992678806186, 0.5920000281184912, 0.7840000372380018, 0.35200001671910286, 0.0, 0.0, 0.0, 0.0, 0.0, 1.7103912660593436E9, 0.0, 2024-03-13 21:41:06.059
3.0, 223.7152054994367, 116.05096557503566, -51.4516736404039, 82.35259702429175, 0.5920000281184912, 0.7840000372380018, 0.35200001671910286, 0.0, 0.0, 0.0, 0.0, 0.0, 1.7103912660601208E9, 0.0, 2024-03-13 21:41:06.060
3.0, 212.68250063015148, 110.05590594606474, -65.95874556852505, 73.01032693497837, 0.5920000281184912, 0.7840000372380018, 0.35200001671910286, 0.0, 0.0, 0.0, 0.0, 0.0, 1.7103912660601208E9, 0.0, 2024-03-13 21:41:06.060
4.0, 215.9698726912029, 110.49721414083615, -69.39571362780407, 79.09140426293015, 0.5920000281184912, 0.7840000372380018, 0.35200001671910286, 0.0, 0.0, 0.0, 0.0, 0.0, 1.7103912660735855E9, 0.0, 2024-03-13 21:41:06.073
4.0, 217.5705498722382, 120.19103482598439, -35.433682130184025, 90.3746824292466, 0.5920000281184912, 0.7840000372380018, 0.35200001671910286, 0.0, 0.0, 0.0, 0.0, 0.0, 1.7103912660735855E9, 0.0, 2024-03-13 21:41:06.073
5.0, 215.42758719762787, 115.35908408323303, -41.17068866221234, 85.33329728897661, 0.5920000281184912, 0.7840000372380018, 0.35200001671910286, 0.0, 0.0, 0.0, 0.0, 0.0, 1.7103912660893557E9, 0.0, 2024-03-13 21:41:06.089
5.0, 207.16614819550887, 103.4400229244493, -74.44831846794114, 72.75975363794714, 0.5920000281184912, 0.7840000372380018, 0.35200001671910286, 0.0, 0.0, 0.0, 0.0, 0.0, 1.7103912660893557E9, 0.0, 2024-03-13 21:41:06.089
6.0, 206.1114964080043, 103.87759121926501, -68.96936503285542, 74.63344351574779, 0.5920000281184912, 0.7840000372380018, 0.35200001671910286, 0.0, 0.0, 0.0, 0.0, 0.0, 1.7103912660901494E9, 0.0, 2024-03-13 21:41:06.090
6.0, 208.72194657707587, 106.63015758665279, -54.697906801942736, 77.32243158388883, 0.5920000281184912, 0.7840000372380018, 0.35200001671910286, 0.0, 0.0, 0.0, 0.0, 0.0, 1.7103912660901494E9, 0.0, 2024-03-13 21:41:06.090
7.0, 214.84042290458456, 105.11549810459837, -67.44348585093394, 73.35065783094615, 0.5920000281184912, 0.7840000372380018, 0.35200001671910286, 0.0, 0.0, 0.0, 0.0, 0.0, 1.7103912661036196E9, 0.0, 2024-03-13 21:41:06.103
7.0, 206.83329709945247, 102.73692173277959, -86.87974592065439, 76.79136579018086, 0.5920000281184912, 0.7840000372380018, 0.35200001671910286, 0.0, 0.0, 0.0, 0.0, 0.0, 1.7103912661036196E9, 0.0, 2024-03-13 21:41:06.103
8.0, 201.55255836201832, 100.22370896255597, -54.709126501809806, 75.24304720852524, 0.5920000281184912, 0.7840000372380018, 0.35200001671910286, 0.0, 0.0, 0.0, 0.0, 0.0, 1.7103912661197567E9, 0.0, 2024-03-13 21:41:06.119
8.0, 203.27665224159136, 99.77492096787319, -63.26227770047262, 73.16366283316165, 0.5920000281184912, 0.7840000372380018, 0.35200001671910286, 0.0, 0.0, 0.0, 0.0, 0.0, 1.7103912661197567E9, 0.0, 2024-03-13 21:41:06.119
9.0, 203.94609433365986, 101.82064624363557, -84.40767204994336, 67.53137349989265, 0.5920000281184912, 0.7840000372380018, 0.35200001671910286, 0.0, 0.0, 0.0, 0.0, 0.0, 1.7103912661202767E9, 0.0, 2024-03-13 21:41:06.120
9.0, 210.34880305780098, 113.35075780702755, -64.0102576916106, 77.22893408499658, 0.5920000281184912, 0.7840000372380018, 0.35200001671910286, 0.0, 0.0, 0.0, 0.0, 0.0, 1.7103912661202767E9, 0.0, 2024-03-13 21:41:06.120
10.0, 206.0105191092007, 106.68251618603244, -55.25889179529622, 82.03096562810242, 0.5920000281184912, 0.7840000372380018, 0.35200001671910286, 0.0, 0.0, 0.0, 0.0, 0.0, 1.7103912661336737E9, 0.0, 2024-03-13 21:41:06.133
10.0, 205.14286231948063, 98.76514797983691, -81.52420918410644, 66.91429000720382, 0.5920000281184912, 0.7840000372380018, 0.35200001671910286, 0.0, 0.0, 0.0, 0.0, 0.0, 1.7103912661336737E9, 0.0, 2024-03-13 21:41:06.133
11.0, 200.266032777261, 100.23866856237873, -76.74835694069043, 63.798953344114125, 0.5920000281184912, 0.7840000372380018, 0.35200001671910286, 0.0, 0.0, 0.0, 0.0, 0.0, 1.7103912661493835E9, 0.0, 2024-03-13 21:41:06.149
11.0, 200.32961107650772, 97.11585209937766, -54.96717959875241, 76.7016081912443, 0.5920000281184912, 0.7840000372380018, 0.35200001671910286, 0.0, 0.0, 0.0, 0.0, 0.0, 1.7103912661493835E9, 0.0, 2024-03-13 21:41:06.149
12.0, 199.05056529166177, 86.71145042264834, -83.51009606057778, 54.3968448555097, 0.5920000281184912, 0.7840000372380018, 0.35200001671910286, 0.0, 0.0, 0.0, 0.0, 0.0, 1.7103912661501331E9, 0.0, 2024-03-13 21:41:06.150
12.0, 197.2254941132851, 95.22346272179857, -81.07168128946796, 61.61111187003553, 0.5920000281184912, 0.7840000372380018, 0.35200001671910286, 0.0, 0.0, 0.0, 0.0, 0.0, 1.7103912661501331E9, 0.0, 2024-03-13 21:41:06.150
13.0, 205.28871841775253, 108.09245846932754, -62.46941890986636, 76.5894111925736, 0.5920000281184912, 0.7840000372380018, 0.35200001671910286, 0.0, 0.0, 0.0, 0.0, 0.0, 1.7103912661636534E9, 0.0, 2024-03-13 21:41:06.163
13.0, 209.12585577229038, 103.50360122369602, -61.36988832289353, 64.79002683237195, 0.5920000281184912, 0.7840000372380018, 0.35200001671910286, 0.0, 0.0, 0.0, 0.0, 0.0, 1.7103912661636534E9, 0.0, 2024-03-13 21:41:06.163
14.0, 215.35652909846976, 108.81425916077569, -81.6513657825999, 70.68410916253924, 0.5920000281184912, 0.7840000372380018, 0.35200001671910286, 0.0, 0.0, 0.0, 0.0, 0.0, 1.7103912661793368E9, 0.0, 2024-03-13 21:41:06.179
14.0, 207.10630979621783, 105.80363969644532, -67.18917265394703, 71.10297795757651, 0.5920000281184912, 0.7840000372380018, 0.35200001671910286, 0.0, 0.0, 0.0, 0.0, 0.0, 1.7103912661793368E9, 0.0, 2024-03-13 21:41:06.179
15.0, 207.57005739072338, 99.46450927155092, -63.632527796085924, 70.77760666143149, 0.5920000281184912, 0.7840000372380018, 0.35200001671910286, 0.0, 0.0, 0.0, 0.0, 0.0, 1.7103912661800787E9, 0.0, 2024-03-13 21:41:06.180
15.0, 203.30657144123688, 99.65524416929111, -83.81676785694435, 68.11853779293597, 0.5920000281184912, 0.7840000372380018, 0.35200001671910286, 0.0, 0.0, 0.0, 0.0, 0.0, 1.7103912661800787E9, 0.0, 2024-03-13 21:41:06.180
16.0, 199.518052786123, 96.2481953096576, -71.43395910365507, 68.33919189032167, 0.5920000281184912, 0.7840000372380018, 0.35200001671910286, 0.0, 0.0, 0.0, 0.0, 0.0, 1.7103912661938658E9, 0.0, 2024-03-13 21:41:06.193
16.0, 199.00942639214918, 95.29452082095668, -54.80262400070205, 71.05809915810823, 0.5920000281184912, 0.7840000372380018, 0.35200001671910286, 0.0, 0.0, 0.0, 0.0, 0.0, 1.7103912661938658E9, 0.0, 2024-03-13 21:41:06.193
17.0, 207.39054219285026, 94.57272012950853, -65.63337427238002, 74.06871862243861, 0.5920000281184912, 0.7840000372380018, 0.35200001671910286, 0.0, 0.0, 0.0, 0.0, 0.0, 1.7103912662093158E9, 0.0, 2024-03-13 21:41:06.209
17.0, 213.894228215795, 102.72944193286821, -68.52431693812832, 79.4092957591638, 0.5920000281184912, 0.7840000372380018, 0.35200001671910286, 0.0, 0.0, 0.0, 0.0, 0.0, 1.7103912662093158E9, 0.0, 2024-03-13 21:41:06.209
18.0, 212.25241213524714, 110.80014603724703, -60.91736042825505, 83.16415531467646, 0.5920000281184912, 0.7840000372380018, 0.35200001671910286, 0.0, 0.0, 0.0, 0.0, 0.0, 1.7103912662100694E9, 0.0, 2024-03-13 21:41:06.210
18.0, 211.69142714189366, 101.19982285099104, -64.7918967823498, 76.53331269323826, 0.5920000281184912, 0.7840000372380018, 0.35200001671910286, 0.0, 0.0, 0.0, 0.0, 0.0, 1.7103912662100694E9, 0.0, 2024-03-13 21:41:06.210
19.0, 212.64884153055027, 102.01138114137575, -76.9428317383863, 67.4416159009561, 0.5920000281184912, 0.7840000372380018, 0.35200001671910286, 0.0, 0.0, 0.0, 0.0, 0.0, 1.710391266223734E9, 0.0, 2024-03-13 21:41:06.223
19.0, 211.79240444069728, 109.15459005674347, -66.08216226706281, 75.27296640817076, 0.5920000281184912, 0.7840000372380018, 0.35200001671910286, 0.0, 0.0, 0.0, 0.0, 0.0, 1.710391266223734E9, 0.0, 2024-03-13 21:41:06.223
20.0, 213.0452709258534, 103.9187301187776, -73.42732578003779, 70.37743736617267, 0.5920000281184912, 0.7840000372380018, 0.3680000174790621, 0.0, 0.0, 0.0, 0.0, 0.0, 1.7103912662397141E9, 0.0, 2024-03-13 21:41:06.239
20.0, 216.7477718819864, 102.6583838337101, -74.72507106466219, 72.56901874020696, 0.5920000281184912, 0.7840000372380018, 0.3680000174790621, 0.0, 0.0, 0.0, 0.0, 0.0, 1.7103912662397141E9, 0.0, 2024-03-13 21:41:06.239
21.0, 216.49719858495519, 109.67817605054006, -83.58863395964727, 74.97377441171557, 0.5920000281184912, 0.7840000372380018, 0.3680000174790621, 0.0, 0.0, 0.0, 0.0, 0.0, 1.7103912662403297E9, 0.0, 2024-03-13 21:41:06.240
21.0, 216.64679458318278, 109.32288555474952, -56.24996528355405, 81.8925893297419, 0.5920000281184912, 0.7840000372380018, 0.3680000174790621, 0.0, 0.0, 0.0, 0.0, 0.0, 1.7103912662403297E9, 0.0, 2024-03-13 21:41:06.240
22.0, 219.74717164644971, 104.91728340694681, -61.713959118817, 75.62077710404992, 0.5920000281184912, 0.7840000372380018, 0.3680000174790621, 0.0, 0.0, 0.0, 0.0, 0.0, 1.710391266254096E9, 0.0, 2024-03-13 21:41:06.254
22.0, 217.13672147737816, 110.02224684646353, -77.66463242983446, 84.77605219557881, 0.5920000281184912, 0.7840000372380018, 0.3680000174790621, 0.0, 0.0, 0.0, 0.0, 0.0, 1.710391266254096E9, 0.0, 2024-03-13 21:41:06.254
23.0, 223.54317010147497, 119.26353963697329, -50.57653705077246, 96.53429765626788, 0.5920000281184912, 0.7840000372380018, 0.3680000174790621, 0.0, 0.0, 0.0, 0.0, 0.0, 1.7103912662696483E9, 0.0, 2024-03-13 21:41:06.269
23.0, 222.85128860967234, 121.10731031512842, -49.27879176614806, 94.3427162822336, 0.5920000281184912, 0.7840000372380018, 0.3680000174790621, 0.0, 0.0, 0.0, 0.0, 0.0, 1.7103912662696483E9, 0.0, 2024-03-13 21:41:06.269
24.0, 228.77529013948515, 122.93612139346078, -68.22512494167313, 98.03399753849953, 0.5920000281184912, 0.7840000372380018, 0.3680000174790621, 0.0, 0.0, 0.0, 0.0, 0.0, 1.7103912662703478E9, 0.0, 2024-03-13 21:41:06.270
24.0, 229.40733323199674, 127.31928414152935, -43.73999993177131, 102.20024608913809, 0.5920000281184912, 0.7840000372380018, 0.3680000174790621, 0.0, 0.0, 0.0, 0.0, 0.0, 1.7103912662703478E9, 0.0, 2024-03-13 21:41:06.270
25.0, 224.11163489473984, 123.74767968384549, -35.68799532717094, 98.84555582888424, 0.5920000281184912, 0.7840000372380018, 0.3680000174790621, 0.0, 0.0, 0.0, 0.0, 0.0, 1.710391266284273E9, 0.0, 2024-03-13 21:41:06.284
25.0, 222.84006890980527, 117.61424375651404, -56.758591677527875, 87.84651005920023, 0.5920000281184912, 0.7840000372380018, 0.3680000174790621, 0.0, 0.0, 0.0, 0.0, 0.0, 1.710391266284273E9, 0.0, 2024-03-13 21:41:06.284
26.0, 226.50891076633707, 122.01610600436106, -49.484486263711005, 94.21181978378445, 0.5920000281184912, 0.7840000372380018, 0.3680000174790621, 0.0, 0.0, 0.0, 0.0, 0.0, 1.7103912662996483E9, 0.0, 2024-03-13 21:41:06.299
26.0, 229.37367413239554, 122.88750269403681, -41.002393164206296, 97.51789134461433, 0.5920000281184912, 0.7840000372380018, 0.3680000174790621, 0.0, 0.0, 0.0, 0.0, 0.0, 1.7103912662996483E9, 0.0, 2024-03-13 21:41:06.299
27.0, 224.41456679115072, 114.7420005905442, -58.92399375187233, 88.60196985024959, 0.5920000281184912, 0.7840000372380018, 0.3680000174790621, 0.0, 0.0, 0.0, 0.0, 0.0, 1.7103912663000827E9, 0.0, 2024-03-13 21:41:06.300
27.0, 213.31454372266307, 109.06109255785123, -74.62035386590287, 79.79450545459986, 0.5920000281184912, 0.7840000372380018, 0.3680000174790621, 0.0, 0.0, 0.0, 0.0, 0.0, 1.7103912663000827E9, 0.0, 2024-03-13 21:41:06.300
28.0, 221.22817202890292, 116.95602136431262, -51.64988833805546, 86.18225457891822, 0.5920000281184912, 0.7840000372380018, 0.3680000174790621, 0.0, 0.0, 0.0, 0.0, 0.0, 1.710391266314058E9, 0.0, 2024-03-13 21:41:06.314
28.0, 212.58152333134785, 107.04528648173437, -63.183739801403135, 84.88076939433813, 0.5920000281184912, 0.7840000372380018, 0.3680000174790621, 0.0, 0.0, 0.0, 0.0, 0.0, 1.710391266314058E9, 0.0, 2024-03-13 21:41:06.314
29.0, 216.28028438752517, 109.08353195758536, -82.95285096717998, 76.35005759540945, 0.5920000281184912, 0.7840000372380018, 0.3680000174790621, 0.0, 0.0, 0.0, 0.0, 0.0, 1.7103912663293533E9, 0.0, 2024-03-13 21:41:06.329
29.0, 223.0158442077227, 118.89702944131568, -55.27011149516329, 82.76398601941764, 0.5920000281184912, 0.7840000372380018, 0.3680000174790621, 0.0, 0.0, 0.0, 0.0, 0.0, 1.7103912663293533E9, 0.0, 2024-03-13 21:41:06.329
30.0, 211.12670224858448, 107.19488247996196, -56.55663707992062, 76.46599449403584, 0.5920000281184912, 0.7840000372380018, 0.3680000174790621, 0.0, 0.0, 0.0, 0.0, 0.0, 1.7103912663301356E9, 0.0, 2024-03-13 21:41:06.330
30.0, 204.35748332878575, 91.913651261013, -72.35397449275479, 64.96954203024507, 0.5920000281184912, 0.7840000372380018, 0.3680000174790621, 0.0, 0.0, 0.0, 0.0, 0.0, 1.7103912663301356E9, 0.0, 2024-03-13 21:41:06.330
31.0, 212.31225053453818, 109.98484784690663, -59.956206139642745, 84.60027689766139, 0.5920000281184912, 0.7840000372380018, 0.3680000174790621, 0.0, 0.0, 0.0, 0.0, 0.0, 1.7103912663438993E9, 0.0, 2024-03-13 21:41:06.343
31.0, 217.39851447427645, 115.0711117866449, -42.32631774852052, 91.90804141107947, 0.5920000281184912, 0.7840000372380018, 0.3680000174790621, 0.0, 0.0, 0.0, 0.0, 0.0, 1.7103912663438993E9, 0.0, 2024-03-13 21:41:06.343
32.0, 218.7486183582805, 113.06652541039512, -65.95126576861367, 84.28238540142775, 0.5920000281184912, 0.7840000372380018, 0.3680000174790621, 0.0, 0.0, 0.0, 0.0, 0.0, 1.710391266359342E9, 0.0, 2024-03-13 21:41:06.359
32.0, 212.97795272665098, 114.69712179107592, -75.57028845464811, 84.94434769358486, 0.5920000281184912, 0.7840000372380018, 0.3680000174790621, 0.0, 0.0, 0.0, 0.0, 0.0, 1.710391266359342E9, 0.0, 2024-03-13 21:41:06.359
33.0, 209.7840781644918, 108.78060006117448, -54.768964901100844, 80.7070410437882, 0.5920000281184912, 0.7840000372380018, 0.3680000174790621, 0.0, 0.0, 0.0, 0.0, 0.0, 1.710391266360077E9, 0.0, 2024-03-13 21:41:06.360
33.0, 208.4152747807093, 105.18281630380079, -66.53469016170129, 76.76518649049103, 0.5920000281184912, 0.7840000372380018, 0.3680000174790621, 0.0, 0.0, 0.0, 0.0, 0.0, 1.710391266360077E9, 0.0, 2024-03-13 21:41:06.360
34.0, 209.61204276653007, 107.49407447641715, -92.51203525392339, 71.32737195491791, 0.5920000281184912, 0.7840000372380018, 0.3680000174790621, 0.0, 0.0, 0.0, 0.0, 0.0, 1.710391266373763E9, 0.0, 2024-03-13 21:41:06.373
34.0, 216.78143098158762, 113.53401290485635, -63.47545199794695, 87.50991906318814, 0.5920000281184912, 0.7840000372380018, 0.3680000174790621, 0.0, 0.0, 0.0, 0.0, 0.0, 1.710391266373763E9, 0.0, 2024-03-13 21:41:06.373
35.0, 217.43965337378904, 114.67468239134178, -47.60705648595467, 85.02288559265435, 0.5920000281184912, 0.7840000372380018, 0.3680000174790621, 0.0, 0.0, 0.0, 0.0, 0.0, 1.7103912663896356E9, 0.0, 2024-03-13 21:41:06.389
35.0, 204.49585962714627, 102.85659853136167, -80.23768359934911, 72.01177364680916, 0.5920000281184912, 0.7840000372380018, 0.3680000174790621, 0.0, 0.0, 0.0, 0.0, 0.0, 1.7103912663896356E9, 0.0, 2024-03-13 21:41:06.389
36.0, 216.29150408739224, 117.84611755376682, -60.03100413875654, 87.68943426106125, 0.5920000281184912, 0.7840000372380018, 0.3680000174790621, 0.0, 0.0, 0.0, 0.0, 0.0, 1.7103912663902907E9, 0.0, 2024-03-13 21:41:06.390
36.0, 211.99061913834885, 115.41144268261269, -53.145848320331424, 79.00912646390498, 0.5920000281184912, 0.7840000372380018, 0.3680000174790621, 0.0, 0.0, 0.0, 0.0, 0.0, 1.7103912663902907E9, 0.0, 2024-03-13 21:41:06.390
37.0, 203.14201584318653, 98.20790288643911, -78.71554431738332, 65.04060012940317, 0.5920000281184912, 0.7840000372380018, 0.3680000174790621, 0.0, 0.0, 0.0, 0.0, 0.0, 1.7103912664040148E9, 0.0, 2024-03-13 21:41:06.404
37.0, 208.12356258416548, 97.11959199933335, -95.21972282184288, 67.50893410015851, 0.5920000281184912, 0.7840000372380018, 0.3680000174790621, 0.0, 0.0, 0.0, 0.0, 0.0, 1.7103912664040148E9, 0.0, 2024-03-13 21:41:06.404
38.0, 210.02343176165596, 105.36981130158529, -58.20593296037987, 72.43812224175781, 0.5920000281184912, 0.7840000372380018, 0.3680000174790621, 0.0, 0.0, 0.0, 0.0, 0.0, 1.7103912664196434E9, 0.0, 2024-03-13 21:41:06.419
38.0, 207.25964569440112, 101.86178514314815, -54.1182223088108, 65.08173902891576, 0.5920000281184912, 0.7840000372380018, 0.3680000174790621, 0.0, 0.0, 0.0, 0.0, 0.0, 1.7103912664196434E9, 0.0, 2024-03-13 21:41:06.419
39.0, 217.92584036802873, 115.17582898540422, -80.03572900174186, 78.82213146612048, 0.5920000281184912, 0.7840000372380018, 0.3680000174790621, 0.0, 0.0, 0.0, 0.0, 0.0, 1.710391266420272E9, 0.0, 2024-03-13 21:41:06.420
39.0, 212.3047707346268, 116.70918796723709, -57.0091649745591, 81.42510183528066, 0.5920000281184912, 0.7840000372380018, 0.3680000174790621, 0.0, 0.0, 0.0, 0.0, 0.0, 1.710391266420272E9, 0.0, 2024-03-13 21:41:06.420
40.0, 216.7103728824295, 119.35329723590985, -52.05005763331428, 84.37588290032, 0.5920000281184912, 0.7840000372380018, 0.3680000174790621, 0.0, 0.0, 0.0, 0.0, 0.0, 1.7103912664337845E9, 0.0, 2024-03-13 21:41:06.433
40.0, 213.80447061685845, 106.30852619046345, -82.77333576930687, 70.82248546089977, 0.5920000281184912, 0.7840000372380018, 0.3680000174790621, 0.0, 0.0, 0.0, 0.0, 0.0, 1.7103912664337845E9, 0.0, 2024-03-13 21:41:06.433
41.0, 218.06421666638926, 111.49950732896104, -66.8264023582451, 80.30687174852937, 0.5920000281184912, 0.7840000372380018, 0.3680000174790621, 0.0, 0.0, 0.0, 0.0, 0.0, 1.7103912664661388E9, 0.0, 2024-03-13 21:41:06.466
41.0, 206.8220773995854, 108.23457466764376, -46.05499800434336, 81.70933423191309, 0.5920000281184912, 0.7840000372380018, 0.3680000174790621, 0.0, 0.0, 0.0, 0.0, 0.0, 1.7103912664661388E9, 0.0, 2024-03-13 21:41:06.466
42.0, 206.6313425018452, 100.53038075892255, -76.00411684950814, 72.83081173710525, 0.5920000281184912, 0.7840000372380018, 0.3680000174790621, 0.0, 0.0, 0.0, 0.0, 0.0, 1.7103912664666307E9, 0.0, 2024-03-13 21:41:06.466
42.0, 215.15083460090682, 112.38212371850386, -76.54640234308317, 79.17368206195533, 0.5920000281184912, 0.7840000372380018, 0.3680000174790621, 0.0, 0.0, 0.0, 0.0, 0.0, 1.7103912664666307E9, 0.0, 2024-03-13 21:41:06.466
43.0, 221.9798919199966, 120.93901481712237, -57.71974596614018, 85.31459778919816, 0.5920000281184912, 0.7840000372380018, 0.3680000174790621, 0.0, 0.0, 0.0, 0.0, 0.0, 1.7103912664671972E9, 0.0, 2024-03-13 21:41:06.467
43.0, 218.54292386071756, 117.49456695793197, -44.60017692157999, 80.02637925185263, 0.5920000281184912, 0.7840000372380018, 0.3680000174790621, 0.0, 0.0, 0.0, 0.0, 0.0, 1.7103912664671972E9, 0.0, 2024-03-13 21:41:06.467
44.0, 213.47909932071343, 113.09644461004063, -80.4620775966905, 75.41508260648698, 0.5920000281184912, 0.7840000372380018, 0.3680000174790621, 0.0, 0.0, 0.0, 0.0, 0.0, 1.710391266467958E9, 0.0, 2024-03-13 21:41:06.467
44.0, 216.1531277890317, 117.42350885877386, -54.13318190863356, 82.99959971662611, 0.5920000281184912, 0.7840000372380018, 0.3680000174790621, 0.0, 0.0, 0.0, 0.0, 0.0, 1.710391266467958E9, 0.0, 2024-03-13 21:41:06.467
45.0, 206.76597890025005, 102.9575758301653, -49.125455867964774, 73.83310492523015, 0.5920000281184912, 0.7840000372380018, 0.3680000174790621, 0.0, 0.0, 0.0, 0.0, 0.0, 1.7103912664786594E9, 0.0, 2024-03-13 21:41:06.478
45.0, 200.65498237265274, 97.79651389131323, -79.37002680962905, 68.60846468713135, 0.5920000281184912, 0.7840000372380018, 0.3680000174790621, 0.0, 0.0, 0.0, 0.0, 0.0, 1.7103912664786594E9, 0.0, 2024-03-13 21:41:06.478
46.0, 213.95032671513036, 110.65055003901944, -70.69719881238416, 81.86641003005207, 0.5920000281184912, 0.7840000372380018, 0.3680000174790621, 0.0, 0.0, 0.0, 0.0, 0.0, 1.7103912664938195E9, 0.0, 2024-03-13 21:41:06.493
46.0, 202.83534404681996, 101.96650234190747, -43.65398223279044, 80.5574450455606, 0.5920000281184912, 0.7840000372380018, 0.3680000174790621, 0.0, 0.0, 0.0, 0.0, 0.0, 1.7103912664938195E9, 0.0, 2024-03-13 21:41:06.493
47.0, 213.5651170196943, 110.29899944318458, -47.65567518537864, 84.59279709775001, 0.5920000281184912, 0.7840000372380018, 0.3680000174790621, 0.0, 0.0, 0.0, 0.0, 0.0, 1.7103912665094688E9, 0.0, 2024-03-13 21:41:06.509
47.0, 206.07035750849172, 106.52918028784916, -79.78889560466632, 74.35295101907104, 0.5920000281184912, 0.7840000372380018, 0.3680000174790621, 0.0, 0.0, 0.0, 0.0, 0.0, 1.7103912665094688E9, 0.0, 2024-03-13 21:41:06.509
48.0, 194.6711424435489, 94.73727572755888, -57.39437466999516, 68.13723729271442, 0.5920000281184912, 0.7840000372380018, 0.3680000174790621, 0.0, 0.0, 0.0, 0.0, 0.0, 1.710391266510105E9, 0.0, 2024-03-13 21:41:06.510
48.0, 192.8535510650836, 86.89844542043284, -61.37362822284922, 66.95168900676072, 0.5920000281184912, 0.7840000372380018, 0.3680000174790621, 0.0, 0.0, 0.0, 0.0, 0.0, 1.710391266510105E9, 0.0, 2024-03-13 21:41:06.510
49.0, 204.89976882236078, 98.09570588776842, -76.0153365493752, 63.510981047526, 0.5920000281184912, 0.7840000372380018, 0.3680000174790621, 0.0, 0.0, 0.0, 0.0, 0.0, 1.7103912665238793E9, 0.0, 2024-03-13 21:41:06.523
49.0, 200.43058837531134, 99.92825686605647, -66.89372055744752, 68.2195150917396, 0.5920000281184912, 0.7840000372380018, 0.3680000174790621, 0.0, 0.0, 0.0, 0.0, 0.0, 1.7103912665238793E9, 0.0, 2024-03-13 21:41:06.523
50.0, 203.24673304194584, 94.15011143451557, -60.22173903649673, 67.29575980268419, 0.5920000281184912, 0.7840000372380018, 0.3680000174790621, 0.0, 0.0, 0.0, 0.0, 0.0, 1.7103912665395443E9, 0.0, 2024-03-13 21:41:06.539
50.0, 206.95671379799023, 95.99762201262638, -73.7938359756954, 72.38576364237815, 0.5920000281184912, 0.7840000372380018, 0.3680000174790621, 0.0, 0.0, 0.0, 0.0, 0.0, 1.7103912665395443E9, 0.0, 2024-03-13 21:41:06.539
51.0, 211.9345206390135, 108.97881475882605, -70.31572901690379, 80.79305874276906, 0.5920000281184912, 0.7840000372380018, 0.3680000174790621, 0.0, 0.0, 0.0, 0.0, 0.0, 1.7103912665401473E9, 0.0, 2024-03-13 21:41:06.540
51.0, 212.98917242651805, 108.21213526790962, -39.15862248605117, 92.62984210252762, 0.5920000281184912, 0.7840000372380018, 0.3680000174790621, 0.0, 0.0, 0.0, 0.0, 0.0, 1.7103912665401473E9, 0.0, 2024-03-13 21:41:06.540
52.0, 207.95152718620375, 94.16881093429402, -74.52311646705493, 70.11564436927438, 0.5920000281184912, 0.7840000372380018, 0.3680000174790621, 0.0, 0.0, 0.0, 0.0, 0.0, 1.7103912665536957E9, 0.0, 2024-03-13 21:41:06.553
52.0, 208.23949948279187, 100.7323353565298, -88.08025380643085, 74.16969592124224, 0.5920000281184912, 0.7840000372380018, 0.3680000174790621, 0.0, 0.0, 0.0, 0.0, 0.0, 1.7103912665536957E9, 0.0, 2024-03-13 21:41:06.553
53.0, 200.16131557850167, 99.19149657478556, -59.48871864518151, 73.63489022757858, 0.5920000281184912, 0.7840000372380018, 0.3680000174790621, 0.0, 0.0, 0.0, 0.0, 0.0, 1.7103912665699282E9, 0.0, 2024-03-13 21:41:06.569
53.0, 200.1874948781915, 96.40901100775227, -51.163701343815774, 74.88027691282332, 0.5920000281184912, 0.7840000372380018, 0.3680000174790621, 0.0, 0.0, 0.0, 0.0, 0.0, 1.7103912665699282E9, 0.0, 2024-03-13 21:41:06.569
54.0, 191.63434367952868, 86.8386070211418, -81.29981518676504, 64.78254703246057, 0.5920000281184912, 0.7840000372380018, 0.3680000174790621, 0.0, 0.0, 0.0, 0.0, 0.0, 1.7103912665701623E9, 0.0, 2024-03-13 21:41:06.570
54.0, 198.12307010265067, 98.37245848448947, -49.27131196623668, 71.32737195491791, 0.5920000281184912, 0.7840000372380018, 0.3680000174790621, 0.0, 0.0, 0.0, 0.0, 0.0, 1.7103912665701623E9, 0.0, 2024-03-13 21:41:06.570
55.0, 199.8509038821794, 94.71109642786905, -66.0859021670185, 71.49192755296826, 0.5920000281184912, 0.7840000372380018, 0.3680000174790621, 0.0, 0.0, 0.0, 0.0, 0.0, 1.7103912665842433E9, 0.0, 2024-03-13 21:41:06.584
55.0, 193.60153105622157, 86.26640232792124, -78.65570591809228, 57.60193911753595, 0.5920000281184912, 0.7840000372380018, 0.3680000174790621, 0.0, 0.0, 0.0, 0.0, 0.0, 1.7103912665842433E9, 0.0, 2024-03-13 21:41:06.584
56.0, 200.482946974691, 92.77382825082168, -73.88733347458765, 63.30154665000737, 0.5920000281184912, 0.7840000372380018, 0.3680000174790621, 0.0, 0.0, 0.0, 0.0, 0.0, 1.7103912665993507E9, 0.0, 2024-03-13 21:41:06.599
56.0, 202.5249323504977, 98.26400138577446, -51.43671404058114, 74.72694101464003, 0.5920000281184912, 0.7840000372380018, 0.3680000174790621, 0.0, 0.0, 0.0, 0.0, 0.0, 1.7103912665993507E9, 0.0, 2024-03-13 21:41:06.599
57.0, 194.959114740137, 91.89869166119024, -72.9074796861969, 67.11624460481107, 0.5920000281184912, 0.7840000372380018, 0.3680000174790621, 0.0, 0.0, 0.0, 0.0, 0.0, 1.7103912666001465E9, 0.0, 2024-03-13 21:41:06.600
57.0, 204.83245062315837, 98.32757968502119, -77.17470553563908, 66.74973440915346, 0.5920000281184912, 0.7840000372380018, 0.3680000174790621, 0.0, 0.0, 0.0, 0.0, 0.0, 1.7103912666001465E9, 0.0, 2024-03-13 21:41:06.600
58.0, 201.5637780618854, 99.58792597008869, -72.40259319217876, 70.94964205939323, 0.5920000281184912, 0.7840000372380018, 0.3680000174790621, 0.0, 0.0, 0.0, 0.0, 0.0, 1.710391266613636E9, 0.0, 2024-03-13 21:41:06.613
58.0, 198.86731019383296, 91.34144656779245, -75.76850315229967, 65.48938812408596, 0.5920000281184912, 0.7840000372380018, 0.3680000174790621, 0.0, 0.0, 0.0, 0.0, 0.0, 1.710391266613636E9, 0.0, 2024-03-13 21:41:06.613
59.0, 209.16325477184728, 100.96420915378258, -78.03862242540345, 65.22759512718767, 0.5920000281184912, 0.7840000372380018, 0.3680000174790621, 0.0, 0.0, 0.0, 0.0, 0.0, 1.7103912666293385E9, 0.0, 2024-03-13 21:41:06.629
59.0, 204.14056913135573, 101.48779514757916, -56.53419768018648, 70.76264706160873, 0.5920000281184912, 0.7840000372380018, 0.3680000174790621, 0.0, 0.0, 0.0, 0.0, 0.0, 1.7103912666293385E9, 0.0, 2024-03-13 21:41:06.629
60.0, 203.2990916413255, 95.51143501838669, -72.7952826875262, 69.74539427366108, 0.5920000281184912, 0.7840000372380018, 0.3680000174790621, 0.0, 0.0, 0.0, 0.0, 0.0, 1.710391266630098E9, 0.0, 2024-03-13 21:41:06.630
60.0, 210.16180806001648, 101.90666394261643, -81.50550968432799, 62.44510956015438, 0.5920000281184912, 0.7840000372380018, 0.3680000174790621, 0.0, 0.0, 0.0, 0.0, 0.0, 1.710391266630098E9, 0.0, 2024-03-13 21:41:06.630
61.0, 207.17736789537594, 107.11634458089247, -81.239976787474, 77.24389368481934, 0.5920000281184912, 0.7840000372380018, 0.3680000174790621, 0.0, 0.0, 0.0, 0.0, 0.0, 1.7103912666439455E9, 0.0, 2024-03-13 21:41:06.643
61.0, 203.8151978352107, 105.4745285003446, -66.38883406342939, 83.1155366152525, 0.5920000281184912, 0.7840000372380018, 0.3680000174790621, 0.0, 0.0, 0.0, 0.0, 0.0, 1.7103912666439455E9, 0.0, 2024-03-13 21:41:06.643
62.0, 198.41852219915017, 95.90412451373413, -63.961638992186636, 74.63344351574779, 0.5920000281184912, 0.7840000372380018, 0.3680000174790621, 0.0, 0.0, 0.0, 0.0, 0.0, 1.7103912666594644E9, 0.0, 2024-03-13 21:41:06.659
62.0, 196.4849939220585, 96.45762970717624, -76.0564754488878, 76.54453239310533, 0.5920000281184912, 0.7840000372380018, 0.3680000174790621, 0.0, 0.0, 0.0, 0.0, 0.0, 1.7103912666594644E9, 0.0, 2024-03-13 21:41:06.659
63.0, 201.04767186800018, 105.38851080136374, -49.888395458925515, 78.19756817352027, 0.5920000281184912, 0.7840000372380018, 0.3680000174790621, 0.0, 0.0, 0.0, 0.0, 0.0, 1.7103912666606112E9, 0.0, 2024-03-13 21:41:06.660
63.0, 186.67149643832818, 87.6875643110834, -60.02726423880085, 71.85469784867018, 0.5920000281184912, 0.7840000372380018, 0.3680000174790621, 0.0, 0.0, 0.0, 0.0, 0.0, 1.7103912666606112E9, 0.0, 2024-03-13 21:41:06.660
64.0, 190.67318939091638, 88.24106950452551, -73.07203528424725, 64.50205453578383, 0.5920000281184912, 0.7840000372380018, 0.3680000174790621, 0.0, 0.0, 0.0, 0.0, 0.0, 1.7103912666737041E9, 0.0, 2024-03-13 21:41:06.673
64.0, 200.2622928773053, 99.52434767084196, -43.30617153691128, 76.42859549447894, 0.5920000281184912, 0.7840000372380018, 0.3680000174790621, 0.0, 0.0, 0.0, 0.0, 0.0, 1.7103912666737041E9, 0.0, 2024-03-13 21:41:06.673
65.0, 195.86043062945828, 98.60807218169793, -67.13307415461168, 70.48963436484337, 0.5920000281184912, 0.7840000372380018, 0.3680000174790621, 0.0, 0.0, 0.0, 0.0, 0.0, 1.7103912666895728E9, 0.0, 2024-03-13 21:41:06.689
65.0, 199.72000738373026, 92.26146195689216, -86.27762202778831, 70.84118496067822, 0.5920000281184912, 0.7840000372380018, 0.3680000174790621, 0.0, 0.0, 0.0, 0.0, 0.0, 1.7103912666895728E9, 0.0, 2024-03-13 21:41:06.689
66.0, 207.51769879134372, 105.14915720419958, -76.7969756401144, 79.97402065247297, 0.5920000281184912, 0.7840000372380018, 0.3680000174790621, 0.0, 0.0, 0.0, 0.0, 0.0, 1.7103912666904843E9, 0.0, 2024-03-13 21:41:06.690
66.0, 208.57983037875965, 104.1767832157202, -60.419953734148294, 74.41652931831777, 0.5920000281184912, 0.7840000372380018, 0.3680000174790621, 0.0, 0.0, 0.0, 0.0, 0.0, 1.7103912666904843E9, 0.0, 2024-03-13 21:41:06.690
67.0, 206.4480874040164, 94.56150042964146, -93.63400524063036, 67.20600220374763, 0.5920000281184912, 0.7840000372380018, 0.3680000174790621, 0.0, 0.0, 0.0, 0.0, 0.0, 1.7103912667041123E9, 0.0, 2024-03-13 21:41:06.704
67.0, 207.46534019196406, 100.14517106348649, -81.06420148955658, 76.45851469412446, 0.5920000281184912, 0.7840000372380018, 0.3680000174790621, 0.0, 0.0, 0.0, 0.0, 0.0, 1.7103912667041123E9, 0.0, 2024-03-13 21:41:06.704
68.0, 204.91472842218354, 103.67563662165776, -64.63856088416651, 77.27381288446486, 0.5920000281184912, 0.7840000372380018, 0.3680000174790621, 0.0, 0.0, 0.0, 0.0, 0.0, 1.710391266719714E9, 0.0, 2024-03-13 21:41:06.719
68.0, 201.7058942602016, 95.61615221714601, -60.92484022816643, 71.37225075438619, 0.5920000281184912, 0.7840000372380018, 0.3680000174790621, 0.0, 0.0, 0.0, 0.0, 0.0, 1.710391266719714E9, 0.0, 2024-03-13 21:41:06.719
69.0, 205.98433980951086, 95.12622532295063, -85.78769513359293, 63.94854934234172, 0.5920000281184912, 0.7840000372380018, 0.3680000174790621, 0.0, 0.0, 0.0, 0.0, 0.0, 1.710391266720487E9, 0.0, 2024-03-13 21:41:06.720
69.0, 205.35603661695495, 101.48031534766778, -60.315236535388976, 77.31121188402176, 0.5920000281184912, 0.7840000372380018, 0.3680000174790621, 0.0, 0.0, 0.0, 0.0, 0.0, 1.710391266720487E9, 0.0, 2024-03-13 21:41:06.720
70.0, 204.9708269215189, 104.87988440738991, -47.457460487727076, 74.30433231964707, 0.5920000281184912, 0.7840000372380018, 0.3680000174790621, 0.0, 0.0, 0.0, 0.0, 0.0, 1.710391266733685E9, 0.0, 2024-03-13 21:41:06.733
70.0, 211.4932124442421, 105.29875320242718, -63.87562129320577, 75.56467860471457, 0.5920000281184912, 0.7840000372380018, 0.3680000174790621, 0.0, 0.0, 0.0, 0.0, 0.0, 1.710391266733685E9, 0.0, 2024-03-13 21:41:06.733
71.0, 210.88734865142033, 111.1479567331262, -71.44143890356645, 76.00598679948598, 0.5920000281184912, 0.7840000372380018, 0.3680000174790621, 0.0, 0.0, 0.0, 0.0, 0.0, 1.7103912667497416E9, 0.0, 2024-03-13 21:41:06.749
71.0, 213.09014972532168, 112.75985361402854, -44.85075021861121, 82.6330895209685, 0.5920000281184912, 0.7840000372380018, 0.3680000174790621, 0.0, 0.0, 0.0, 0.0, 0.0, 1.7103912667497416E9, 0.0, 2024-03-13 21:41:06.749
72.0, 197.79395890654996, 90.59720647661015, -80.58923419518396, 74.7045016149059, 0.5920000281184912, 0.7840000372380018, 0.3680000174790621, 0.0, 0.0, 0.0, 0.0, 0.0, 1.7103912667503536E9, 0.0, 2024-03-13 21:41:06.750
72.0, 204.83619052311406, 98.8810848784633, -75.14393985969946, 75.42630230635405, 0.5920000281184912, 0.7840000372380018, 0.3680000174790621, 0.0, 0.0, 0.0, 0.0, 0.0, 1.7103912667503536E9, 0.0, 2024-03-13 21:41:06.750
73.0, 209.8214771640487, 106.83959198417142, -45.5949903097935, 82.80138501897454, 0.5920000281184912, 0.7840000372380018, 0.3680000174790621, 0.0, 0.0, 0.0, 0.0, 0.0, 1.7103912667637336E9, 0.0, 2024-03-13 21:41:06.763
73.0, 200.965394068975, 95.399238019716, -60.42743353405967, 73.44789522979409, 0.5920000281184912, 0.7840000372380018, 0.3680000174790621, 0.0, 0.0, 0.0, 0.0, 0.0, 1.7103912667637336E9, 0.0, 2024-03-13 21:41:06.763
74.0, 206.32841060543433, 101.34941884921864, -78.25927652278915, 75.30662550777197, 0.5920000281184912, 0.7840000372380018, 0.3680000174790621, 0.0, 0.0, 0.0, 0.0, 0.0, 1.710391266779466E9, 0.0, 2024-03-13 21:41:06.779
74.0, 219.81074994569644, 120.1872949260287, -49.084316968452185, 91.04038462135941, 0.5920000281184912, 0.7840000372380018, 0.3680000174790621, 0.0, 0.0, 0.0, 0.0, 0.0, 1.710391266779466E9, 0.0, 2024-03-13 21:41:06.779
75.0, 213.72593271778896, 109.44630225328729, -59.28676404757425, 80.01889945194125, 0.5920000281184912, 0.7840000372380018, 0.3680000174790621, 0.0, 0.0, 0.0, 0.0, 0.0, 1.7103912667803333E9, 0.0, 2024-03-13 21:41:06.780
75.0, 209.08845677273348, 99.46450927155092, -77.87780672730878, 66.30468631442636, 0.5920000281184912, 0.7840000372380018, 0.3680000174790621, 0.0, 0.0, 0.0, 0.0, 0.0, 1.7103912667803333E9, 0.0, 2024-03-13 21:41:06.780
76.0, 212.21501313569024, 106.06543269334361, -65.15466707805172, 76.10696409828961, 0.5920000281184912, 0.7840000372380018, 0.3680000174790621, 0.0, 0.0, 0.0, 0.0, 0.0, 1.71039126679378E9, 0.0, 2024-03-13 21:41:06.793
76.0, 213.4566599209793, 108.76564046135172, -52.300630930345505, 78.68749506771564, 0.5920000281184912, 0.7840000372380018, 0.3680000174790621, 0.0, 0.0, 0.0, 0.0, 0.0, 1.71039126679378E9, 0.0, 2024-03-13 21:41:06.793
77.0, 208.79300467623398, 99.92825686605647, -73.25155048212036, 68.60098488721997, 0.5920000281184912, 0.7840000372380018, 0.3680000174790621, 0.0, 0.0, 0.0, 0.0, 0.0, 1.710391266809398E9, 0.0, 2024-03-13 21:41:06.809
77.0, 216.21670608827844, 112.45692171761766, -61.00711802719161, 77.60666398052126, 0.5920000281184912, 0.7840000372380018, 0.3680000174790621, 0.0, 0.0, 0.0, 0.0, 0.0, 1.710391266809398E9, 0.0, 2024-03-13 21:41:06.809
78.0, 215.80157719319686, 114.03141959896311, -47.124609391670674, 80.2956520486623, 0.5920000281184912, 0.7840000372380018, 0.3680000174790621, 0.0, 0.0, 0.0, 0.0, 0.0, 1.7103912668101144E9, 0.0, 2024-03-13 21:41:06.810
78.0, 210.29270455846563, 103.27546732639894, -61.87477481691167, 74.67084251530468, 0.5920000281184912, 0.7840000372380018, 0.3680000174790621, 0.0, 0.0, 0.0, 0.0, 0.0, 1.7103912668101144E9, 0.0, 2024-03-13 21:41:06.810
79.0, 211.01824514986947, 106.87699098372832, -66.40379366325215, 80.65094254445285, 0.5920000281184912, 0.7840000372380018, 0.3680000174790621, 0.0, 0.0, 0.0, 0.0, 0.0, 1.7103912668241029E9, 0.0, 2024-03-13 21:41:06.824
79.0, 203.13453604327515, 104.35629841359332, -54.357575905974954, 78.39204297121614, 0.5920000281184912, 0.7840000372380018, 0.3680000174790621, 0.0, 0.0, 0.0, 0.0, 0.0, 1.7103912668241029E9, 0.0, 2024-03-13 21:41:06.824
80.0, 209.80277766427025, 109.31166585488245, -45.68474790873006, 83.19781441427767, 0.5920000281184912, 0.7840000372380018, 0.3680000174790621, 0.0, 0.0, 0.0, 0.0, 0.0, 1.7103912668396716E9, 0.0, 2024-03-13 21:41:06.839
80.0, 212.9330739271827, 107.62123107491061, -79.25408991100267, 72.62137733958662, 0.5920000281184912, 0.7840000372380018, 0.3680000174790621, 0.0, 0.0, 0.0, 0.0, 0.0, 1.7103912668396716E9, 0.0, 2024-03-13 21:41:06.839
81.0, 214.9713194030337, 114.53630609298125, -72.22681789426133, 78.34342427179217, 0.5920000281184912, 0.7840000372380018, 0.3680000174790621, 0.0, 0.0, 0.0, 0.0, 0.0, 1.7103912668402824E9, 0.0, 2024-03-13 21:41:06.840
81.0, 209.9710731622763, 105.74380129715428, -51.26841854257509, 76.3350979955867, 0.5920000281184912, 0.7840000372380018, 0.3680000174790621, 0.0, 0.0, 0.0, 0.0, 0.0, 1.7103912668402824E9, 0.0, 2024-03-13 21:41:06.840
82.0, 202.35289695253596, 96.44267010735348, -66.98721805633977, 64.65165053401142, 0.5920000281184912, 0.7840000372380018, 0.3680000174790621, 0.0, 0.0, 0.0, 0.0, 0.0, 1.7103912668536742E9, 0.0, 2024-03-13 21:41:06.853
82.0, 213.21356642385945, 102.46390903601423, -70.1623931187205, 69.64441697485745, 0.5920000281184912, 0.7840000372380018, 0.3680000174790621, 0.0, 0.0, 0.0, 0.0, 0.0, 1.7103912668536742E9, 0.0, 2024-03-13 21:41:06.853
83.0, 216.50467838486657, 109.57345885178074, -40.34417077200487, 84.37588290032, 0.5920000281184912, 0.7840000372380018, 0.3680000174790621, 0.0, 0.0, 0.0, 0.0, 0.0, 1.7103912668696437E9, 0.0, 2024-03-13 21:41:06.869
83.0, 208.53495157929137, 102.56488633481786, -74.5717351664789, 69.72295487392694, 0.5920000281184912, 0.7840000372380018, 0.3680000174790621, 0.0, 0.0, 0.0, 0.0, 0.0, 1.7103912668696437E9, 0.0, 2024-03-13 21:41:06.869
84.0, 212.79843752877787, 104.03840691735968, -79.84125420404598, 68.11479789298028, 0.5920000281184912, 0.7840000372380018, 0.3680000174790621, 0.0, 0.0, 0.0, 0.0, 0.0, 1.7103912668703272E9, 0.0, 2024-03-13 21:41:06.870
84.0, 214.24577881162986, 112.296106019523, -59.41392064606771, 73.48903412930667, 0.5920000281184912, 0.7840000372380018, 0.3680000174790621, 0.0, 0.0, 0.0, 0.0, 0.0, 1.7103912668703272E9, 0.0, 2024-03-13 21:41:06.870
85.0, 212.9667330267839, 107.4417158770375, -71.22826460609213, 75.42256240639836, 0.5920000281184912, 0.7840000372380018, 0.3680000174790621, 0.0, 0.0, 0.0, 0.0, 0.0, 1.71039126688377E9, 0.0, 2024-03-13 21:41:06.883
85.0, 205.73002661252394, 93.26001524506137, -88.47294330177829, 59.69254319276661, 0.5920000281184912, 0.7840000372380018, 0.3680000174790621, 0.0, 0.0, 0.0, 0.0, 0.0, 1.71039126688377E9, 0.0, 2024-03-13 21:41:06.883
86.0, 206.10401660809293, 98.44725648360327, -80.96322419075295, 64.37489793729037, 0.5920000281184912, 0.7840000372380018, 0.3680000174790621, 0.0, 0.0, 0.0, 0.0, 0.0, 1.7103912668994112E9, 0.0, 2024-03-13 21:41:06.899
86.0, 216.2279257881455, 105.12671780446544, -57.098922573495656, 72.13893024530262, 0.5920000281184912, 0.7840000372380018, 0.3680000174790621, 0.0, 0.0, 0.0, 0.0, 0.0, 1.7103912668994112E9, 0.0, 2024-03-13 21:41:06.899
87.0, 204.9633471216075, 92.92342424904928, -82.63869937090203, 65.70256242156029, 0.5920000281184912, 0.7840000372380018, 0.3680000174790621, 0.0, 0.0, 0.0, 0.0, 0.0, 1.7103912669006038E9, 0.0, 2024-03-13 21:41:06.900
87.0, 212.06541713746265, 103.06229302892461, -79.81133500440046, 76.27899949625134, 0.5920000281184912, 0.7840000372380018, 0.3680000174790621, 0.0, 0.0, 0.0, 0.0, 0.0, 1.7103912669006038E9, 0.0, 2024-03-13 21:41:06.900
88.0, 209.76537866471335, 102.24699483858421, -61.50826462125406, 71.98559434711933, 0.5920000281184912, 0.7840000372380018, 0.3680000174790621, 0.0, 0.0, 0.0, 0.0, 0.0, 1.7103912669139469E9, 0.0, 2024-03-13 21:41:06.913
88.0, 209.7130200653337, 105.0706193051301, -59.32790294708684, 72.26608684379607, 0.5920000281184912, 0.7840000372380018, 0.3680000174790621, 0.0, 0.0, 0.0, 0.0, 0.0, 1.7103912669139469E9, 0.0, 2024-03-13 21:41:06.913
89.0, 216.07832978991792, 107.76708717318252, -78.34903412172571, 71.48444775305688, 0.5920000281184912, 0.7840000372380018, 0.3680000174790621, 0.0, 0.0, 0.0, 0.0, 0.0, 1.7103912669293227E9, 0.0, 2024-03-13 21:41:06.929
89.0, 214.92644060356542, 110.53461314039305, -62.2712042122148, 78.76229306682944, 0.5920000281184912, 0.7840000372380018, 0.3680000174790621, 0.0, 0.0, 0.0, 0.0, 0.0, 1.7103912669293227E9, 0.0, 2024-03-13 21:41:06.929
90.0, 211.3024775465019, 108.75816066144034, -58.744478553999215, 74.65214301552624, 0.5920000281184912, 0.7840000372380018, 0.3680000174790621, 0.0, 0.0, 0.0, 0.0, 0.0, 1.7103912669300852E9, 0.0, 2024-03-13 21:41:06.930
90.0, 205.0044860211201, 97.7665946916677, -84.16457855282351, 65.8820776194334, 0.5920000281184912, 0.7840000372380018, 0.3680000174790621, 0.0, 0.0, 0.0, 0.0, 0.0, 1.7103912669300852E9, 0.0, 2024-03-13 21:41:06.930
91.0, 211.5268715438433, 104.75646770885214, -69.8295420226641, 66.27102721482515, 0.5920000281184912, 0.7840000372380018, 0.3680000174790621, 0.0, 0.0, 0.0, 0.0, 0.0, 1.7103912669437537E9, 0.0, 2024-03-13 21:41:06.943
91.0, 208.12356258416548, 108.55994596378878, -55.47580599272624, 76.26777979638427, 0.5920000281184912, 0.7840000372380018, 0.3680000174790621, 0.0, 0.0, 0.0, 0.0, 0.0, 1.7103912669437537E9, 0.0, 2024-03-13 21:41:06.943
92.0, 205.69262761296704, 100.6986762569286, -79.60190060688183, 61.95892256591469, 0.5920000281184912, 0.7840000372380018, 0.3680000174790621, 0.0, 0.0, 0.0, 0.0, 0.0, 1.710391266959338E9, 0.0, 2024-03-13 21:41:06.959
92.0, 210.18050755979493, 107.09390518115833, -74.6091341660358, 72.88317033648491, 0.5920000281184912, 0.7840000372380018, 0.3680000174790621, 0.0, 0.0, 0.0, 0.0, 0.0, 1.710391266959338E9, 0.0, 2024-03-13 21:41:06.959
93.0, 206.9679334978573, 100.94550965400413, -59.8627086407505, 69.72295487392694, 0.5920000281184912, 0.7840000372380018, 0.3680000174790621, 0.0, 0.0, 0.0, 0.0, 0.0, 1.7103912669600117E9, 0.0, 2024-03-13 21:41:06.960
93.0, 202.71566724823788, 96.74186210380867, -66.44493256276473, 67.52015380002558, 0.5920000281184912, 0.7840000372380018, 0.3680000174790621, 0.0, 0.0, 0.0, 0.0, 0.0, 1.7103912669600117E9, 0.0, 2024-03-13 21:41:06.960
94.0, 199.10292389104143, 84.97239694325253, -90.5448478772305, 49.12732581794262, 0.5920000281184912, 0.7840000372380018, 0.3680000174790621, 0.0, 0.0, 0.0, 0.0, 0.0, 1.710391266973992E9, 0.0, 2024-03-13 21:41:06.973
94.0, 203.3028315412812, 98.06952658807859, -58.389188058208674, 72.23616764415056, 0.5920000281184912, 0.7840000372380018, 0.3680000174790621, 0.0, 0.0, 0.0, 0.0, 0.0, 1.710391266973992E9, 0.0, 2024-03-13 21:41:06.973
95.0, 203.42250833986327, 95.85176591435447, -62.15526731358841, 67.63609069865197, 0.5920000281184912, 0.7840000372380018, 0.3680000174790621, 0.0, 0.0, 0.0, 0.0, 0.0, 1.7103912669893808E9, 0.0, 2024-03-13 21:41:06.989
95.0, 207.39802199276164, 96.34543270850554, -82.11885327706113, 67.01526730600744, 0.5920000281184912, 0.7840000372380018, 0.3680000174790621, 0.0, 0.0, 0.0, 0.0, 0.0, 1.7103912669893808E9, 0.0, 2024-03-13 21:41:06.989
96.0, 207.4915194916539, 100.93428995413706, -72.30535579333082, 74.38287021871656, 0.5920000281184912, 0.7840000372380018, 0.3680000174790621, 0.0, 0.0, 0.0, 0.0, 0.0, 1.710391266990037E9, 0.0, 2024-03-13 21:41:06.990
96.0, 212.0467176376842, 105.46330880047753, -50.39328195294365, 75.4076028065756, 0.5920000281184912, 0.7840000372380018, 0.3680000174790621, 0.0, 0.0, 0.0, 0.0, 0.0, 1.710391266990037E9, 0.0, 2024-03-13 21:41:06.990
97.0, 209.0473178732209, 99.57296637026593, -74.41091946838424, 69.4050633776933, 0.5920000281184912, 0.7840000372380018, 0.3680000174790621, 0.0, 0.0, 0.0, 0.0, 0.0, 1.7103912670204065E9, 0.0, 2024-03-13 21:41:07.020
97.0, 207.88794888695702, 106.4394226889126, -76.3519275453873, 69.54343967605382, 0.5920000281184912, 0.7840000372380018, 0.3680000174790621, 0.0, 0.0, 0.0, 0.0, 0.0, 1.7103912670204065E9, 0.0, 2024-03-13 21:41:07.020
98.0, 203.47860683919862, 100.23492866242304, -45.79694490740076, 77.22519418504089, 0.5920000281184912, 0.7840000372380018, 0.3680000174790621, 0.0, 0.0, 0.0, 0.0, 0.0, 1.7103912670210288E9, 0.0, 2024-03-13 21:41:07.021
98.0, 202.60347024956718, 96.55486710602418, -60.65930733131245, 73.71716802660376, 0.5920000281184912, 0.7840000372380018, 0.3680000174790621, 0.0, 0.0, 0.0, 0.0, 0.0, 1.7103912670210288E9, 0.0, 2024-03-13 21:41:07.021
99.0, 206.5191455031745, 97.59455929370597, -74.91580596240237, 71.28249315544963, 0.5920000281184912, 0.7840000372380018, 0.3680000174790621, 0.0, 0.0, 0.0, 0.0, 0.0, 1.7103912670216272E9, 0.0, 2024-03-13 21:41:07.021
99.0, 199.80976498266682, 95.04020762396976, -62.25250471243635, 68.39529038965702, 0.5920000281184912, 0.7840000372380018, 0.3680000174790621, 0.0, 0.0, 0.0, 0.0, 0.0, 1.7103912670216272E9, 0.0, 2024-03-13 21:41:07.021
100.0, 202.05370495608076, 97.8039936912246, -55.098076097201556, 66.00175441801548, 0.5920000281184912, 0.7840000372380018, 0.3680000174790621, 0.0, 0.0, 0.0, 0.0, 0.0, 1.7103912670347025E9, 0.0, 2024-03-13 21:41:07.034
100.0, 208.86780267534778, 99.59166587004438, -72.72422458836809, 65.40711032506078, 0.5920000281184912, 0.7840000372380018, 0.3680000174790621, 0.0, 0.0, 0.0, 0.0, 0.0, 1.7103912670347025E9, 0.0, 2024-03-13 21:41:07.034
0.0, 207.25403584446758, 105.22769510326907, -71.4975374029018, 70.02214687038213, 0.5920000281184912, 0.7840000372380018, 0.3680000174790621, 0.0, 0.0, 0.0, 0.0, 0.0, 1.7103912670354505E9, 0.0, 2024-03-13 21:41:07.035
1.0, 214.8759519541636, 114.9626546879299, -48.49715267540887, 81.64575593266636, 0.5920000281184912, 0.7840000372380018, 0.3680000174790621, 0.0, 0.0, 0.0, 0.0, 0.0, 1.7103912670486274E9, 0.0, 2024-03-13 21:41:07.048
1.0, 206.1320658577606, 98.00220838887617, -88.22610990470275, 69.67807607445866, 0.5920000281184912, 0.7840000372380018, 0.3680000174790621, 0.0, 0.0, 0.0, 0.0, 0.0, 1.7103912670486274E9, 0.0, 2024-03-13 21:41:07.048
2.0, 204.11625978164375, 96.03502101218328, -77.77308952854946, 61.98510186560452, 0.5920000281184912, 0.7840000372380018, 0.3680000174790621, 0.0, 0.0, 0.0, 0.0, 0.0, 1.71039126706437E9, 0.0, 2024-03-13 21:41:07.064
2.0, 204.98017667140812, 96.5847863056697, -57.32705647079274, 66.74225460924208, 0.5920000281184912, 0.7840000372380018, 0.3680000174790621, 0.0, 0.0, 0.0, 0.0, 0.0, 1.71039126706437E9, 0.0, 2024-03-13 21:41:07.064
3.0, 202.5829007998109, 91.0272949715145, -65.5286570736207, 54.74465555138886, 0.5920000281184912, 0.7840000372380018, 0.3680000174790621, 0.0, 0.0, 0.0, 0.0, 0.0, 1.7103912670651095E9, 0.0, 2024-03-13 21:41:07.065
3.0, 208.0581143349409, 95.88168511399999, -98.27522108564153, 61.401677472516894, 0.5920000281184912, 0.7840000372380018, 0.3680000174790621, 0.0, 0.0, 0.0, 0.0, 0.0, 1.7103912670651095E9, 0.0, 2024-03-13 21:41:07.065
4.0, 210.0963598107919, 105.78494019666687, -54.44359360495582, 71.95193524751812, 0.5920000281184912, 0.7840000372380018, 0.3680000174790621, 0.0, 0.0, 0.0, 0.0, 0.0, 1.7103912670786908E9, 0.0, 2024-03-13 21:41:07.078
4.0, 206.947364048101, 104.07954581687227, -63.25479790056124, 72.37080404255539, 0.5920000281184912, 0.7840000372380018, 0.3680000174790621, 0.0, 0.0, 0.0, 0.0, 0.0, 1.7103912670786908E9, 0.0, 2024-03-13 21:41:07.078
5.0, 210.24221590906382, 105.70266239764169, -84.59466704772785, 64.06448624096811, 0.5920000281184912, 0.7840000372380018, 0.3680000174790621, 0.0, 0.0, 0.0, 0.0, 0.0, 1.7103912670944417E9, 0.0, 2024-03-13 21:41:07.094
5.0, 217.6995764207095, 116.28657927224413, -58.50512495683506, 78.1863484736532, 0.5920000281184912, 0.7840000372380018, 0.3680000174790621, 0.0, 0.0, 0.0, 0.0, 0.0, 1.7103912670944417E9, 0.0, 2024-03-13 21:41:07.094
6.0, 216.4354902356863, 108.6983222621493, -51.522731739562005, 75.87509030103683, 0.5920000281184912, 0.7840000372380018, 0.3680000174790621, 0.0, 0.0, 0.0, 0.0, 0.0, 1.7103912670951123E9, 0.0, 2024-03-13 21:41:07.095
6.0, 201.89101930800825, 89.34807989140972, -75.19255855912343, 63.350165349431336, 0.5920000281184912, 0.7840000372380018, 0.3680000174790621, 0.0, 0.0, 0.0, 0.0, 0.0, 1.7103912670951123E9, 0.0, 2024-03-13 21:41:07.095
7.0, 202.41834520176053, 95.73582901572809, -69.25733732944354, 68.4027701895684, 0.5920000281184912, 0.7840000372380018, 0.3680000174790621, 0.0, 0.0, 0.0, 0.0, 0.0, 1.7103912671087077E9, 0.0, 2024-03-13 21:41:07.108
7.0, 200.06594812963158, 94.13141193473712, -53.25430541904643, 73.31325883138925, 0.5920000281184912, 0.7840000372380018, 0.3680000174790621, 0.0, 0.0, 0.0, 0.0, 0.0, 1.7103912671087077E9, 0.0, 2024-03-13 21:41:07.108
8.0, 201.8349208086729, 91.17689096974209, -55.25515189534053, 65.0705193290487, 0.5920000281184912, 0.7840000372380018, 0.3680000174790621, 0.0, 0.0, 0.0, 0.0, 0.0, 1.7103912671243732E9, 0.0, 2024-03-13 21:41:07.124
8.0, 203.42063838988543, 98.59685248183087, -72.02112339669839, 62.08981906436384, 0.5920000281184912, 0.7840000372380018, 0.3680000174790621, 0.0, 0.0, 0.0, 0.0, 0.0, 1.7103912671243732E9, 0.0, 2024-03-13 21:41:07.124
9.0, 212.96860297676176, 105.60542499879375, -59.79913034150377, 78.35090407170355, 0.5920000281184912, 0.7840000372380018, 0.3680000174790621, 0.0, 0.0, 0.0, 0.0, 0.0, 1.710391267125183E9, 0.0, 2024-03-13 21:41:07.125
9.0, 206.56963415257633, 98.22286248626187, -51.7097267373465, 74.21083482075483, 0.5920000281184912, 0.7840000372380018, 0.3680000174790621, 0.0, 0.0, 0.0, 0.0, 0.0, 1.710391267125183E9, 0.0, 2024-03-13 21:41:07.125
10.0, 203.55901468824595, 90.39151197904721, -76.61372054228559, 57.92731041368097, 0.5920000281184912, 0.7840000372380018, 0.3680000174790621, 0.0, 0.0, 0.0, 0.0, 0.0, 1.7103912671390696E9, 0.0, 2024-03-13 21:41:07.139
10.0, 203.85820668470114, 101.18486325116828, -64.48148508602753, 74.52872631698847, 0.5920000281184912, 0.7840000372380018, 0.3680000174790621, 0.0, 0.0, 0.0, 0.0, 0.0, 1.7103912671390696E9, 0.0, 2024-03-13 21:41:07.139
11.0, 198.43909164890647, 92.05202755937353, -51.964039934333414, 78.21626767329872, 0.5920000281184912, 0.7840000372380018, 0.3680000174790621, 0.0, 0.0, 0.0, 0.0, 0.0, 1.7103912671547685E9, 0.0, 2024-03-13 21:41:07.154
11.0, 194.71041139308363, 88.30838770372793, -74.051889072638, 63.376344649121165, 0.5920000281184912, 0.7840000372380018, 0.3680000174790621, 0.0, 0.0, 0.0, 0.0, 0.0, 1.7103912671547685E9, 0.0, 2024-03-13 21:41:07.154
12.0, 204.0975602818653, 98.7314888802357, -71.1272873072885, 64.29262013826519, 0.5920000281184912, 0.7840000372380018, 0.3680000174790621, 0.0, 0.0, 0.0, 0.0, 0.0, 1.7103912671552773E9, 0.0, 2024-03-13 21:41:07.155
12.0, 204.22845678031445, 102.33675243752077, -57.521531268488616, 74.55864551663399, 0.5920000281184912, 0.7840000372380018, 0.3680000174790621, 0.0, 0.0, 0.0, 0.0, 0.0, 1.7103912671552773E9, 0.0, 2024-03-13 21:41:07.155
13.0, 200.71295082196593, 97.49358199490234, -72.28665629355237, 66.70485560968518, 0.5920000281184912, 0.7840000372380018, 0.3680000174790621, 0.0, 0.0, 0.0, 0.0, 0.0, 1.710391267169028E9, 0.0, 2024-03-13 21:41:07.169
13.0, 214.50196195859462, 103.35026532551274, -83.77936885738745, 68.98993448261172, 0.5920000281184912, 0.7840000372380018, 0.3680000174790621, 0.0, 0.0, 0.0, 0.0, 0.0, 1.710391267169028E9, 0.0, 2024-03-13 21:41:07.169
14.0, 214.30374726094306, 112.67757581500337, -50.7822315483354, 79.83190445415676, 0.5920000281184912, 0.7840000372380018, 0.3680000174790621, 0.0, 0.0, 0.0, 0.0, 0.0, 1.710391267184708E9, 0.0, 2024-03-13 21:41:07.184
14.0, 223.24210815504193, 110.72534803813323, -49.484486263711005, 78.70993446744978, 0.5920000281184912, 0.7840000372380018, 0.3680000174790621, 0.0, 0.0, 0.0, 0.0, 0.0, 1.710391267184708E9, 0.0, 2024-03-13 21:41:07.184
15.0, 204.7221235744655, 94.55402062973008, -87.90821840846911, 59.2512349979952, 0.5920000281184912, 0.7840000372380018, 0.3680000174790621, 0.0, 0.0, 0.0, 0.0, 0.0, 1.7103912671853385E9, 0.0, 2024-03-13 21:41:07.185
15.0, 206.07596735842526, 101.68226994527504, -70.47654471499845, 66.34582521393895, 0.5920000281184912, 0.7840000372380018, 0.3680000174790621, 0.0, 0.0, 0.0, 0.0, 0.0, 1.7103912671853385E9, 0.0, 2024-03-13 21:41:07.185
16.0, 210.78450140263885, 102.82667933171615, -54.09952280903235, 70.09320496954024, 0.5920000281184912, 0.7840000372380018, 0.3680000174790621, 0.0, 0.0, 0.0, 0.0, 0.0, 1.7103912671988263E9, 0.0, 2024-03-13 21:41:07.198
16.0, 199.42268533725291, 84.5011695488356, -85.45858393749222, 55.89280483778566, 0.5920000281184912, 0.7840000372380018, 0.3680000174790621, 0.0, 0.0, 0.0, 0.0, 0.0, 1.7103912671988263E9, 0.0, 2024-03-13 21:41:07.198
17.0, 208.0955133344978, 102.38163123698905, -85.29028843948618, 67.94650239497423, 0.5920000281184912, 0.7840000372380018, 0.3680000174790621, 0.0, 0.0, 0.0, 0.0, 0.0, 1.7103912672143772E9, 0.0, 2024-03-13 21:41:07.214
17.0, 204.64732557535172, 102.08991904044524, -45.834343906957656, 81.20818763785064, 0.5920000281184912, 0.7840000372380018, 0.3680000174790621, 0.0, 0.0, 0.0, 0.0, 0.0, 1.7103912672143772E9, 0.0, 2024-03-13 21:41:07.214
18.0, 196.77483616862446, 90.1371987820603, -62.85836850525811, 65.440769424662, 0.5920000281184912, 0.7840000372380018, 0.3680000174790621, 0.0, 0.0, 0.0, 0.0, 0.0, 1.710391267215106E9, 0.0, 2024-03-13 21:41:07.215
18.0, 194.72911089286208, 85.45484403753653, -75.9442784502171, 59.18765669874847, 0.5920000281184912, 0.7840000372380018, 0.3680000174790621, 0.0, 0.0, 0.0, 0.0, 0.0, 1.710391267215106E9, 0.0, 2024-03-13 21:41:07.215
19.0, 197.0216695657, 92.62797215254977, -55.554343891795725, 71.4807078531012, 0.5920000281184912, 0.7840000372380018, 0.3680000174790621, 0.0, 0.0, 0.0, 0.0, 0.0, 1.7103912672289095E9, 0.0, 2024-03-13 21:41:07.228
19.0, 194.86000739131123, 89.88288558507338, -59.76547124190256, 64.6217313343659, 0.5920000281184912, 0.7840000372380018, 0.3680000174790621, 0.0, 0.0, 0.0, 0.0, 0.0, 1.7103912672289095E9, 0.0, 2024-03-13 21:41:07.228
20.0, 202.04809510614723, 90.77298177452758, -83.45773746119812, 61.86542506702244, 0.5920000281184912, 0.7840000372380018, 0.3680000174790621, 0.0, 0.0, 0.0, 0.0, 0.0, 1.71039126724458E9, 0.0, 2024-03-13 21:41:07.244
20.0, 203.9479642836377, 99.16905717505142, -64.22343198908493, 70.39987676590681, 0.5920000281184912, 0.7840000372380018, 0.3680000174790621, 0.0, 0.0, 0.0, 0.0, 0.0, 1.71039126724458E9, 0.0, 2024-03-13 21:41:07.244
21.0, 202.99802969489247, 98.03212758852169, -50.90564824687317, 65.64646392222494, 0.5920000281184912, 0.7840000372380018, 0.3680000174790621, 0.0, 0.0, 0.0, 0.0, 0.0, 1.710391267245354E9, 0.0, 2024-03-13 21:41:07.245
21.0, 191.99898392520845, 82.93789136735722, -96.26315490948036, 51.54704108927399, 0.5920000281184912, 0.7840000372380018, 0.3680000174790621, 0.0, 0.0, 0.0, 0.0, 0.0, 1.710391267245354E9, 0.0, 2024-03-13 21:41:07.245
22.0, 199.44512473698705, 91.53592136548832, -78.31911492208019, 63.387564348988235, 0.5920000281184912, 0.7840000372380018, 0.3680000174790621, 0.0, 0.0, 0.0, 0.0, 0.0, 1.7103912672586832E9, 0.0, 2024-03-13 21:41:07.258
22.0, 201.14303931687027, 94.99906872445717, -62.11412841407582, 65.31361282616854, 0.5920000281184912, 0.7840000372380018, 0.3680000174790621, 0.0, 0.0, 0.0, 0.0, 0.0, 1.7103912672586832E9, 0.0, 2024-03-13 21:41:07.258
23.0, 201.6105268113315, 94.03043463593349, -70.12125421920791, 60.7696343800053, 0.5920000281184912, 0.7840000372380018, 0.3680000174790621, 0.0, 0.0, 0.0, 0.0, 0.0, 1.710391267274648E9, 0.0, 2024-03-13 21:41:07.274
23.0, 201.49085001274943, 95.17110412241891, -80.50695639615878, 63.2903269501403, 0.5920000281184912, 0.7840000372380018, 0.3680000174790621, 0.0, 0.0, 0.0, 0.0, 0.0, 1.710391267274648E9, 0.0, 2024-03-13 21:41:07.274
24.0, 207.82250063773245, 106.50300098815933, -57.76088486565277, 75.11963050998747, 0.5920000281184912, 0.7840000372380018, 0.3680000174790621, 0.0, 0.0, 0.0, 0.0, 0.0, 1.7103912672751105E9, 0.0, 2024-03-13 21:41:07.275
24.0, 202.3136280030012, 97.14203139906749, -62.15152741363272, 66.52160051185638, 0.5920000281184912, 0.7840000372380018, 0.3680000174790621, 0.0, 0.0, 0.0, 0.0, 0.0, 1.7103912672751105E9, 0.0, 2024-03-13 21:41:07.275
25.0, 206.27418205607682, 94.6175989289768, -81.00062319030985, 60.86313187889755, 0.5920000281184912, 0.7840000372380018, 0.3680000174790621, 0.0, 0.0, 0.0, 0.0, 0.0, 1.7103912672889457E9, 0.0, 2024-03-13 21:41:07.288
25.0, 206.38263915479183, 104.85370510770008, -69.7173450239934, 72.19128884468228, 0.5920000281184912, 0.7840000372380018, 0.3680000174790621, 0.0, 0.0, 0.0, 0.0, 0.0, 1.7103912672889457E9, 0.0, 2024-03-13 21:41:07.288
26.0, 205.70945716276765, 96.16591751063243, -60.52467093290761, 63.30528654996306, 0.5920000281184912, 0.7840000372380018, 0.3680000174790621, 0.0, 0.0, 0.0, 0.0, 0.0, 1.7103912673046756E9, 0.0, 2024-03-13 21:41:07.304
26.0, 189.85976115055382, 77.05128883710131, -91.37136576743796, 45.09945356566459, 0.5920000281184912, 0.7840000372380018, 0.3680000174790621, 0.0, 0.0, 0.0, 0.0, 0.0, 1.7103912673046756E9, 0.0, 2024-03-13 21:41:07.304
27.0, 186.43027289118618, 77.13730653608218, -91.00111567182466, 48.37934582680464, 0.5920000281184912, 0.7840000372380018, 0.3680000174790621, 0.0, 0.0, 0.0, 0.0, 0.0, 1.710391267305257E9, 0.0, 2024-03-13 21:41:07.305
27.0, 185.62245450075716, 79.88239310355857, -72.48487099120393, 50.507348901592195, 0.5920000281184912, 0.7840000372380018, 0.3680000174790621, 0.0, 0.0, 0.0, 0.0, 0.0, 1.710391267305257E9, 0.0, 2024-03-13 21:41:07.305
28.0, 177.5704498961568, 66.20557896560058, -95.42541731940582, 39.58310113102198, 0.5920000281184912, 0.7840000372380018, 0.3680000174790621, 0.0, 0.0, 0.0, 0.0, 0.0, 1.7103912673187776E9, 0.0, 2024-03-13 21:41:07.318
28.0, 175.9361136155203, 67.3836474516429, -105.57924569910392, 37.208264659158885, 0.5920000281184912, 0.7840000372380018, 0.3680000174790621, 0.0, 0.0, 0.0, 0.0, 0.0, 1.7103912673187776E9, 0.0, 2024-03-13 21:41:07.318
29.0, 183.5281105255708, 73.41610608017072, -80.18532499996945, 50.903778296895325, 0.5920000281184912, 0.7840000372380018, 0.3680000174790621, 0.0, 0.0, 0.0, 0.0, 0.0, 1.7103912673346207E9, 0.0, 2024-03-13 21:41:07.334
29.0, 184.4930047141388, 72.3128355932422, -77.1672257357277, 46.42337814997882, 0.5920000281184912, 0.7840000372380018, 0.3680000174790621, 0.0, 0.0, 0.0, 0.0, 0.0, 1.7103912673346207E9, 0.0, 2024-03-13 21:41:07.334
30.0, 177.96313939150423, 66.29159666458145, -101.95902254199609, 35.13262018375099, 0.5920000281184912, 0.7840000372380018, 0.3680000174790621, 0.0, 0.0, 0.0, 0.0, 0.0, 1.7103912673353088E9, 0.0, 2024-03-13 21:41:07.335
30.0, 184.7959366105497, 76.41550584463403, -88.9142514965497, 48.136252329684794, 0.5920000281184912, 0.7840000372380018, 0.3680000174790621, 0.0, 0.0, 0.0, 0.0, 0.0, 1.7103912673353088E9, 0.0, 2024-03-13 21:41:07.335
31.0, 196.02685617748648, 80.71639079367742, -71.76307029975578, 47.717383534647524, 0.5920000281184912, 0.7840000372380018, 0.3680000174790621, 0.0, 0.0, 0.0, 0.0, 0.0, 1.7103912673487148E9, 0.0, 2024-03-13 21:41:07.348
31.0, 194.25788349844515, 75.89939965074882, -92.1343053583987, 45.03213536646217, 0.5920000281184912, 0.7840000372380018, 0.3680000174790621, 0.0, 0.0, 0.0, 0.0, 0.0, 1.7103912673487148E9, 0.0, 2024-03-13 21:41:07.348
32.0, 196.22133097518235, 85.95599063159898, -103.57091942289844, 47.53412843681872, 0.5920000281184912, 0.7840000372380018, 0.3680000174790621, 0.0, 0.0, 0.0, 0.0, 0.0, 1.710391267364353E9, 0.0, 2024-03-13 21:41:07.364
32.0, 203.59641368780285, 95.99762201262638, -63.90928039280698, 66.20370901562274, 0.5920000281184912, 0.7840000372380018, 0.3680000174790621, 0.0, 0.0, 0.0, 0.0, 0.0, 1.710391267364353E9, 0.0, 2024-03-13 21:41:07.364
33.0, 199.3927661376074, 86.9844631194137, -68.06056934362277, 55.5449941419065, 0.5920000281184912, 0.7840000372380018, 0.3680000174790621, 0.0, 0.0, 0.0, 0.0, 0.0, 1.7103912673650937E9, 0.0, 2024-03-13 21:41:07.365
33.0, 199.64333943463862, 89.22092329291627, -106.39454388944432, 53.278614768758416, 0.5920000281184912, 0.7840000372380018, 0.3680000174790621, 0.0, 0.0, 0.0, 0.0, 0.0, 1.7103912673650937E9, 0.0, 2024-03-13 21:41:07.365
34.0, 202.26500930357724, 96.6184454052709, -68.34106184029952, 58.85854550264776, 0.5920000281184912, 0.7840000372380018, 0.3680000174790621, 0.0, 0.0, 0.0, 0.0, 0.0, 1.7103912673786547E9, 0.0, 2024-03-13 21:41:07.378
34.0, 200.1370062287897, 93.07676014723256, -68.08300874335691, 55.361739044077694, 0.5920000281184912, 0.7840000372380018, 0.3680000174790621, 0.0, 0.0, 0.0, 0.0, 0.0, 1.7103912673786547E9, 0.0, 2024-03-13 21:41:07.378
35.0, 207.01468224730343, 91.42372436681762, -82.40682557364926, 52.83356667403132, 0.5920000281184912, 0.7840000372380018, 0.3680000174790621, 0.0, 0.0, 0.0, 0.0, 0.0, 1.7103912673943512E9, 0.0, 2024-03-13 21:41:07.394
35.0, 210.59002660494298, 100.39200446056202, -61.46338582178578, 66.60761821083724, 0.5920000281184912, 0.7840000372380018, 0.3680000174790621, 0.0, 0.0, 0.0, 0.0, 0.0, 1.7103912673943512E9, 0.0, 2024-03-13 21:41:07.394
36.0, 203.6899111866951, 95.17858392233029, -72.38015379244462, 60.3245862852782, 0.5920000281184912, 0.7840000372380018, 0.3680000174790621, 0.0, 0.0, 0.0, 0.0, 0.0, 1.710391267395233E9, 0.0, 2024-03-13 21:41:07.395
36.0, 196.8758134674281, 86.40477862628177, -90.33541347971186, 58.26390140969306, 0.5920000281184912, 0.7840000372380018, 0.3680000174790621, 0.0, 0.0, 0.0, 0.0, 0.0, 1.710391267395233E9, 0.0, 2024-03-13 21:41:07.395
37.0, 197.62005355861038, 90.05118108307943, -84.97613684320822, 60.23482868634164, 0.5920000281184912, 0.7840000372380018, 0.3680000174790621, 0.0, 0.0, 0.0, 0.0, 0.0, 1.7103912674252288E9, 0.0, 2024-03-13 21:41:07.425
37.0, 194.74781039264053, 91.2853480684571, -62.016891015227884, 61.22964207455516, 0.5920000281184912, 0.7840000372380018, 0.3680000174790621, 0.0, 0.0, 0.0, 0.0, 0.0, 1.7103912674252288E9, 0.0, 2024-03-13 21:41:07.425
38.0, 186.43401279114187, 83.00894946651533, -87.3584531149827, 52.175344281829894, 0.5920000281184912, 0.7840000372380018, 0.3680000174790621, 0.0, 0.0, 0.0, 0.0, 0.0, 1.7103912674257517E9, 0.0, 2024-03-13 21:41:07.425
38.0, 185.55887620151043, 77.4626778322272, -81.67754508228973, 47.19753744080663, 0.5920000281184912, 0.7840000372380018, 0.3680000174790621, 0.0, 0.0, 0.0, 0.0, 0.0, 1.7103912674257517E9, 0.0, 2024-03-13 21:41:07.425
39.0, 179.4142205743119, 76.02281634928659, -80.98940349044278, 44.830180768854916, 0.5920000281184912, 0.7840000372380018, 0.3680000174790621, 0.0, 0.0, 0.0, 0.0, 0.0, 1.7103912674265397E9, 0.0, 2024-03-13 21:41:07.426
39.0, 191.69979192875326, 82.44048467325047, -65.39776057517156, 48.61869942396879, 0.5920000281184912, 0.7840000372380018, 0.3680000174790621, 0.0, 0.0, 0.0, 0.0, 0.0, 1.7103912674265397E9, 0.0, 2024-03-13 21:41:07.426
40.0, 190.80969573929906, 78.85018071578816, -94.46800293074921, 51.674197687767446, 0.5920000281184912, 0.7840000372380018, 0.3680000174790621, 0.0, 0.0, 0.0, 0.0, 0.0, 1.7103912674388983E9, 0.0, 2024-03-13 21:41:07.438
40.0, 195.21529788710177, 89.61361278826371, -63.168780201580375, 56.83899952657521, 0.5920000281184912, 0.7840000372380018, 0.3680000174790621, 0.0, 0.0, 0.0, 0.0, 0.0, 1.7103912674388983E9, 0.0, 2024-03-13 21:41:07.438
41.0, 200.2791224271059, 96.11729881120846, -57.04282407416031, 65.24629462696612, 0.5920000281184912, 0.7840000372380018, 0.3680000174790621, 0.0, 0.0, 0.0, 0.0, 0.0, 1.7103912674548092E9, 0.0, 2024-03-13 21:41:07.454
41.0, 199.69569803401828, 90.1708578816615, -82.92293176753446, 59.83091949112713, 0.5920000281184912, 0.7840000372380018, 0.3680000174790621, 0.0, 0.0, 0.0, 0.0, 0.0, 1.7103912674548092E9, 0.0, 2024-03-13 21:41:07.454
42.0, 201.77134250942618, 99.01946117682382, -83.22960356390104, 65.97931501828134, 0.5920000281184912, 0.7840000372380018, 0.3680000174790621, 0.0, 0.0, 0.0, 0.0, 0.0, 1.7103912674553385E9, 0.0, 2024-03-13 21:41:07.455
42.0, 207.30265454389155, 106.80593288457021, -50.752312348689884, 72.57275864016265, 0.5920000281184912, 0.7840000372380018, 0.3680000174790621, 0.0, 0.0, 0.0, 0.0, 0.0, 1.7103912674553385E9, 0.0, 2024-03-13 21:41:07.455
43.0, 202.86713319644332, 99.68516336893663, -65.25938427681103, 68.06243929360062, 0.5920000281184912, 0.7840000372380018, 0.3680000174790621, 0.0, 0.0, 0.0, 0.0, 0.0, 1.7103912674690187E9, 0.0, 2024-03-13 21:41:07.469
43.0, 196.03059607744217, 90.4326508785598, -83.17350506456569, 60.934189978055656, 0.5920000281184912, 0.7840000372380018, 0.3680000174790621, 0.0, 0.0, 0.0, 0.0, 0.0, 1.7103912674690187E9, 0.0, 2024-03-13 21:41:07.469
44.0, 202.10793350543827, 97.61325879348442, -63.40813379874453, 69.0684723816812, 0.5920000281184912, 0.7840000372380018, 0.3680000174790621, 0.0, 0.0, 0.0, 0.0, 0.0, 1.7103912674846587E9, 0.0, 2024-03-13 21:41:07.484
44.0, 199.8378142323345, 96.12103871116415, -63.31463629985228, 66.6263177106157, 0.5920000281184912, 0.7840000372380018, 0.3680000174790621, 0.0, 0.0, 0.0, 0.0, 0.0, 1.7103912674846587E9, 0.0, 2024-03-13 21:41:07.484
45.0, 199.6545591345057, 86.60299332393333, -98.5444938824512, 58.129265011288226, 0.5920000281184912, 0.7840000372380018, 0.3680000174790621, 0.0, 0.0, 0.0, 0.0, 0.0, 1.7103912674853158E9, 0.0, 2024-03-13 21:41:07.485
45.0, 202.26126940362155, 98.38741808431223, -71.67331270081922, 67.08632540516555, 0.5920000281184912, 0.7840000372380018, 0.3680000174790621, 0.0, 0.0, 0.0, 0.0, 0.0, 1.7103912674853158E9, 0.0, 2024-03-13 21:41:07.485
46.0, 206.15824515745044, 102.90147733082995, -55.40474789356813, 74.91393601242453, 0.5920000281184912, 0.7840000372380018, 0.3680000174790621, 0.0, 0.0, 0.0, 0.0, 0.0, 1.7103912675150423E9, 0.0, 2024-03-13 21:41:07.515
46.0, 197.15630596410483, 90.88517877319828, -74.88962666271254, 64.33001913782209, 0.5920000281184912, 0.7840000372380018, 0.3680000174790621, 0.0, 0.0, 0.0, 0.0, 0.0, 1.7103912675150423E9, 0.0, 2024-03-13 21:41:07.515
47.0, 196.30360877420753, 95.6572911166586, -70.42792601557449, 71.9220160478726, 0.5920000281184912, 0.7840000372380018, 0.3680000174790621, 0.0, 0.0, 0.0, 0.0, 0.0, 1.7103912675158134E9, 0.0, 2024-03-13 21:41:07.515
47.0, 190.7161982404068, 91.86503256158903, -57.48039236897603, 77.47202758211643, 0.5920000281184912, 0.7840000372380018, 0.3680000174790621, 0.0, 0.0, 0.0, 0.0, 0.0, 1.7103912675158134E9, 0.0, 2024-03-13 21:41:07.515
48.0, 193.80909550376236, 91.62567896442488, -64.73953818297014, 69.10961128119379, 0.5920000281184912, 0.7840000372380018, 0.3680000174790621, 0.0, 0.0, 0.0, 0.0, 0.0, 1.7103912675165412E9, 0.0, 2024-03-13 21:41:07.516
48.0, 197.59761415887624, 95.399238019716, -76.74835694069043, 72.67747583892196, 0.5920000281184912, 0.7840000372380018, 0.3680000174790621, 0.0, 0.0, 0.0, 0.0, 0.0, 1.7103912675165412E9, 0.0, 2024-03-13 21:41:07.516
49.0, 202.66517859883606, 104.53207371151075, -66.58704876108095, 80.407849047333, 0.5920000281184912, 0.7840000372380018, 0.3680000174790621, 0.0, 0.0, 0.0, 0.0, 0.0, 1.7103912675286887E9, 0.0, 2024-03-13 21:41:07.528
49.0, 206.4349977541715, 107.4417158770375, -60.767764430027455, 75.9237090004608, 0.5920000281184912, 0.7840000372380018, 0.3680000174790621, 0.0, 0.0, 0.0, 0.0, 0.0, 1.7103912675286887E9, 0.0, 2024-03-13 21:41:07.528
50.0, 208.24136943276972, 100.37330496078357, -79.99833000218496, 67.43413610104471, 0.5920000281184912, 0.7840000372380018, 0.3680000174790621, 0.0, 0.0, 0.0, 0.0, 0.0, 1.7103912675443633E9, 0.0, 2024-03-13 21:41:07.544
50.0, 211.2856479967013, 106.76105408510193, -73.82001527538523, 74.5175066171214, 0.5920000281184912, 0.7840000372380018, 0.3680000174790621, 0.0, 0.0, 0.0, 0.0, 0.0, 1.7103912675443633E9, 0.0, 2024-03-13 21:41:07.544
51.0, 212.94616357702762, 103.67563662165776, -66.22427846537903, 76.01720649935305, 0.5920000281184912, 0.7840000372380018, 0.3680000174790621, 0.0, 0.0, 0.0, 0.0, 0.0, 1.7103912675451555E9, 0.0, 2024-03-13 21:41:07.545
51.0, 207.29517474398017, 99.68142346898094, -73.29268938163295, 70.93468245957047, 0.5920000281184912, 0.7840000372380018, 0.3680000174790621, 0.0, 0.0, 0.0, 0.0, 0.0, 1.7103912675451555E9, 0.0, 2024-03-13 21:41:07.545
52.0, 209.44561721850187, 110.29899944318458, -74.30994216958061, 74.79425921384245, 0.5920000281184912, 0.7840000372380018, 0.3680000174790621, 0.0, 0.0, 0.0, 0.0, 0.0, 1.7103912675586903E9, 0.0, 2024-03-13 21:41:07.558
52.0, 206.58833365235478, 109.56597905186936, -57.72722576605156, 80.30687174852937, 0.5920000281184912, 0.7840000372380018, 0.3680000174790621, 0.0, 0.0, 0.0, 0.0, 0.0, 1.7103912675586903E9, 0.0, 2024-03-13 21:41:07.558
53.0, 200.14074612874538, 98.79880707943812, -71.7555904998444, 65.65768362209201, 0.5920000281184912, 0.7840000372380018, 0.3680000174790621, 0.0, 0.0, 0.0, 0.0, 0.0, 1.710391267574945E9, 0.0, 2024-03-13 21:41:07.574
53.0, 204.27707547973841, 98.97084247739986, -81.56160818366334, 68.79919958487153, 0.5920000281184912, 0.7840000372380018, 0.3680000174790621, 0.0, 0.0, 0.0, 0.0, 0.0, 1.710391267574945E9, 0.0, 2024-03-13 21:41:07.574
54.0, 203.36827979050577, 103.62701792223379, -64.80311648221686, 71.2937128553167, 0.5920000281184912, 0.7840000372380018, 0.3680000174790621, 0.0, 0.0, 0.0, 0.0, 0.0, 1.7103912675752432E9, 0.0, 2024-03-13 21:41:07.575
54.0, 201.05328171793371, 97.40756429592147, -69.25733732944354, 65.29865322634578, 0.5920000281184912, 0.7840000372380018, 0.3680000174790621, 0.0, 0.0, 0.0, 0.0, 0.0, 1.7103912675752432E9, 0.0, 2024-03-13 21:41:07.575
55.0, 201.93215820752084, 97.15699099889025, -89.15734499366954, 59.0642400002107, 0.5920000281184912, 0.7840000372380018, 0.3680000174790621, 0.0, 0.0, 0.0, 0.0, 0.0, 1.7103912675888972E9, 0.0, 2024-03-13 21:41:07.588
55.0, 202.0181759065017, 103.18196982750669, -74.37726036878303, 70.74768746178597, 0.5920000281184912, 0.7840000372380018, 0.3680000174790621, 0.0, 0.0, 0.0, 0.0, 0.0, 1.7103912675888972E9, 0.0, 2024-03-13 21:41:07.588
56.0, 200.74660992156714, 99.79362046765164, -64.234651688952, 71.34981135465205, 0.5920000281184912, 0.7840000372380018, 0.3680000174790621, 0.0, 0.0, 0.0, 0.0, 0.0, 1.7103912676046886E9, 0.0, 2024-03-13 21:41:07.604
56.0, 196.36344717349857, 88.4692034018226, -82.06649467768148, 59.6588840931654, 0.5920000281184912, 0.7840000372380018, 0.3680000174790621, 0.0, 0.0, 0.0, 0.0, 0.0, 1.7103912676046886E9, 0.0, 2024-03-13 21:41:07.604
57.0, 197.18622516375035, 89.31442079180852, -83.51383596053347, 65.05181982927024, 0.5920000281184912, 0.7840000372380018, 0.3680000174790621, 0.0, 0.0, 0.0, 0.0, 0.0, 1.7103912676052742E9, 0.0, 2024-03-13 21:41:07.605
57.0, 203.30096159130335, 97.5833395938389, -58.53878405643627, 74.3305116193369, 0.5920000281184912, 0.7840000372380018, 0.3680000174790621, 0.0, 0.0, 0.0, 0.0, 0.0, 1.7103912676052742E9, 0.0, 2024-03-13 21:41:07.605
58.0, 196.32978807389736, 84.37027305038646, -69.95669862115756, 53.52170826587826, 0.5920000281184912, 0.7840000372380018, 0.3680000174790621, 0.0, 0.0, 0.0, 0.0, 0.0, 1.7103912676186907E9, 0.0, 2024-03-13 21:41:07.618
58.0, 205.93385116010904, 91.30030766827986, -82.52650237223133, 64.43473633658141, 0.5920000281184912, 0.7840000372380018, 0.3680000174790621, 0.0, 0.0, 0.0, 0.0, 0.0, 1.7103912676186907E9, 0.0, 2024-03-13 21:41:07.618
59.0, 208.79487462621182, 101.20356275094673, -60.17312033707276, 78.34716417174786, 0.5920000281184912, 0.7840000372380018, 0.3680000174790621, 0.0, 0.0, 0.0, 0.0, 0.0, 1.7103912676346753E9, 0.0, 2024-03-13 21:41:07.634
59.0, 200.30156182684004, 102.30683323787525, -59.49619844509289, 72.39324344228953, 0.5920000281184912, 0.7840000372380018, 0.3680000174790621, 0.0, 0.0, 0.0, 0.0, 0.0, 1.7103912676346753E9, 0.0, 2024-03-13 21:41:07.634
60.0, 212.097206287086, 101.63365124585107, -78.61456701857969, 71.16655625682324, 0.5920000281184912, 0.7840000372380018, 0.3680000174790621, 0.0, 0.0, 0.0, 0.0, 0.0, 1.710391267635512E9, 0.0, 2024-03-13 21:41:07.635
60.0, 210.8742590015754, 108.12237766897306, -65.49873787397519, 75.77037310227752, 0.5920000281184912, 0.7840000372380018, 0.3680000174790621, 0.0, 0.0, 0.0, 0.0, 0.0, 1.710391267635512E9, 0.0, 2024-03-13 21:41:07.635
61.0, 210.78076150268316, 107.83440537238494, -55.64410149073228, 80.27321264892817, 0.5920000281184912, 0.7840000372380018, 0.3680000174790621, 0.0, 0.0, 0.0, 0.0, 0.0, 1.710391267648718E9, 0.0, 2024-03-13 21:41:07.648
61.0, 211.3604459958151, 101.08762585232034, -70.6074412134476, 73.89294332452118, 0.5920000281184912, 0.7840000372380018, 0.3680000174790621, 0.0, 0.0, 0.0, 0.0, 0.0, 1.710391267648718E9, 0.0, 2024-03-13 21:41:07.648
62.0, 206.88378574885428, 108.93019605940208, -79.69539810577407, 77.4421083824709, 0.5920000281184912, 0.7840000372380018, 0.3680000174790621, 0.0, 0.0, 0.0, 0.0, 0.0, 1.7103912676643915E9, 0.0, 2024-03-13 21:41:07.664
62.0, 221.37215817719698, 117.01211986364797, -55.80865708878264, 85.07150429207832, 0.5920000281184912, 0.7840000372380018, 0.3680000174790621, 0.0, 0.0, 0.0, 0.0, 0.0, 1.7103912676643915E9, 0.0, 2024-03-13 21:41:07.664
63.0, 211.9550900887698, 107.5165138761513, -63.34081559954211, 80.13483635056764, 0.5920000281184912, 0.7840000372380018, 0.3680000174790621, 0.0, 0.0, 0.0, 0.0, 0.0, 1.7103912676651654E9, 0.0, 2024-03-13 21:41:07.665
63.0, 217.72201582044363, 108.84417836042121, -83.14358586492017, 76.1481029978022, 0.5920000281184912, 0.7840000372380018, 0.3680000174790621, 0.0, 0.0, 0.0, 0.0, 0.0, 1.7103912676651654E9, 0.0, 2024-03-13 21:41:07.665
64.0, 210.9565368006006, 111.9969140230678, -65.2369448770769, 75.93866860028356, 0.5920000281184912, 0.7840000372380018, 0.3680000174790621, 0.0, 0.0, 0.0, 0.0, 0.0, 1.710391267678949E9, 0.0, 2024-03-13 21:41:07.678
64.0, 213.59690616931766, 105.42590980092064, -60.386294634547085, 69.71921497397125, 0.5920000281184912, 0.7840000372380018, 0.3680000174790621, 0.0, 0.0, 0.0, 0.0, 0.0, 1.710391267678949E9, 0.0, 2024-03-13 21:41:07.678
65.0, 207.49712934158742, 98.41359738400206, -95.84802601439878, 60.30214688554406, 0.5920000281184912, 0.7840000372380018, 0.3680000174790621, 0.0, 0.0, 0.0, 0.0, 0.0, 1.7103912676943712E9, 0.0, 2024-03-13 21:41:07.694
65.0, 210.30953410826623, 102.11983824009076, -79.093274212908, 66.06159281730652, 0.5920000281184912, 0.7840000372380018, 0.3680000174790621, 0.0, 0.0, 0.0, 0.0, 0.0, 1.7103912676943712E9, 0.0, 2024-03-13 21:41:07.694
66.0, 205.27188886795193, 97.35146579658613, -67.76885714707896, 65.13035772833973, 0.5920000281184912, 0.7840000372380018, 0.3680000174790621, 0.0, 0.0, 0.0, 0.0, 0.0, 1.7103912676951587E9, 0.0, 2024-03-13 21:41:07.695
66.0, 194.00731020141393, 82.93789136735722, -83.33432076266035, 54.42676405515522, 0.5920000281184912, 0.7840000372380018, 0.3680000174790621, 0.0, 0.0, 0.0, 0.0, 0.0, 1.7103912676951587E9, 0.0, 2024-03-13 21:41:07.695
67.0, 203.53283538855612, 95.08134652348235, -82.99772976664826, 57.732835615985096, 0.5920000281184912, 0.7840000372380018, 0.3680000174790621, 0.0, 0.0, 0.0, 0.0, 0.0, 1.7103912677086775E9, 0.0, 2024-03-13 21:41:07.708
67.0, 206.15450525749475, 100.00305486517027, -61.48582522151992, 68.7019621860236, 0.5920000281184912, 0.7840000372380018, 0.3680000174790621, 0.0, 0.0, 0.0, 0.0, 0.0, 1.7103912677086775E9, 0.0, 2024-03-13 21:41:07.708
68.0, 206.5023159533739, 95.86672551417723, -75.83956125145778, 64.99946122989058, 0.5920000281184912, 0.7840000372380018, 0.3680000174790621, 0.0, 0.0, 0.0, 0.0, 0.0, 1.7103912677243752E9, 0.0, 2024-03-13 21:41:07.724
68.0, 212.79656757880002, 104.79760660836473, -82.578860971611, 67.10876480489969, 0.5920000281184912, 0.7840000372380018, 0.3680000174790621, 0.0, 0.0, 0.0, 0.0, 0.0, 1.7103912677243752E9, 0.0, 2024-03-13 21:41:07.724
69.0, 217.55372032243758, 111.7014619265683, -52.54372442746535, 77.46454778220505, 0.5920000281184912, 0.7840000372380018, 0.3680000174790621, 0.0, 0.0, 0.0, 0.0, 0.0, 1.7103912677251773E9, 0.0, 2024-03-13 21:41:07.725
69.0, 213.91105776559561, 107.62123107491061, -49.29749126592651, 69.59953817538917, 0.5920000281184912, 0.7840000372380018, 0.3680000174790621, 0.0, 0.0, 0.0, 0.0, 0.0, 1.7103912677251773E9, 0.0, 2024-03-13 21:41:07.725
70.0, 215.51547484658659, 106.25990749103948, -80.6864715940319, 64.82742583192885, 0.5920000281184912, 0.7840000372380018, 0.3680000174790621, 0.0, 0.0, 0.0, 0.0, 0.0, 1.7103912677388887E9, 0.0, 2024-03-13 21:41:07.738
70.0, 225.5907653272152, 116.68300866754726, -88.12139270594344, 72.93926883582026, 0.5920000281184912, 0.7840000372380018, 0.3680000174790621, 0.0, 0.0, 0.0, 0.0, 0.0, 1.7103912677388887E9, 0.0, 2024-03-13 21:41:07.738
