%OpenBCI Raw EXG Data
%Number of channels = 4
%Sample Rate = 200 Hz
%Board = OpenBCI_GUI$BoardGanglionBLE
Sample Index, EXG Channel 0, EXG Channel 1, EXG Channel 2, EXG Channel 3, Accel Channel 0, Accel Channel 1, Accel Channel 2, Other, Other, Other, Other, Other, Timestamp, Other, Timestamp (Formatted)
2.0, -198.62421669671312, 72.04169284645468, -209.79903776431456, 67.42291640117764, 0.01600000075995922, 0.0, 0.0, 0.0, 0.0, 0.0, 0.0, 0.0, 1.7103874224704206E9, 0.0, 2024-03-13 20:37:02.470
2.0, 26.691665983758867, -12.008818757720292, -451.07120360573754, -44.070981077849865, 0.01600000075995922, 0.0, 0.0, 0.0, 0.0, 0.0, 0.0, 0.0, 1.7103874224704206E9, 0.0, 2024-03-13 20:37:02.470
3.0, 156.13334335014224, -126.47780665149912, -347.6255708313547, -130.66275470191613, 0.01600000075995922, 0.0, 0.0, 0.0, 0.0, 0.0, 0.0, 0.0, 1.710387422484998E9, 0.0, 2024-03-13 20:37:02.484
3.0, -44.49545972282067, -315.3072253642604, -537.1319114360958, 114.08003829838708, 0.01600000075995922, 0.0, 0.0, 0.0, 0.0, 0.0, 0.0, 0.0, 1.710387422484998E9, 0.0, 2024-03-13 20:37:02.484
4.0, 128.8358135735616, -390.9242625683546, -339.24071513069794, 51.98647933406755, 0.01600000075995922, 0.0, 0.0, 0.0, 0.0, 0.0, 0.0, 0.0, 1.7103874224856243E9, 0.0, 2024-03-13 20:37:02.485
4.0, 29.37691415194422, -363.38363929465413, -465.0172905405052, 143.6028085486032, 0.01600000075995922, 0.0, 0.0, 0.0, 0.0, 0.0, 0.0, 0.0, 1.7103874224856243E9, 0.0, 2024-03-13 20:37:02.485
5.0, -87.36219301493838, -300.8001534361392, -578.6036620447412, 165.43634448992088, 0.01600000075995922, 0.0, 0.0, 0.0, 0.0, 0.0, 0.0, 0.0, 1.7103874224992204E9, 0.0, 2024-03-13 20:37:02.499
5.0, -225.25978418113664, -181.2935203020461, -686.8775056619197, 253.57269679568708, 0.01600000075995922, 0.0, 0.0, 0.0, 0.0, 0.0, 0.0, 0.0, 1.7103874224992204E9, 0.0, 2024-03-13 20:37:02.499
6.0, -25.457498998381197, -19.122108473442495, -494.2520884941332, 477.0522885979153, 0.01600000075995922, 0.0, 0.0, 0.0, 0.0, 0.0, 0.0, 0.0, 1.7103874225148857E9, 0.0, 2024-03-13 20:37:02.514
6.0, -195.60237753251567, 75.91996910050511, -696.1262782523409, 557.0936274495907, 0.01600000075995922, 0.0, 0.0, 0.0, 0.0, 0.0, 0.0, 0.0, 1.7103874225148857E9, 0.0, 2024-03-13 20:37:02.514
7.0, -106.07665239321068, 35.2747363820672, -564.025532017462, 471.18438556743786, 0.01600000075995922, 0.0, 0.0, 0.0, 0.0, 0.0, 0.0, 0.0, 1.7103874225156426E9, 0.0, 2024-03-13 20:37:02.515
7.0, 0.5909041929990053, -33.5356829026714, -463.7120654559694, 434.24539370508865, 0.01600000075995922, 0.0, 0.0, 0.0, 0.0, 0.0, 0.0, 0.0, 1.7103874225156426E9, 0.0, 2024-03-13 20:37:02.515
8.0, 167.67841451335698, -120.03395902784541, -341.60059200273827, 375.75522834807634, 0.01600000075995922, 0.0, 0.0, 0.0, 0.0, 0.0, 0.0, 0.0, 1.7103874225291967E9, 0.0, 2024-03-13 20:37:02.529
8.0, -45.31823771307245, -294.64801800902933, -517.1533658728004, 142.12180816615, 0.01600000075995922, 0.0, 0.0, 0.0, 0.0, 0.0, 0.0, 0.0, 1.7103874225291967E9, 0.0, 2024-03-13 20:37:02.529
9.0, 108.40848001558334, -411.8228235207498, -349.94804870383814, 37.427048806566745, 0.01600000075995922, 0.0, 0.0, 0.0, 0.0, 0.0, 0.0, 0.0, 1.7103874225448866E9, 0.0, 2024-03-13 20:37:02.544
9.0, 33.232751006260514, -364.78236187808216, -464.8003763430752, 141.69919947115704, 0.01600000075995922, 0.0, 0.0, 0.0, 0.0, 0.0, 0.0, 0.0, 1.7103874225448866E9, 0.0, 2024-03-13 20:37:02.544
10.0, -93.71628303965554, -290.3134739603847, -569.4222076535225, 171.76051531499252, 0.01600000075995922, 0.0, 1.0560000501573086, 0.0, 0.0, 0.0, 0.0, 0.0, 1.710387422545581E9, 0.0, 2024-03-13 20:37:02.545
10.0, -238.30081532662734, -180.2126892148517, -682.3297873158008, 253.24732549954206, 0.01600000075995922, 0.0, 1.0560000501573086, 0.0, 0.0, 0.0, 0.0, 0.0, 1.710387422545581E9, 0.0, 2024-03-13 20:37:02.545
11.0, -42.15615230053663, -26.94971908070147, -500.90911041526124, 473.5480023394339, 0.01600000075995922, -0.1600000075995922, 1.0560000501573086, 0.0, 0.0, 0.0, 0.0, 0.0, 1.7103874225592809E9, 0.0, 2024-03-13 20:37:02.559
11.0, -175.5116349705495, 102.15536728966981, -667.4375056922436, 588.0824384824373, 0.01600000075995922, -0.1600000075995922, 1.0560000501573086, 0.0, 0.0, 0.0, 0.0, 0.0, 1.7103874225592809E9, 0.0, 2024-03-13 20:37:02.559
12.0, -94.81955352658406, 49.9127048086375, -560.2669325619936, 482.15725203743204, 0.01600000075995922, -0.1600000075995922, 1.0560000501573086, 0.0, 0.0, 0.0, 0.0, 0.0, 1.7103874225749125E9, 0.0, 2024-03-13 20:37:02.574
12.0, -7.603216609917581, -34.59781449008733, -447.27894505066797, 444.27954528620467, 0.01600000075995922, -0.1600000075995922, 1.0560000501573086, 0.0, 0.0, 0.0, 0.0, 0.0, 1.7103874225749125E9, 0.0, 2024-03-13 20:37:02.574
13.0, 140.60527873411775, -129.98957270989195, -344.72714836569503, 370.9083180055022, 0.01600000075995922, -0.1600000075995922, 1.0560000501573086, 0.0, 0.0, 0.0, 0.0, 0.0, 1.7103874225756116E9, 0.0, 2024-03-13 20:37:02.575
13.0, -19.46056941943243, -270.8024158915505, -501.1578137623146, 165.44756418978795, 0.01600000075995922, -0.1600000075995922, 1.0560000501573086, 0.0, 0.0, 0.0, 0.0, 0.0, 1.7103874225756116E9, 0.0, 2024-03-13 20:37:02.575
14.0, 151.09569810982794, -357.11556696891785, -303.80516305053607, 92.83740655006841, 0.01600000075995922, -0.1600000075995922, 1.0560000501573086, 0.0, 0.0, 0.0, 0.0, 0.0, 1.7103874225892057E9, 0.0, 2024-03-13 20:37:02.589
14.0, 53.690003763884306, -334.7135662343353, -443.2959515978582, 164.69958419864997, 0.01600000075995922, -0.1600000075995922, 1.0560000501573086, 0.0, 0.0, 0.0, 0.0, 0.0, 1.7103874225892057E9, 0.0, 2024-03-13 20:37:02.589
15.0, -56.80721037695184, -255.25191187579185, -544.9146432438865, 205.65148871345446, 0.01600000075995922, -0.1600000075995922, 1.0560000501573086, 0.0, 0.0, 0.0, 0.0, 0.0, 1.7103874226049361E9, 0.0, 2024-03-13 20:37:02.604
15.0, -209.0473178732209, -156.55034219520167, -666.6147277019918, 277.67635201010853, 0.01600000075995922, -0.1600000075995922, 1.0560000501573086, 0.0, 0.0, 0.0, 0.0, 0.0, 1.7103874226049361E9, 0.0, 2024-03-13 20:37:02.604
16.0, 11.885402059182525, 8.811204295605421, -479.47948366915807, 493.6312651014887, 0.01600000075995922, -0.1600000075995922, 1.0560000501573086, 0.0, 0.0, 0.0, 0.0, 0.0, 1.710387422605642E9, 0.0, 2024-03-13 20:37:02.605
16.0, -173.11435909895226, 100.416313810274, -662.8598681464791, 591.945755136665, 0.01600000075995922, -0.1600000075995922, 1.0560000501573086, 0.0, 0.0, 0.0, 0.0, 0.0, 1.710387422605642E9, 0.0, 2024-03-13 20:37:02.605
17.0, -81.9468178790994, 72.12397064547986, -534.9178906623274, 503.60931818326935, 0.01600000075995922, -0.1600000075995922, 1.0560000501573086, 0.0, 0.0, 0.0, 0.0, 0.0, 1.7103874226192176E9, 0.0, 2024-03-13 20:37:02.619
17.0, 47.80340123362839, -3.9717737529426813, -420.35540526965633, 470.3840469769202, 0.01600000075995922, -0.1600000075995922, 1.0560000501573086, 0.0, 0.0, 0.0, 0.0, 0.0, 1.7103874226192176E9, 0.0, 2024-03-13 20:37:02.619
18.0, 163.64306246116757, -126.87423604680225, -333.3952514999546, 377.9168905224651, 0.01600000075995922, -0.1600000075995922, 1.0560000501573086, 0.0, 0.0, 0.0, 0.0, 0.0, 1.7103874226352491E9, 0.0, 2024-03-13 20:37:02.635
18.0, -10.941077320370823, -259.11148863006383, -487.32392382621765, 178.64567113341764, 0.01600000075995922, -0.1600000075995922, 1.0560000501573086, 0.0, 0.0, 0.0, 0.0, 0.0, 1.7103874226352491E9, 0.0, 2024-03-13 20:37:02.635
19.0, 150.56089241616428, -359.25852964352816, -300.96283908421174, 88.41684480244294, 0.01600000075995922, -0.1600000075995922, 1.0560000501573086, 0.0, 0.0, 0.0, 0.0, 0.0, 1.7103874226358335E9, 0.0, 2024-03-13 20:37:02.635
19.0, 54.73717575147748, -336.95376630779356, -441.4222617200576, 165.39894549036399, 0.01600000075995922, -0.1600000075995922, 1.0560000501573086, 0.0, 0.0, 0.0, 0.0, 0.0, 1.7103874226358335E9, 0.0, 2024-03-13 20:37:02.635
20.0, -35.003593635279685, -243.04487842042, -528.2234697416425, 217.98567876731977, 0.01600000075995922, -0.1600000075995922, 1.0560000501573086, 0.0, 0.0, 0.0, 0.0, 0.0, 1.7103874226491747E9, 0.0, 2024-03-13 20:37:02.649
20.0, -200.2585529773496, -142.0507500669919, -643.9845930701122, 292.4826159346849, 0.01600000075995922, -0.1600000075995922, 1.0560000501573086, 0.0, 0.0, 0.0, 0.0, 0.0, 1.7103874226491747E9, 0.0, 2024-03-13 20:37:02.649
21.0, -10.247325878590345, 4.2036475501954556, -480.541615256574, 503.05581298982725, 0.01600000075995922, -0.17600000835955143, 1.0560000501573086, 0.0, 0.0, 0.0, 0.0, 0.0, 1.71038742266492E9, 0.0, 2024-03-13 20:37:02.664
21.0, -138.33702941099182, 120.03208907786757, -667.4711647918448, 594.320591608528, 0.01600000075995922, -0.17600000835955143, 1.0560000501573086, 0.0, 0.0, 0.0, 0.0, 0.0, 1.71038742266492E9, 0.0, 2024-03-13 20:37:02.664
22.0, -75.43565205624327, 75.78533270210028, -537.4610226321965, 503.94590917928144, 0.01600000075995922, -0.17600000835955143, 1.0560000501573086, 0.0, 0.0, 0.0, 0.0, 0.0, 1.710387422665658E9, 0.0, 2024-03-13 20:37:02.665
22.0, 15.614082315005362, -2.3112581726163626, -431.65364303579554, 464.3403686485253, 0.01600000075995922, -0.17600000835955143, 1.0560000501573086, 0.0, 0.0, 0.0, 0.0, 0.0, 1.710387422665658E9, 0.0, 2024-03-13 20:37:02.665
23.0, 185.7159519996494, -110.11948424531147, -336.56294676242396, 385.16855653654784, 0.01600000075995922, -0.17600000835955143, 1.0560000501573086, 0.0, 0.0, 0.0, 0.0, 0.0, 1.7103874226793635E9, 0.0, 2024-03-13 20:37:02.679
23.0, -15.170904170256108, -275.89615963120013, -504.2394913258031, 164.7631624978967, 0.01600000075995922, -0.17600000835955143, 1.0560000501573086, 0.0, 0.0, 0.0, 0.0, 0.0, 1.7103874226793635E9, 0.0, 2024-03-13 20:37:02.679
24.0, 146.85465156007558, -375.9272637460381, -325.15625189756975, 73.04211608460173, 0.01600000075995922, -0.17600000835955143, 1.0560000501573086, 0.0, 0.0, 0.0, 0.0, 0.0, 1.7103874226950932E9, 0.0, 2024-03-13 20:37:02.695
24.0, 24.051296615041792, -369.7003303198144, -475.59372761519626, 138.55768350837752, 0.01600000075995922, -0.17600000835955143, 1.0560000501573086, 0.0, 0.0, 0.0, 0.0, 0.0, 1.7103874226950932E9, 0.0, 2024-03-13 20:37:02.695
25.0, -37.875836801249534, -253.6437548948452, -544.3798375502229, 206.4106884044595, 0.01600000075995922, -0.17600000835955143, 1.0560000501573086, 0.0, 0.0, 0.0, 0.0, 0.0, 1.710387422695674E9, 0.0, 2024-03-13 20:37:02.695
25.0, -208.07120398478583, -156.86449379147962, -669.7151047652587, 278.7646628972143, 0.01600000075995922, -0.17600000835955143, 1.0560000501573086, 0.0, 0.0, 0.0, 0.0, 0.0, 1.710387422695674E9, 0.0, 2024-03-13 20:37:02.695
26.0, -33.04575600847602, -15.251312019303441, -500.11999152461067, 480.2461631600745, 0.01600000075995922, -0.17600000835955143, 1.0560000501573086, 0.0, 0.0, 0.0, 0.0, 0.0, 1.710387422709152E9, 0.0, 2024-03-13 20:37:02.709
26.0, -177.01133485278115, 98.0489571383223, -680.6655318355188, 582.1434773528017, 0.01600000075995922, -0.17600000835955143, 1.0560000501573086, 0.0, 0.0, 0.0, 0.0, 0.0, 1.710387422709152E9, 0.0, 2024-03-13 20:37:02.709
27.0, -59.63083484349772, 91.32461701799184, -524.2217767890543, 522.1480022636242, 0.01600000075995922, -0.17600000835955143, 1.0560000501573086, 0.0, 0.0, 0.0, 0.0, 0.0, 1.7103874227249298E9, 0.0, 2024-03-13 20:37:02.724
27.0, 39.79253552854061, 13.635675238445401, -420.41524366894737, 482.77807543007657, 0.01600000075995922, -0.17600000835955143, 1.0560000501573086, 0.0, 0.0, 0.0, 0.0, 0.0, 1.7103874227249298E9, 0.0, 2024-03-13 20:37:02.724
28.0, 155.51251995749772, -123.47466698708013, -342.0344203975983, 377.2586681302637, 0.01600000075995922, -0.17600000835955143, 1.0560000501573086, 0.0, 0.0, 0.0, 0.0, 0.0, 1.7103874227256706E9, 0.0, 2024-03-13 20:37:02.725
28.0, -22.433789884205908, -262.3502419916913, -501.44578605890274, 176.05018056416884, 0.01600000075995922, -0.17600000835955143, 1.0560000501573086, 0.0, 0.0, 0.0, 0.0, 0.0, 1.7103874227256706E9, 0.0, 2024-03-13 20:37:02.725
29.0, 147.00424755830318, -341.0526966592297, -282.77196569973603, 114.6672025914304, 0.01600000075995922, -0.17600000835955143, 1.0560000501573086, 0.0, 0.0, 0.0, 0.0, 0.0, 1.7103874227391982E9, 0.0, 2024-03-13 20:37:02.739
29.0, 55.82174673862755, -334.8930814322084, -444.5600377828814, 165.82529408531263, 0.01600000075995922, -0.17600000835955143, 1.0560000501573086, 0.0, 0.0, 0.0, 0.0, 0.0, 1.7103874227391982E9, 0.0, 2024-03-13 20:37:02.739
30.0, -37.015659811440855, -240.9243551455438, -530.0036621205509, 223.21779880532995, 0.01600000075995922, -0.17600000835955143, 1.0560000501573086, 0.0, 0.0, 0.0, 0.0, 0.0, 1.7103874227553515E9, 0.0, 2024-03-13 20:37:02.755
30.0, -195.3742436352186, -126.6348824496381, -641.0786908045411, 308.45572864543647, 0.01600000075995922, -0.17600000835955143, 1.0560000501573086, 0.0, 0.0, 0.0, 0.0, 0.0, 1.7103874227553515E9, 0.0, 2024-03-13 20:37:02.755
31.0, -1.3388841841369867, 12.382808753289282, -468.9741046936251, 513.6322500645183, 0.01600000075995922, -0.17600000835955143, 1.0560000501573086, 0.0, 0.0, 0.0, 0.0, 0.0, 1.7103874227558625E9, 0.0, 2024-03-13 20:37:02.755
31.0, -151.44537875568494, 109.13028070703149, -680.710410634987, 593.0153665239923, 0.01600000075995922, -0.17600000835955143, 1.0560000501573086, 0.0, 0.0, 0.0, 0.0, 0.0, 1.7103874227558625E9, 0.0, 2024-03-13 20:37:02.755
32.0, -62.03933041496202, 93.80043078865856, -517.2767825713381, 525.3493566256948, 0.01600000075995922, -0.17600000835955143, 1.0560000501573086, 0.0, 0.0, 0.0, 0.0, 0.0, 1.7103874227693467E9, 0.0, 2024-03-13 20:37:02.769
32.0, 8.691527497023344, -16.994105398654938, -431.35819093929604, 466.89472031826153, 0.01600000075995922, -0.17600000835955143, 1.0560000501573086, 0.0, 0.0, 0.0, 0.0, 0.0, 1.7103874227693467E9, 0.0, 2024-03-13 20:37:02.769
33.0, 166.03659843280911, -128.91622142260894, -345.45268895709887, 375.3924580523744, 0.01600000075995922, -0.17600000835955143, 1.0560000501573086, 0.0, 0.0, 0.0, 0.0, 0.0, 1.7103874227849426E9, 0.0, 2024-03-13 20:37:02.784
33.0, -12.590373200830072, -268.7267714161426, -496.4305802183226, 168.93315094849095, 0.01600000075995922, -0.17600000835955143, 1.0560000501573086, 0.0, 0.0, 0.0, 0.0, 0.0, 1.7103874227849426E9, 0.0, 2024-03-13 20:37:02.784
34.0, 145.6578835742548, -360.40667892992496, -300.84316228562966, 92.10438615875319, 0.01600000075995922, -0.17600000835955143, 1.0560000501573086, 0.0, 0.0, 0.0, 0.0, 0.0, 1.7103874227856596E9, 0.0, 2024-03-13 20:37:02.785
34.0, 15.090496321208775, -363.55567469261587, -467.48562451126054, 143.4943514498882, 0.01600000075995922, -0.17600000835955143, 1.0560000501573086, 0.0, 0.0, 0.0, 0.0, 0.0, 1.7103874227856596E9, 0.0, 2024-03-13 20:37:02.785
35.0, -33.4777144533582, -241.6012770375237, -532.872165386565, 218.47186576155946, 0.01600000075995922, -0.17600000835955143, 1.0560000501573086, 0.0, 0.0, 0.0, 0.0, 0.0, 1.7103874227991505E9, 0.0, 2024-03-13 20:37:02.799
35.0, -211.87842213967815, -151.62115405360237, -661.5621228618547, 284.10897993389517, 0.01600000075995922, -0.17600000835955143, 1.0560000501573086, 0.0, 0.0, 0.0, 0.0, 0.0, 1.7103874227991505E9, 0.0, 2024-03-13 20:37:02.799
36.0, -19.26422467175871, -14.959599822759628, -486.37585918745026, 489.68193074828014, 0.01600000075995922, -0.17600000835955143, 1.0560000501573086, 0.0, 0.0, 0.0, 0.0, 0.0, 1.7103874228148963E9, 0.0, 2024-03-13 20:37:02.814
36.0, -181.6936895973049, 93.61717569082975, -671.532696143724, 581.657290358562, 0.01600000075995922, -0.17600000835955143, 1.0560000501573086, 0.0, 0.0, 0.0, 0.0, 0.0, 1.7103874228148963E9, 0.0, 2024-03-13 20:37:02.814
37.0, -75.85452085128054, 76.39493639487773, -534.9066709624603, 510.02698650723323, 0.01600000075995922, -0.17600000835955143, 1.0560000501573086, 0.0, 0.0, 0.0, 0.0, 0.0, 1.7103874228156548E9, 0.0, 2024-03-13 20:37:02.815
37.0, 6.320430925115943, -25.32286259997636, -447.62675574654713, 449.3882486256771, 0.01600000075995922, -0.17600000835955143, 1.0560000501573086, 0.0, 0.0, 0.0, 0.0, 0.0, 1.7103874228156548E9, 0.0, 2024-03-13 20:37:02.815
38.0, 182.2752440404147, -119.28597903670743, -338.3580987411551, 380.5535199912265, 0.01600000075995922, -0.17600000835955143, 1.0560000501573086, 0.0, 0.0, 0.0, 0.0, 0.0, 1.710387422829249E9, 0.0, 2024-03-13 20:37:02.829
38.0, -1.5501885316334665, -246.8259172756225, -480.1208765115589, 192.2177680726163, 0.01600000075995922, -0.17600000835955143, 1.0560000501573086, 0.0, 0.0, 0.0, 0.0, 0.0, 1.710387422829249E9, 0.0, 2024-03-13 20:37:02.829
39.0, 144.86502478364855, -365.82953386567533, -304.6429006406106, 88.96287019597366, 0.01600000075995922, -0.17600000835955143, 1.0560000501573086, 0.0, 0.0, 0.0, 0.0, 0.0, 1.7103874228614912E9, 0.0, 2024-03-13 20:37:02.861
39.0, 15.28871101886034, -368.2417693370953, -465.40998003585264, 140.92878008028492, 0.01600000075995922, -0.17600000835955143, 1.0560000501573086, 0.0, 0.0, 0.0, 0.0, 0.0, 1.7103874228614912E9, 0.0, 2024-03-13 20:37:02.861
40.0, -68.69261243613437, -274.45255824830383, -560.9513342538849, 190.57595199206844, 0.01600000075995922, -0.17600000835955143, 1.0400000493973494, 0.0, 0.0, 0.0, 0.0, 0.0, 1.710387422862058E9, 0.0, 2024-03-13 20:37:02.862
40.0, -209.4138280688785, -150.77219676366076, -657.3435157118365, 288.37246588338166, 0.01600000075995922, -0.17600000835955143, 1.0400000493973494, 0.0, 0.0, 0.0, 0.0, 0.0, 1.710387422862058E9, 0.0, 2024-03-13 20:37:02.862
41.0, -16.661254302598536, -10.568957274779677, -489.5846933494322, 490.34389304043725, 0.01600000075995922, -0.17600000835955143, 1.0400000493973494, 0.0, 0.0, 0.0, 0.0, 0.0, 1.7103874228627791E9, 0.0, 2024-03-13 20:37:02.862
41.0, -169.35201974352822, 124.72940342221409, -662.1118881553411, 607.2045469558798, 0.01600000075995922, -0.17600000835955143, 1.0400000493973494, 0.0, 0.0, 0.0, 0.0, 0.0, 1.7103874228627791E9, 0.0, 2024-03-13 20:37:02.862
42.0, -82.24974977551028, 76.01720649935305, -538.3025001222268, 511.30977219203487, 0.01600000075995922, -0.17600000835955143, 1.0400000493973494, 0.0, 0.0, 0.0, 0.0, 0.0, 1.7103874228635325E9, 0.0, 2024-03-13 20:37:02.863
42.0, 18.306810283102095, -15.875875311903656, -430.83834484545514, 468.26352370204404, 0.01600000075995922, -0.17600000835955143, 1.0400000493973494, 0.0, 0.0, 0.0, 0.0, 0.0, 1.7103874228635325E9, 0.0, 2024-03-13 20:37:02.863
43.0, 183.25509782880545, -110.7739667375572, -320.4589375532232, 398.4863402787596, 0.01600000075995922, -0.17600000835955143, 1.0400000493973494, 0.0, 0.0, 0.0, 0.0, 0.0, 1.7103874228742132E9, 0.0, 2024-03-13 20:37:02.874
43.0, -23.869911467190832, -266.00038434844464, -480.01989921275526, 189.31186580704525, 0.01600000075995922, -0.17600000835955143, 1.0400000493973494, 0.0, 0.0, 0.0, 0.0, 0.0, 1.7103874228742132E9, 0.0, 2024-03-13 20:37:02.874
44.0, 163.8936357581988, -348.18094597477466, -291.24657899932936, 107.46041537681594, 0.01600000075995922, -0.17600000835955143, 1.0400000493973494, 0.0, 0.0, 0.0, 0.0, 0.0, 1.7103874228892312E9, 0.0, 2024-03-13 20:37:02.889
44.0, 38.61446704249829, -347.59004178177565, -452.2642316916026, 163.11386661743745, 0.01600000075995922, -0.17600000835955143, 1.0400000493973494, 0.0, 0.0, 0.0, 0.0, 0.0, 1.7103874228892312E9, 0.0, 2024-03-13 20:37:02.889
45.0, -28.245594415348023, -222.20615586731583, -517.2431234717369, 235.7576833567582, 0.01600000075995922, -0.17600000835955143, 1.0400000493973494, 0.0, 0.0, 0.0, 0.0, 0.0, 1.710387422904892E9, 0.0, 2024-03-13 20:37:02.904
45.0, -172.10832601087168, -113.79206600179896, -634.9340351773426, 315.251126864925, 0.01600000075995922, -0.17600000835955143, 1.0400000493973494, 0.0, 0.0, 0.0, 0.0, 0.0, 1.710387422904892E9, 0.0, 2024-03-13 20:37:02.904
46.0, -40.435798320919275, -18.804216977208853, -509.0359130189754, 472.4709111521952, 0.01600000075995922, -0.17600000835955143, 1.0400000493973494, 0.0, 0.0, 0.0, 0.0, 0.0, 1.7103874229056213E9, 0.0, 2024-03-13 20:37:02.905
46.0, -134.81404365273193, 133.67898401618004, -661.1656934665516, 611.6138890036382, 0.01600000075995922, -0.17600000835955143, 1.0400000493973494, 0.0, 0.0, 0.0, 0.0, 0.0, 1.7103874229056213E9, 0.0, 2024-03-13 20:37:02.905
47.0, -76.92413223860785, 82.36381672415882, -539.8395990040153, 508.437529026065, 0.01600000075995922, -0.17600000835955143, 1.0400000493973494, 0.0, 0.0, 0.0, 0.0, 0.0, 1.7103874229195123E9, 0.0, 2024-03-13 20:37:02.919
47.0, 39.14553283620626, 4.532758746296167, -426.4701416972093, 474.4642778285779, 0.01600000075995922, -0.17600000835955143, 1.0400000493973494, 0.0, 0.0, 0.0, 0.0, 0.0, 1.7103874229195123E9, 0.0, 2024-03-13 20:37:02.919
48.0, 191.07148873619735, -94.26978823309764, -313.30076903803274, 405.55101129505783, 0.01600000075995922, -0.17600000835955143, 1.0400000493973494, 0.0, 0.0, 0.0, 0.0, 0.0, 1.7103874229352508E9, 0.0, 2024-03-13 20:37:02.935
48.0, 4.183078100439161, -257.06202345434576, -486.7479792330414, 185.71034214971587, 0.01600000075995922, -0.17600000835955143, 1.0400000493973494, 0.0, 0.0, 0.0, 0.0, 0.0, 1.7103874229352508E9, 0.0, 2024-03-13 20:37:02.935
49.0, 125.6868178108707, -383.7062556538731, -324.9206382003613, 67.4210464511998, 0.01600000075995922, -0.17600000835955143, 1.0400000493973494, 0.0, 0.0, 0.0, 0.0, 0.0, 1.7103874229358685E9, 0.0, 2024-03-13 20:37:02.935
49.0, 36.445325068198144, -359.9952899347991, -464.0486564519815, 144.5303037376143, 0.01600000075995922, -0.17600000835955143, 1.0400000493973494, 0.0, 0.0, 0.0, 0.0, 0.0, 1.7103874229358685E9, 0.0, 2024-03-13 20:37:02.935
50.0, -42.240300049539655, -244.5632778024301, -542.9025770677254, 209.91123476298526, 0.01600000075995922, -0.17600000835955143, 1.0400000493973494, 0.0, 0.0, 0.0, 0.0, 0.0, 1.7103874229496582E9, 0.0, 2024-03-13 20:37:02.949
50.0, -229.3886337322183, -165.06609439430758, -666.7493641003966, 277.4743974125013, 0.01600000075995922, -0.17600000835955143, 1.0400000493973494, 0.0, 0.0, 0.0, 0.0, 0.0, 1.7103874229496582E9, 0.0, 2024-03-13 20:37:02.949
51.0, -37.81038855202496, -26.13068099040538, -497.86857175128534, 478.14807928493246, 0.01600000075995922, -0.17600000835955143, 1.0400000493973494, 0.0, 0.0, 0.0, 0.0, 0.0, 1.710387422964977E9, 0.0, 2024-03-13 20:37:02.964
51.0, -162.33222752669826, 118.4650709964335, -657.4781521102414, 608.6481483387761, 0.01600000075995922, -0.17600000835955143, 1.0400000493973494, 0.0, 0.0, 0.0, 0.0, 0.0, 1.710387422964977E9, 0.0, 2024-03-13 20:37:02.964
52.0, -73.47968437941745, 76.04712569899857, -530.8862785100937, 513.2806994686835, 0.01600000075995922, -0.17600000835955143, 1.0400000493973494, 0.0, 0.0, 0.0, 0.0, 0.0, 1.7103874229656458E9, 0.0, 2024-03-13 20:37:02.965
52.0, 12.315490554086864, -8.287618301808834, -420.6358977663331, 474.03418933367357, 0.01600000075995922, -0.17600000835955143, 1.0400000493973494, 0.0, 0.0, 0.0, 0.0, 0.0, 1.7103874229656458E9, 0.0, 2024-03-13 20:37:02.965
53.0, 171.34725636988878, -113.76588670210913, -325.5377216930501, 394.17423562984914, 0.01600000075995922, -0.17600000835955143, 1.0400000493973494, 0.0, 0.0, 0.0, 0.0, 0.0, 1.7103874229791882E9, 0.0, 2024-03-13 20:37:02.979
53.0, -4.912358591798693, -256.70299305859953, -481.4485409958288, 195.32562493579462, 0.01600000075995922, -0.17600000835955143, 1.0400000493973494, 0.0, 0.0, 0.0, 0.0, 0.0, 1.7103874229791882E9, 0.0, 2024-03-13 20:37:02.979
54.0, 130.18217755760998, -368.0697339391336, -301.65846047597006, 90.85525957355276, 0.01600000075995922, -0.17600000835955143, 1.0400000493973494, 0.0, 0.0, 0.0, 0.0, 0.0, 1.7103874229948826E9, 0.0, 2024-03-13 20:37:02.994
54.0, 49.733189610764384, -341.3556285556406, -438.5238392543979, 176.34189276071265, 0.01600000075995922, -0.17600000835955143, 1.0400000493973494, 0.0, 0.0, 0.0, 0.0, 0.0, 1.7103874229948826E9, 0.0, 2024-03-13 20:37:02.994
55.0, -47.891288882587105, -242.86162332259119, -534.8131734635681, 222.27908391645178, 0.01600000075995922, -0.17600000835955143, 1.0400000493973494, 0.0, 0.0, 0.0, 0.0, 0.0, 1.7103874229956293E9, 0.0, 2024-03-13 20:37:02.995
55.0, -210.83125015208498, -146.61716791288927, -659.5575364856049, 291.2596686491743, 0.01600000075995922, -0.17600000835955143, 1.0400000493973494, 0.0, 0.0, 0.0, 0.0, 0.0, 1.7103874229956293E9, 0.0, 2024-03-13 20:37:02.995
56.0, 8.489572899416089, 15.011958422139287, -461.32974918419495, 516.6653089285828, 0.01600000075995922, -0.17600000835955143, 1.0400000493973494, 0.0, 0.0, 0.0, 0.0, 0.0, 1.7103874230092092E9, 0.0, 2024-03-13 20:37:03.009
56.0, -155.35731410933658, 112.1259405715391, -671.0614687493071, 599.3694565487094, 0.01600000075995922, -0.17600000835955143, 1.0400000493973494, 0.0, 0.0, 0.0, 0.0, 0.0, 1.7103874230092092E9, 0.0, 2024-03-13 20:37:03.009
57.0, -104.47223531221971, 67.37055780179799, -539.4020307091996, 510.8834235970862, 0.01600000075995922, -0.17600000835955143, 1.0400000493973494, 0.0, 0.0, 0.0, 0.0, 0.0, 1.7103874230248866E9, 0.0, 2024-03-13 20:37:03.024
57.0, 24.335529011674225, -1.163108886219561, -420.19832947151735, 477.89750598790124, 0.01600000075995922, -0.17600000835955143, 1.0400000493973494, 0.0, 0.0, 0.0, 0.0, 0.0, 1.7103874230248866E9, 0.0, 2024-03-13 20:37:03.024
58.0, 179.54137717280537, -105.05565970530733, -319.2808690671809, 406.0147588895634, 0.01600000075995922, -0.17600000835955143, 1.0400000493973494, 0.0, 0.0, 0.0, 0.0, 0.0, 1.7103874230256293E9, 0.0, 2024-03-13 20:37:03.025
58.0, -16.558407053817064, -261.0412770071998, -493.18060715682805, 186.67149643832818, 0.01600000075995922, -0.17600000835955143, 1.0400000493973494, 0.0, 0.0, 0.0, 0.0, 0.0, 1.7103874230256293E9, 0.0, 2024-03-13 20:37:03.025
59.0, 146.60781816300005, -349.9050398543477, -288.7483258289285, 111.32747193099931, 0.01600000075995922, -0.17600000835955143, 1.0400000493973494, 0.0, 0.0, 0.0, 0.0, 0.0, 1.7103874230392008E9, 0.0, 2024-03-13 20:37:03.039
59.0, 53.52544816583395, -332.28637116309255, -432.154789629858, 180.5118812113069, 0.01600000075995922, -0.17600000835955143, 1.0400000493973494, 0.0, 0.0, 0.0, 0.0, 0.0, 1.7103874230392008E9, 0.0, 2024-03-13 20:37:03.039
60.0, -24.030727165285498, -234.05041902698576, -515.4591911928728, 237.34714083792642, 0.01600000075995922, -0.17600000835955143, 1.0400000493973494, 0.0, 0.0, 0.0, 0.0, 0.0, 1.710387423055218E9, 0.0, 2024-03-13 20:37:03.055
60.0, -188.38063071807846, -147.14823370659724, -647.8516496242955, 298.6945897610858, 0.01600000075995922, -0.17600000835955143, 1.0400000493973494, 0.0, 0.0, 0.0, 0.0, 0.0, 1.710387423055218E9, 0.0, 2024-03-13 20:37:03.055
61.0, -34.66139278933406, -7.857529806904495, -487.7596221710555, 490.9834159328602, 0.01600000075995922, -0.17600000835955143, 1.0400000493973494, 0.0, 0.0, 0.0, 0.0, 0.0, 1.7103874230557535E9, 0.0, 2024-03-13 20:37:03.055
61.0, -160.37251994991675, 119.48232378438115, -654.8340428415686, 607.1110494569875, 0.01600000075995922, -0.17600000835955143, 1.0400000493973494, 0.0, 0.0, 0.0, 0.0, 0.0, 1.7103874230557535E9, 0.0, 2024-03-13 20:37:03.055
62.0, -59.89262784039602, 87.59219686221331, -526.0767671670765, 523.3672096491791, 0.01600000075995922, -0.17600000835955143, 1.0400000493973494, 0.0, 0.0, 0.0, 0.0, 0.0, 1.710387423069188E9, 0.0, 2024-03-13 20:37:03.069
62.0, 14.86236242391169, -14.211619831621647, -437.0016999724321, 461.7486179792322, 0.01600000075995922, -0.17600000835955143, 1.0400000493973494, 0.0, 0.0, 0.0, 0.0, 0.0, 1.710387423069188E9, 0.0, 2024-03-13 20:37:03.069
63.0, 178.33712938707322, -114.23711409652606, -317.1341664926149, 395.68141531199217, 0.01600000075995922, -0.17600000835955143, 1.0400000493973494, 0.0, 0.0, 0.0, 0.0, 0.0, 1.7103874230852408E9, 0.0, 2024-03-13 20:37:03.085
63.0, -6.63645247137174, -252.25625201128423, -476.43707505520433, 194.2223544488661, 0.01600000075995922, -0.17600000835955143, 1.0400000493973494, 0.0, 0.0, 0.0, 0.0, 0.0, 1.7103874230852408E9, 0.0, 2024-03-13 20:37:03.085
64.0, 147.97288164682686, -349.2804765617475, -297.1219618297182, 98.23782208608463, 0.01600000075995922, -0.17600000835955143, 1.0400000493973494, 0.0, 0.0, 0.0, 0.0, 0.0, 1.7103874230856884E9, 0.0, 2024-03-13 20:37:03.085
64.0, 10.755952272564173, -357.3848397657275, -461.10909508680925, 150.18503247061744, 0.01600000075995922, -0.17600000835955143, 1.0400000493973494, 0.0, 0.0, 0.0, 0.0, 0.0, 1.7103874230856884E9, 0.0, 2024-03-13 20:37:03.085
65.0, -54.6006694030948, -258.06805654242635, -554.810418526642, 204.75391272408888, 0.01600000075995922, -0.17600000835955143, 1.0400000493973494, 0.0, 0.0, 0.0, 0.0, 0.0, 1.7103874230992105E9, 0.0, 2024-03-13 20:37:03.099
65.0, -197.46110781049356, -132.7159597775899, -646.7670786371455, 304.52883369196206, 0.01600000075995922, -0.17600000835955143, 1.0400000493973494, 0.0, 0.0, 0.0, 0.0, 0.0, 1.7103874230992105E9, 0.0, 2024-03-13 20:37:03.099
66.0, -4.454220847226679, 23.149980725720525, -469.52760988706723, 512.0427925833501, 0.01600000075995922, -0.17600000835955143, 1.0400000493973494, 0.0, 0.0, 0.0, 0.0, 0.0, 1.7103874231148796E9, 0.0, 2024-03-13 20:37:03.114
66.0, -138.32580971112475, 127.2089570928365, -655.1594141377136, 610.252565419767, 0.01600000075995922, -0.17600000835955143, 1.0400000493973494, 0.0, 0.0, 0.0, 0.0, 0.0, 1.7103874231148796E9, 0.0, 2024-03-13 20:37:03.114
67.0, -73.89855317445472, 95.39736806973815, -528.5039622383192, 524.6724347337149, 0.01600000075995922, -0.17600000835955143, 1.0400000493973494, 0.0, 0.0, 0.0, 0.0, 0.0, 1.7103874231156335E9, 0.0, 2024-03-13 20:37:03.115
67.0, 10.84944977145642, -7.722893408499658, -428.04837947851047, 464.15337365074083, 0.01600000075995922, -0.17600000835955143, 1.0400000493973494, 0.0, 0.0, 0.0, 0.0, 0.0, 1.7103874231156335E9, 0.0, 2024-03-13 20:37:03.115
68.0, 178.65876078326255, -119.17378203803673, -330.4295108350925, 387.3264788109809, 0.01600000075995922, -0.17600000835955143, 1.0400000493973494, 0.0, 0.0, 0.0, 0.0, 0.0, 1.7103874231292691E9, 0.0, 2024-03-13 20:37:03.129
68.0, 2.339307422284037, -252.66016120649874, -489.9081946955994, 187.53167342813686, 0.01600000075995922, -0.17600000835955143, 1.0400000493973494, 0.0, 0.0, 0.0, 0.0, 0.0, 1.7103874231292691E9, 0.0, 2024-03-13 20:37:03.129
69.0, 140.9979682294652, -359.66991863865405, -303.70044585177675, 91.7640552627854, 0.01600000075995922, -0.17600000835955143, 1.0400000493973494, 0.0, 0.0, 0.0, 0.0, 0.0, 1.710387423144887E9, 0.0, 2024-03-13 20:37:03.144
69.0, 56.984855624847114, -333.88704834412783, -436.2238007816486, 169.60633294051513, 0.01600000075995922, -0.17600000835955143, 1.0400000493973494, 0.0, 0.0, 0.0, 0.0, 0.0, 1.710387423144887E9, 0.0, 2024-03-13 20:37:03.144
70.0, -46.20085410261527, -247.71601346507668, -536.406370844692, 209.20065377140418, 0.01600000075995922, -0.17600000835955143, 1.0560000501573086, 0.0, 0.0, 0.0, 0.0, 0.0, 1.7103874231456406E9, 0.0, 2024-03-13 20:37:03.145
70.0, -199.409595687408, -145.61861462472007, -649.317690406926, 285.1823312211782, 0.01600000075995922, -0.17600000835955143, 1.0560000501573086, 0.0, 0.0, 0.0, 0.0, 0.0, 1.7103874231456406E9, 0.0, 2024-03-13 20:37:03.145
71.0, -33.28136970568448, -26.15312039013952, -496.2491950704716, 472.4933505519293, 0.01600000075995922, -0.17600000835955143, 1.0560000501573086, 0.0, 0.0, 0.0, 0.0, 0.0, 1.7103874231593876E9, 0.0, 2024-03-13 20:37:03.159
71.0, -175.19748337427154, 103.6064484724775, -666.6446469016373, 589.653196463827, 0.01600000075995922, -0.17600000835955143, 1.0560000501573086, 0.0, 0.0, 0.0, 0.0, 0.0, 1.7103874231593876E9, 0.0, 2024-03-13 20:37:03.159
72.0, -80.64533269451931, 67.55381289962679, -549.7652934864163, 501.2120423116721, 0.01600000075995922, -0.17600000835955143, 1.0560000501573086, 0.0, 0.0, 0.0, 0.0, 0.0, 1.7103874231749415E9, 0.0, 2024-03-13 20:37:03.174
72.0, 20.07204306218773, -15.172774120233953, -431.5264864373021, 460.5406302935444, 0.01600000075995922, -0.17600000835955143, 1.0560000501573086, 0.0, 0.0, 0.0, 0.0, 0.0, 1.7103874231749415E9, 0.0, 2024-03-13 20:37:03.174
73.0, 188.46851836703718, -114.02393979905173, -325.45544389402494, 389.49562078528106, 0.01600000075995922, -0.17600000835955143, 1.0560000501573086, 0.0, 0.0, 0.0, 0.0, 0.0, 1.710387423175647E9, 0.0, 2024-03-13 20:37:03.175
73.0, -37.456968006212264, -270.3835470965132, -501.7262785555795, 174.34104628441855, 0.01600000075995922, -0.17600000835955143, 1.0560000501573086, 0.0, 0.0, 0.0, 0.0, 0.0, 1.710387423175647E9, 0.0, 2024-03-13 20:37:03.175
74.0, 134.0230548121035, -370.0631006155163, -305.989264624659, 85.65679863514379, 0.01600000075995922, -0.17600000835955143, 1.0560000501573086, 0.0, 0.0, 0.0, 0.0, 0.0, 1.710387423189441E9, 0.0, 2024-03-13 20:37:03.189
74.0, 67.20226230379194, -353.1961518153548, -444.44036098429933, 157.06270848913118, 0.01600000075995922, -0.17600000835955143, 1.0560000501573086, 0.0, 0.0, 0.0, 0.0, 0.0, 1.710387423189441E9, 0.0, 2024-03-13 20:37:03.189
75.0, -54.23789910739288, -250.1955671356991, -531.7614150997251, 218.68504005903378, 0.01600000075995922, -0.17600000835955143, 1.0560000501573086, 0.0, 0.0, 0.0, 0.0, 0.0, 1.7103874232049987E9, 0.0, 2024-03-13 20:37:03.204
75.0, -207.44290079222992, -144.6836396357976, -650.6416149912402, 293.2231161259115, 0.01600000075995922, -0.17600000835955143, 1.0560000501573086, 0.0, 0.0, 0.0, 0.0, 0.0, 1.7103874232049987E9, 0.0, 2024-03-13 20:37:03.204
76.0, -18.96503267530352, -14.989519022405148, -488.48516276245937, 486.8844855814241, 0.01600000075995922, -0.17600000835955143, 1.0560000501573086, 0.0, 0.0, 0.0, 0.0, 0.0, 1.7103874232056801E9, 0.0, 2024-03-13 20:37:03.205
76.0, -145.29324332857504, 130.50006905384362, -645.8134041484445, 619.4041006113403, 0.01600000075995922, -0.17600000835955143, 1.0560000501573086, 0.0, 0.0, 0.0, 0.0, 0.0, 1.7103874232056801E9, 0.0, 2024-03-13 20:37:03.205
77.0, -71.06370900804177, 86.52632537484169, -526.5105955619365, 522.3013381618075, 0.01600000075995922, -0.17600000835955143, 1.0560000501573086, 0.0, 0.0, 0.0, 0.0, 0.0, 1.7103874232196093E9, 0.0, 2024-03-13 20:37:03.219
77.0, 11.361816065385938, -26.411173487082124, -432.53251952538267, 459.70663260342553, 0.01600000075995922, -0.17600000835955143, 1.0560000501573086, 0.0, 0.0, 0.0, 0.0, 0.0, 1.7103874232196093E9, 0.0, 2024-03-13 20:37:03.219
78.0, 146.439522664994, -135.7864176412113, -336.3983911643736, 375.57197325024754, 0.01600000075995922, -0.17600000835955143, 1.0560000501573086, 0.0, 0.0, 0.0, 0.0, 0.0, 1.710387423235137E9, 0.0, 2024-03-13 20:37:03.235
78.0, -33.11120425770059, -286.78300840221345, -505.5297568105161, 165.97489008354023, 0.01600000075995922, -0.17600000835955143, 1.0560000501573086, 0.0, 0.0, 0.0, 0.0, 0.0, 1.710387423235137E9, 0.0, 2024-03-13 20:37:03.235
79.0, 115.58908793050796, -368.7354361312464, -298.2327121165581, 88.5440014009364, 0.01600000075995922, -0.17600000835955143, 1.0560000501573086, 0.0, 0.0, 0.0, 0.0, 0.0, 1.710387423235928E9, 0.0, 2024-03-13 20:37:03.235
79.0, 33.976991097442806, -357.9121656594798, -439.43637484358624, 157.45539798447862, 0.01600000075995922, -0.17600000835955143, 1.0560000501573086, 0.0, 0.0, 0.0, 0.0, 0.0, 1.710387423235928E9, 0.0, 2024-03-13 20:37:03.235
80.0, -53.931227311026305, -265.22622505761683, -554.0811380352825, 199.71626748377457, 0.01600000075995922, -0.17600000835955143, 1.0560000501573086, 0.0, 0.0, 0.0, 0.0, 0.0, 1.7103874232491987E9, 0.0, 2024-03-13 20:37:03.249
80.0, -220.52133093727753, -173.71648299181834, -686.3277403684333, 257.3799149505794, 0.01600000075995922, -0.17600000835955143, 1.0560000501573086, 0.0, 0.0, 0.0, 0.0, 0.0, 1.7103874232491987E9, 0.0, 2024-03-13 20:37:03.249
81.0, -46.01946895476431, -37.55607535503805, -508.65070332353935, 462.81822936655954, 0.01600000075995922, -0.17600000835955143, 1.0560000501573086, 0.0, 0.0, 0.0, 0.0, 0.0, 1.7103874232649465E9, 0.0, 2024-03-13 20:37:03.264
81.0, -175.55277387006208, 99.69451311882585, -670.3172286581248, 592.7273942274041, 0.01600000075995922, -0.17600000835955143, 1.0560000501573086, 0.0, 0.0, 0.0, 0.0, 0.0, 1.7103874232649465E9, 0.0, 2024-03-13 20:37:03.264
82.0, -73.85367437498644, 75.61329730413854, -531.2789680054411, 511.9305955846794, 0.01600000075995922, -0.17600000835955143, 1.0560000501573086, 0.0, 0.0, 0.0, 0.0, 0.0, 1.7103874232658176E9, 0.0, 2024-03-13 20:37:03.265
82.0, 22.54785683285445, -29.305856052786112, -441.50827941903844, 448.6402686345391, 0.01600000075995922, -0.17600000835955143, 1.0560000501573086, 0.0, 0.0, 0.0, 0.0, 0.0, 1.7103874232658176E9, 0.0, 2024-03-13 20:37:03.265
83.0, 164.53689855057746, -126.25715255411342, -330.8857786296867, 380.26928759459406, 0.01600000075995922, -0.17600000835955143, 1.0560000501573086, 0.0, 0.0, 0.0, 0.0, 0.0, 1.7103874232792032E9, 0.0, 2024-03-13 20:37:03.279
83.0, -23.454782572109252, -279.36678679008037, -497.3131966078654, 173.5818465934135, 0.01600000075995922, -0.17600000835955143, 1.0560000501573086, 0.0, 0.0, 0.0, 0.0, 0.0, 1.7103874232792032E9, 0.0, 2024-03-13 20:37:03.279
84.0, 138.7727277558297, -367.6134661445394, -303.22173865744844, 85.21549044037238, 0.01600000075995922, -0.17600000835955143, 1.0560000501573086, 0.0, 0.0, 0.0, 0.0, 0.0, 1.7103874232952623E9, 0.0, 2024-03-13 20:37:03.295
84.0, 25.038630203343928, -355.73928378522396, -446.28787156241015, 156.6475795940496, 0.01600000075995922, -0.17600000835955143, 1.0560000501573086, 0.0, 0.0, 0.0, 0.0, 0.0, 1.7103874232952623E9, 0.0, 2024-03-13 20:37:03.295
85.0, -52.360469329636544, -253.20618660002947, -539.0018614139408, 212.40948793338612, 0.01600000075995922, -0.17600000835955143, 1.0560000501573086, 0.0, 0.0, 0.0, 0.0, 0.0, 1.7103874232957973E9, 0.0, 2024-03-13 20:37:03.295
85.0, -222.795190110337, -161.28879543906078, -662.5083175506443, 275.3576140375808, 0.01600000075995922, -0.17600000835955143, 1.0560000501573086, 0.0, 0.0, 0.0, 0.0, 0.0, 1.7103874232957973E9, 0.0, 2024-03-13 20:37:03.295
86.0, -35.644986477680504, -29.519030350260437, -495.01876798504964, 472.44473185250536, 0.01600000075995922, -0.17600000835955143, 1.0560000501573086, 0.0, 0.0, 0.0, 0.0, 0.0, 1.710387423309213E9, 0.0, 2024-03-13 20:37:03.309
86.0, -128.1495419316925, 129.55387436505407, -647.279444931075, 616.9282868406735, 0.01600000075995922, -0.17600000835955143, 1.0560000501573086, 0.0, 0.0, 0.0, 0.0, 0.0, 1.710387423309213E9, 0.0, 2024-03-13 20:37:03.309
87.0, -82.5414619720541, 95.59184286743402, -523.2344432007521, 527.2380061033182, 0.01600000075995922, -0.17600000835955143, 1.0560000501573086, 0.0, 0.0, 0.0, 0.0, 0.0, 1.710387423324936E9, 0.0, 2024-03-13 20:37:03.324
87.0, 10.295944578014314, -7.3040246134623885, -424.31221942277625, 467.2761901137419, 0.01600000075995922, -0.17600000835955143, 1.0560000501573086, 0.0, 0.0, 0.0, 0.0, 0.0, 1.710387423324936E9, 0.0, 2024-03-13 20:37:03.324
88.0, 176.73271230608225, -96.00884171249345, -309.209318486508, 412.2267327159643, 0.01600000075995922, -0.17600000835955143, 1.0560000501573086, 0.0, 0.0, 0.0, 0.0, 0.0, 1.71038742332565E9, 0.0, 2024-03-13 20:37:03.325
88.0, 27.819245820399374, -225.11579803284258, -468.87499734479934, 213.3070639227517, 0.01600000075995922, -0.17600000835955143, 1.0560000501573086, 0.0, 0.0, 0.0, 0.0, 0.0, 1.71038742332565E9, 0.0, 2024-03-13 20:37:03.325
89.0, 158.97192741651088, -347.3170290850103, -295.69332004664466, 101.45039614802226, 0.01600000075995922, -0.17600000835955143, 1.0560000501573086, 0.0, 0.0, 0.0, 0.0, 0.0, 1.7103874233391635E9, 0.0, 2024-03-13 20:37:03.339
89.0, 35.588887978345156, -340.5253707654774, -439.185801546555, 170.33935333183035, 0.01600000075995922, -0.17600000835955143, 1.0560000501573086, 0.0, 0.0, 0.0, 0.0, 0.0, 1.7103874233391635E9, 0.0, 2024-03-13 20:37:03.339
90.0, -43.822277730796486, -226.86981111206114, -531.7352358000353, 233.7568368804641, 0.01600000075995922, -0.17600000835955143, 1.0400000493973494, 0.0, 0.0, 0.0, 0.0, 0.0, 1.710387423355255E9, 0.0, 2024-03-13 20:37:03.355
90.0, -178.9934818292968, -111.68650232674554, -628.6958820512518, 320.57300450187176, 0.01600000075995922, -0.17600000835955143, 1.0400000493973494, 0.0, 0.0, 0.0, 0.0, 0.0, 1.710387423355255E9, 0.0, 2024-03-13 20:37:03.355
91.0, 2.584270869381726, 18.392827982082963, -466.9358592177741, 508.16825622925535, 0.01600000075995922, -0.17600000835955143, 1.0400000493973494, 0.0, 0.0, 0.0, 0.0, 0.0, 1.7103874233557124E9, 0.0, 2024-03-13 20:37:03.355
91.0, -122.83514409465715, 159.02802591584623, -629.6794757395983, 644.577367213089, 0.01600000075995922, -0.17600000835955143, 1.0400000493973494, 0.0, 0.0, 0.0, 0.0, 0.0, 1.7103874233557124E9, 0.0, 2024-03-13 20:37:03.355
92.0, -47.20314729074016, 118.41645229700953, -509.82316195964813, 551.1658860198222, 0.01600000075995922, -0.17600000835955143, 1.0400000493973494, 0.0, 0.0, 0.0, 0.0, 0.0, 1.710387423369537E9, 0.0, 2024-03-13 20:37:03.369
92.0, 38.891219639219344, 22.92932662833482, -400.9154052999802, 500.1349511244334, 0.01600000075995922, -0.17600000835955143, 1.0400000493973494, 0.0, 0.0, 0.0, 0.0, 0.0, 1.710387423369537E9, 0.0, 2024-03-13 20:37:03.369
93.0, 203.74600968603045, -59.85522884083912, -288.2995378342457, 440.45549758151174, 0.01600000075995922, -0.17600000835955143, 1.0400000493973494, 0.0, 0.0, 0.0, 0.0, 0.0, 1.71038742338529E9, 0.0, 2024-03-13 20:37:03.385
93.0, 22.489888383541256, -201.66288541071117, -445.3285872237757, 236.1316733523272, 0.01600000075995922, -0.17600000835955143, 1.0400000493973494, 0.0, 0.0, 0.0, 0.0, 0.0, 1.71038742338529E9, 0.0, 2024-03-13 20:37:03.385
94.0, 161.10741029120982, -333.68883364647627, -276.58243127306923, 121.73935340764001, 0.01600000075995922, -0.17600000835955143, 1.0400000493973494, 0.0, 0.0, 0.0, 0.0, 0.0, 1.7103874233856874E9, 0.0, 2024-03-13 20:37:03.385
94.0, 94.13328188471496, -296.2225158903748, -418.6275714901276, 201.447841163259, 0.01600000075995922, -0.17600000835955143, 1.0400000493973494, 0.0, 0.0, 0.0, 0.0, 0.0, 1.7103874233856874E9, 0.0, 2024-03-13 20:37:03.385
95.0, -3.094767213333398, -189.28381655737758, -495.207632932812, 267.9993608747609, 0.01600000075995922, -0.17600000835955143, 1.0400000493973494, 0.0, 0.0, 0.0, 0.0, 0.0, 1.7103874233992665E9, 0.0, 2024-03-13 20:37:03.399
95.0, -157.2010847874917, -92.46341655449942, -613.7063630288467, 333.7860710453242, 0.01600000075995922, -0.17600000835955143, 1.0400000493973494, 0.0, 0.0, 0.0, 0.0, 0.0, 1.7103874233992665E9, 0.0, 2024-03-13 20:37:03.399
96.0, -8.205340502783656, 15.539284315891564, -466.7189450203441, 510.3261785036884, 0.01600000075995922, -0.17600000835955143, 1.0400000493973494, 0.0, 0.0, 0.0, 0.0, 0.0, 1.710387423414918E9, 0.0, 2024-03-13 20:37:03.414
96.0, -131.32845689402893, 151.93343569990247, -640.5625846106559, 634.7788293291815, 0.01600000075995922, -0.17600000835955143, 1.0400000493973494, 0.0, 0.0, 0.0, 0.0, 0.0, 1.710387423414918E9, 0.0, 2024-03-13 20:37:03.414
97.0, -37.483147305902094, 123.80938803311437, -507.44084568787366, 549.2248779428191, 0.01600000075995922, -0.17600000835955143, 1.0400000493973494, 0.0, 0.0, 0.0, 0.0, 0.0, 1.7103874234156432E9, 0.0, 2024-03-13 20:37:03.415
97.0, 66.8095728084445, 24.664640207774937, -397.4335584412329, 493.08149980800226, 0.01600000075995922, -0.17600000835955143, 1.0400000493973494, 0.0, 0.0, 0.0, 0.0, 0.0, 1.7103874234156432E9, 0.0, 2024-03-13 20:37:03.415
98.0, 200.41001892555505, -87.91943810833618, -316.6180602987297, 405.4537738962099, 0.01600000075995922, -0.17600000835955143, 1.0400000493973494, 0.0, 0.0, 0.0, 0.0, 0.0, 1.7103874234292393E9, 0.0, 2024-03-13 20:37:03.429
98.0, -10.189357429277152, -243.34407041687518, -493.9472866477445, 188.69104241440073, 0.01600000075995922, -0.17600000835955143, 1.0400000493973494, 0.0, 0.0, 0.0, 0.0, 0.0, 1.7103874234292393E9, 0.0, 2024-03-13 20:37:03.429
99.0, 166.66116172540933, -345.43959930725396, -295.6334816473536, 98.8436858789064, 0.01600000075995922, -0.17600000835955143, 1.0400000493973494, 0.0, 0.0, 0.0, 0.0, 0.0, 1.7103874234449573E9, 0.0, 2024-03-13 20:37:03.444
99.0, 54.3968448555097, -332.21905296389014, -445.0013459776528, 167.99443605961278, 0.01600000075995922, -0.17600000835955143, 1.0400000493973494, 0.0, 0.0, 0.0, 0.0, 0.0, 1.7103874234449573E9, 0.0, 2024-03-13 20:37:03.444
100.0, -11.595559812616557, -209.6176526164636, -518.6680253548548, 242.40348557801917, 0.01600000075995922, -0.17600000835955143, 1.0400000493973494, 0.0, 0.0, 0.0, 0.0, 0.0, 1.7103874234456193E9, 0.0, 2024-03-13 20:37:03.445
100.0, -177.07117325207219, -118.52677934570238, -638.2139274384826, 307.01586716249585, 0.01600000075995922, -0.17600000835955143, 1.0400000493973494, 0.0, 0.0, 0.0, 0.0, 0.0, 1.7103874234456193E9, 0.0, 2024-03-13 20:37:03.445
0.0, -645.2393295052461, -388.4783679973334, -452.0379677442834, -528.8648625840433, 0.01600000075995922, -0.17600000835955143, 1.0400000493973494, 0.0, 0.0, 0.0, 0.0, 0.0, 1.7103874234600077E9, 0.0, 2024-03-13 20:37:03.460
1.0, -803.9363742750138, -260.3082566158846, -640.8898258567788, -421.32403935818, 0.01600000075995922, -0.17600000835955143, 1.0400000493973494, 0.0, 0.0, 0.0, 0.0, 0.0, 1.7103874234606316E9, 0.0, 2024-03-13 20:37:03.460
1.0, -708.7110416032374, -299.68192334938794, -512.1475097821094, -509.46974141383544, 0.01600000075995922, -0.17600000835955143, 1.0400000493973494, 0.0, 0.0, 0.0, 0.0, 0.0, 1.7103874234606316E9, 0.0, 2024-03-13 20:37:03.460
2.0, -608.8463630364276, -400.6629620529711, -410.66345453448594, -563.2719421763904, 0.01600000075995922, -0.17600000835955143, 1.0400000493973494, 0.0, 0.0, 0.0, 0.0, 0.0, 1.7103874234742565E9, 0.0, 2024-03-13 20:37:03.474
2.0, -479.3635467705317, -510.94700189633295, -316.67976864799857, -642.8813225831836, 0.01600000075995922, -0.17600000835955143, 1.0400000493973494, 0.0, 0.0, 0.0, 0.0, 0.0, 1.7103874234742565E9, 0.0, 2024-03-13 20:37:03.474
3.0, -640.2072941148654, -620.5840390473604, -449.2349127274938, -820.9061703239568, 0.01600000075995922, -0.17600000835955143, 1.0400000493973494, 0.0, 0.0, 0.0, 0.0, 0.0, 1.7103874234898999E9, 0.0, 2024-03-13 20:37:03.489
3.0, -518.4380215075798, -772.2369822505862, -295.67275059688836, -958.1904178974219, 0.01600000075995922, -0.17600000835955143, 1.0400000493973494, 0.0, 0.0, 0.0, 0.0, 0.0, 1.7103874234898999E9, 0.0, 2024-03-13 20:37:03.489
4.0, -633.3875865456648, -771.3693254608661, -451.59665954951197, -893.6509643620811, 0.01600000075995922, -0.17600000835955143, 1.0400000493973494, 0.0, 0.0, 0.0, 0.0, 0.0, 1.7103874234907973E9, 0.0, 2024-03-13 20:37:03.490
4.0, -679.3303875513375, -617.5322806835175, -495.26560138212517, -781.9064935860224, 0.01600000075995922, -0.17600000835955143, 1.0400000493973494, 0.0, 0.0, 0.0, 0.0, 0.0, 1.7103874234907973E9, 0.0, 2024-03-13 20:37:03.490
5.0, -836.4585442896932, -526.0599376172759, -622.4259397755377, -725.3797757057473, 0.01600000075995922, -0.17600000835955143, 1.0400000493973494, 0.0, 0.0, 0.0, 0.0, 0.0, 1.71038742350449E9, 0.0, 2024-03-13 20:37:03.504
5.0, -676.2431001379155, -429.14230021554977, -492.9449934596196, -565.8375135459937, 0.01600000075995922, -0.17600000835955143, 1.0400000493973494, 0.0, 0.0, 0.0, 0.0, 0.0, 1.71038742350449E9, 0.0, 2024-03-13 20:37:03.504
6.0, -840.5163357416168, -303.60507840290666, -678.9769670055248, -452.9411535835825, 0.01600000075995922, -0.17600000835955143, 1.0400000493973494, 0.0, 0.0, 0.0, 0.0, 0.0, 1.7103874235199292E9, 0.0, 2024-03-13 20:37:03.519
6.0, -713.0568053517491, -304.4390760930255, -510.6291104000993, -506.5189603487961, 0.01600000075995922, -0.17600000835955143, 1.0400000493973494, 0.0, 0.0, 0.0, 0.0, 0.0, 1.7103874235199292E9, 0.0, 2024-03-13 20:37:03.519
7.0, -617.4855319340713, -405.9810997899622, -396.80338529869914, -560.4969364092685, 0.01600000075995922, -0.17600000835955143, 1.0400000493973494, 0.0, 0.0, 0.0, 0.0, 0.0, 1.7103874235206053E9, 0.0, 2024-03-13 20:37:03.520
7.0, -492.78978761145845, -520.1172365876846, -328.5576909072697, -651.4943121811375, 0.01600000075995922, -0.17600000835955143, 1.0400000493973494, 0.0, 0.0, 0.0, 0.0, 0.0, 1.7103874235206053E9, 0.0, 2024-03-13 20:37:03.520
8.0, -656.5506569212303, -651.4344737818465, -472.1006610565819, -840.2264934950508, 0.01600000075995922, -0.17600000835955143, 1.0400000493973494, 0.0, 0.0, 0.0, 0.0, 0.0, 1.7103874235342257E9, 0.0, 2024-03-13 20:37:03.534
8.0, -516.0332658360712, -763.5117956539616, -286.67455130349845, -942.8381285793148, 0.01600000075995922, -0.17600000835955143, 1.0400000493973494, 0.0, 0.0, 0.0, 0.0, 0.0, 1.7103874235342257E9, 0.0, 2024-03-13 20:37:03.534
9.0, -613.8054703776725, -752.6212069829926, -431.66299278568476, -870.2878093388863, 0.01600000075995922, -0.17600000835955143, 1.0400000493973494, 0.0, 0.0, 0.0, 0.0, 0.0, 1.710387423549966E9, 0.0, 2024-03-13 20:37:03.549
9.0, -651.0567438863218, -625.1130578937009, -515.8724501379766, -795.0148429307155, 0.01600000075995922, -0.17600000835955143, 1.0400000493973494, 0.0, 0.0, 0.0, 0.0, 0.0, 1.710387423549966E9, 0.0, 2024-03-13 20:37:03.549
10.0, -837.8049082737416, -524.2685255385004, -621.6218612850644, -719.5268322750926, 0.01600000075995922, -0.17600000835955143, 1.0400000493973494, 0.0, 0.0, 0.0, 0.0, 0.0, 1.710387423550602E9, 0.0, 2024-03-13 20:37:03.550
10.0, -695.8887946051545, -418.2816307442263, -479.69826781656593, -554.2999221826904, 0.01600000075995922, -0.17600000835955143, 1.0400000493973494, 0.0, 0.0, 0.0, 0.0, 0.0, 1.710387423550602E9, 0.0, 2024-03-13 20:37:03.550
11.0, -820.4667320791632, -271.1988452868536, -642.1277327421121, -419.60742527851835, 0.01600000075995922, -0.17600000835955143, 1.0400000493973494, 0.0, 0.0, 0.0, 0.0, 0.0, 1.7103874235642283E9, 0.0, 2024-03-13 20:37:03.564
11.0, -695.1726037636399, -292.66961093246937, -498.0630465489812, -494.86917198682204, 0.01600000075995922, -0.17600000835955143, 1.0400000493973494, 0.0, 0.0, 0.0, 0.0, 0.0, 1.7103874235642283E9, 0.0, 2024-03-13 20:37:03.564
12.0, -621.457305687014, -409.1899339519441, -405.3490566974506, -570.1870171944611, 0.01600000075995922, -0.17600000835955143, 1.0400000493973494, 0.0, 0.0, 0.0, 0.0, 0.0, 1.7103874235798788E9, 0.0, 2024-03-13 20:37:03.579
12.0, -488.71703655971214, -503.4036236857064, -308.54174634441733, -630.1357435341924, 0.01600000075995922, -0.17600000835955143, 1.0400000493973494, 0.0, 0.0, 0.0, 0.0, 0.0, 1.7103874235798788E9, 0.0, 2024-03-13 20:37:03.579
13.0, -639.2573595261201, -625.1915957927704, -446.14201546413824, -815.6665704860352, 0.01600000075995922, -0.17600000835955143, 1.0400000493973494, 0.0, 0.0, 0.0, 0.0, 0.0, 1.710387423580595E9, 0.0, 2024-03-13 20:37:03.580
13.0, -511.0853781946935, -753.0999141773209, -276.9769907183945, -933.6080554886721, 0.01600000075995922, -0.17600000835955143, 1.0400000493973494, 0.0, 0.0, 0.0, 0.0, 0.0, 1.710387423580595E9, 0.0, 2024-03-13 20:37:03.580
14.0, -623.2225384660996, -755.4560511494055, -429.0974214160815, -873.7733960975893, 0.01600000075995922, -0.17600000835955143, 1.0400000493973494, 0.0, 0.0, 0.0, 0.0, 0.0, 1.710387423594205E9, 0.0, 2024-03-13 20:37:03.594
14.0, -688.4071247437969, -636.2841390613467, -522.4097952605225, -806.780568191316, 0.01600000075995922, -0.17600000835955143, 1.0400000493973494, 0.0, 0.0, 0.0, 0.0, 0.0, 1.710387423594205E9, 0.0, 2024-03-13 20:37:03.594
15.0, -827.1162742003798, -521.4112419723533, -615.71655925503, -720.510425963439, 0.01600000075995922, -0.17600000835955143, 1.0400000493973494, 0.0, 0.0, 0.0, 0.0, 0.0, 1.7103874236098833E9, 0.0, 2024-03-13 20:37:03.609
15.0, -692.2872709478252, -411.07110362965614, -471.4368288144469, -544.7444777959026, 0.01600000075995922, -0.17600000835955143, 1.0400000493973494, 0.0, 0.0, 0.0, 0.0, 0.0, 1.7103874236098833E9, 0.0, 2024-03-13 20:37:03.609
16.0, -797.7655393481255, -268.07976872380823, -641.9556973441504, -419.0240008854307, 0.01600000075995922, -0.17600000835955143, 1.0400000493973494, 0.0, 0.0, 0.0, 0.0, 0.0, 1.7103874236105895E9, 0.0, 2024-03-13 20:37:03.610
16.0, -688.6053394414485, -288.5108421817422, -492.288641017396, -491.52944132639095, 0.01600000075995922, -0.17600000835955143, 1.0400000493973494, 0.0, 0.0, 0.0, 0.0, 0.0, 1.7103874236105895E9, 0.0, 2024-03-13 20:37:03.610
17.0, -592.1776289339177, -385.2957131350413, -384.8581448402256, -544.0376367042772, 0.01600000075995922, -0.17600000835955143, 1.0400000493973494, 0.0, 0.0, 0.0, 0.0, 0.0, 1.7103874236244528E9, 0.0, 2024-03-13 20:37:03.624
17.0, -493.94541669776663, -520.8278175792657, -319.24160011764616, -642.0473248930648, 0.01600000075995922, -0.17600000835955143, 1.0400000493973494, 0.0, 0.0, 0.0, 0.0, 0.0, 1.7103874236244528E9, 0.0, 2024-03-13 20:37:03.624
18.0, -662.9982444448397, -650.2264860961586, -460.6079484927468, -831.8865165938623, 0.01600000075995922, -0.17600000835955143, 1.0400000493973494, 0.0, 0.0, 0.0, 0.0, 0.0, 1.7103874236398802E9, 0.0, 2024-03-13 20:37:03.639
18.0, -518.5015998068266, -765.9614301249385, -285.5002227174118, -940.242638010066, 0.01600000075995922, -0.17600000835955143, 1.0400000493973494, 0.0, 0.0, 0.0, 0.0, 0.0, 1.7103874236398802E9, 0.0, 2024-03-13 20:37:03.639
19.0, -603.920914794784, -758.4143120143563, -432.5755283748731, -881.3728728075512, 0.01600000075995922, -0.17600000835955143, 1.0400000493973494, 0.0, 0.0, 0.0, 0.0, 0.0, 1.7103874236406116E9, 0.0, 2024-03-13 20:37:03.640
19.0, -667.9910108856857, -604.2444161409512, -493.4442701037042, -776.6930730477907, 0.01600000075995922, -0.17600000835955143, 1.0400000493973494, 0.0, 0.0, 0.0, 0.0, 0.0, 1.7103874236406116E9, 0.0, 2024-03-13 20:37:03.640
20.0, -839.4355046544224, -523.8384370435961, -621.8499951823615, -723.9548738226295, 0.01600000075995922, -0.17600000835955143, 1.0400000493973494, 0.0, 0.0, 0.0, 0.0, 0.0, 1.7103874236542225E9, 0.0, 2024-03-13 20:37:03.654
20.0, -679.335997401271, -417.163400657475, -468.9684948436916, -549.5614689388312, 0.01600000075995922, -0.17600000835955143, 1.0400000493973494, 0.0, 0.0, 0.0, 0.0, 0.0, 1.7103874236542225E9, 0.0, 2024-03-13 20:37:03.654
21.0, -824.9022534266114, -282.3923658542335, -649.0166284604929, -427.0423463904299, 0.01600000075995922, -0.17600000835955143, 1.0400000493973494, 0.0, 0.0, 0.0, 0.0, 0.0, 1.7103874236702588E9, 0.0, 2024-03-13 20:37:03.670
21.0, -709.9078095890582, -296.41325078811496, -502.57710579549894, -496.1743970713578, 0.01600000075995922, -0.17600000835955143, 1.0400000493973494, 0.0, 0.0, 0.0, 0.0, 0.0, 1.7103874236702588E9, 0.0, 2024-03-13 20:37:03.670
22.0, -631.7831694646738, -410.4614999368787, -413.36740220244974, -574.1288717477582, 0.01600000075995922, -0.17600000835955143, 1.0400000493973494, 0.0, 0.0, 0.0, 0.0, 0.0, 1.710387423671077E9, 0.0, 2024-03-13 20:37:03.671
22.0, -471.15072646783665, -500.56503961933777, -308.9568752394989, -636.990980152972, 0.01600000075995922, -0.17600000835955143, 1.0400000493973494, 0.0, 0.0, 0.0, 0.0, 0.0, 1.710387423671077E9, 0.0, 2024-03-13 20:37:03.671
23.0, -659.6921728840098, -646.0677173454314, -478.2116575841792, -840.9894330860116, 0.01600000075995922, -0.17600000835955143, 1.0400000493973494, 0.0, 0.0, 0.0, 0.0, 0.0, 1.7103874236842167E9, 0.0, 2024-03-13 20:37:03.684
23.0, -466.8722809185274, -746.6635463535786, -272.63122696988285, -931.3117569158785, 0.01600000075995922, -0.17600000835955143, 1.0400000493973494, 0.0, 0.0, 0.0, 0.0, 0.0, 1.7103874236842167E9, 0.0, 2024-03-13 20:37:03.684
24.0, -609.1268555331044, -740.1037618312985, -423.603508381173, -865.1267474000342, 0.01600000075995922, -0.17600000835955143, 1.0400000493973494, 0.0, 0.0, 0.0, 0.0, 0.0, 1.7103874236999037E9, 0.0, 2024-03-13 20:37:03.699
24.0, -682.2961282161996, -609.7383291758597, -510.83106499770656, -788.6570130060427, 0.01600000075995922, -0.17600000835955143, 1.0400000493973494, 0.0, 0.0, 0.0, 0.0, 0.0, 1.7103874236999037E9, 0.0, 2024-03-13 20:37:03.699
25.0, -828.960044878535, -523.0193989533, -627.99465080956, -724.8599296119064, 0.01600000075995922, -0.17600000835955143, 1.0400000493973494, 0.0, 0.0, 0.0, 0.0, 0.0, 1.710387423700614E9, 0.0, 2024-03-13 20:37:03.700
25.0, -655.6773902815767, -394.6043241247535, -456.45104969199747, -534.3737352187745, 0.01600000075995922, -0.17600000835955143, 1.0400000493973494, 0.0, 0.0, 0.0, 0.0, 0.0, 1.710387423700614E9, 0.0, 2024-03-13 20:37:03.700
26.0, -789.4480018466711, -253.78213119320571, -630.0141967856325, -408.5410613096319, 0.01600000075995922, -0.17600000835955143, 1.0400000493973494, 0.0, 0.0, 0.0, 0.0, 0.0, 1.7103874237143826E9, 0.0, 2024-03-13 20:37:03.714
26.0, -686.9971824605018, -275.1033008405939, -486.4730965862982, -484.22915661288425, 0.01600000075995922, -0.17600000835955143, 1.0400000493973494, 0.0, 0.0, 0.0, 0.0, 0.0, 1.7103874237143826E9, 0.0, 2024-03-13 20:37:03.714
27.0, -645.7629154990427, -416.47151916567236, -406.9796530781314, -570.5423076902516, 0.01600000075995922, -0.17600000835955143, 1.0400000493973494, 0.0, 0.0, 0.0, 0.0, 0.0, 1.710387423730283E9, 0.0, 2024-03-13 20:37:03.730
27.0, -484.42363141058013, -513.3928964673541, -302.3671715175733, -634.518906282261, 0.01600000075995922, -0.17600000835955143, 1.0400000493973494, 0.0, 0.0, 0.0, 0.0, 0.0, 1.710387423730283E9, 0.0, 2024-03-13 20:37:03.730
28.0, -606.2078636176884, -616.0438005011529, -445.6782678696327, -808.0932730757631, 0.01600000075995922, -0.17600000835955143, 1.0400000493973494, 0.0, 0.0, 0.0, 0.0, 0.0, 1.710387423730694E9, 0.0, 2024-03-13 20:37:03.730
28.0, -502.19563600001857, -734.5051315976307, -270.084355100058, -923.7309797056951, 0.01600000075995922, -0.17600000835955143, 1.0400000493973494, 0.0, 0.0, 0.0, 0.0, 0.0, 1.710387423730694E9, 0.0, 2024-03-13 20:37:03.730
29.0, -606.0451779696159, -734.3143966998905, -425.9484256533906, -865.1641463995911, 0.01600000075995922, -0.17600000835955143, 1.0400000493973494, 0.0, 0.0, 0.0, 0.0, 0.0, 1.7103874237442353E9, 0.0, 2024-03-13 20:37:03.744
29.0, -648.364015918225, -599.5545815965161, -492.9506033095531, -772.5754431965761, 0.01600000075995922, -0.17600000835955143, 1.0400000493973494, 0.0, 0.0, 0.0, 0.0, 0.0, 1.7103874237442353E9, 0.0, 2024-03-13 20:37:03.744
30.0, -808.7421457180753, -498.83720583980903, -602.956020606216, -702.8132193731144, 0.01600000075995922, -0.17600000835955143, 1.0560000501573086, 0.0, 0.0, 0.0, 0.0, 0.0, 1.710387423760018E9, 0.0, 2024-03-13 20:37:03.760
30.0, -662.0202606064267, -402.9704803256318, -457.34862568136305, -539.1757667618804, 0.01600000075995922, -0.17600000835955143, 1.0560000501573086, 0.0, 0.0, 0.0, 0.0, 0.0, 1.710387423760018E9, 0.0, 2024-03-13 20:37:03.760
31.0, -794.2762126894668, -251.88974181562662, -628.2190448069014, -399.7373368139379, 0.01600000075995922, -0.17600000835955143, 1.0560000501573086, 0.0, 0.0, 0.0, 0.0, 0.0, 1.710387423760599E9, 0.0, 2024-03-13 20:37:03.760
31.0, -683.2348431050777, -266.69600574020296, -479.0531350742094, -469.04142289282754, 0.01600000075995922, -0.17600000835955143, 1.0560000501573086, 0.0, 0.0, 0.0, 0.0, 0.0, 1.710387423760599E9, 0.0, 2024-03-13 20:37:03.760
32.0, -598.0679713641293, -382.24021487124264, -389.0318731907755, -540.6044085449539, 0.01600000075995922, -0.17600000835955143, 1.0560000501573086, 0.0, 0.0, 0.0, 0.0, 0.0, 1.710387423774204E9, 0.0, 2024-03-13 20:37:03.774
32.0, -458.13961452199146, -489.2967210528441, -297.89425117056817, -621.3619382381439, 0.01600000075995922, -0.17600000835955143, 1.0560000501573086, 0.0, 0.0, 0.0, 0.0, 0.0, 1.710387423774204E9, 0.0, 2024-03-13 20:37:03.774
33.0, -645.1140428567305, -628.2919728560373, -460.7538045910187, -821.2352815200575, 0.01600000075995922, -0.17600000835955143, 1.0560000501573086, 0.0, 0.0, 0.0, 0.0, 0.0, 1.710387423789876E9, 0.0, 2024-03-13 20:37:03.789
33.0, -516.9233620255254, -743.0620226962492, -273.55124235898256, -926.1282555772923, 0.01600000075995922, -0.17600000835955143, 1.0560000501573086, 0.0, 0.0, 0.0, 0.0, 0.0, 1.710387423789876E9, 0.0, 2024-03-13 20:37:03.789
34.0, -603.9022152950056, -741.521183914505, -426.18029945064336, -867.8232152680866, 0.01600000075995922, -0.17600000835955143, 1.0560000501573086, 0.0, 0.0, 0.0, 0.0, 0.0, 1.71038742379061E9, 0.0, 2024-03-13 20:37:03.790
34.0, -651.1614610850811, -595.575328043662, -485.8522731936537, -769.3292100350372, 0.01600000075995922, -0.17600000835955143, 1.0560000501573086, 0.0, 0.0, 0.0, 0.0, 0.0, 1.71038742379061E9, 0.0, 2024-03-13 20:37:03.790
35.0, -828.3467012858018, -502.6556436945684, -608.9473403352313, -707.2188215209171, 0.01600000075995922, -0.17600000835955143, 1.0560000501573086, 0.0, 0.0, 0.0, 0.0, 0.0, 1.7103874238044863E9, 0.0, 2024-03-13 20:37:03.804
35.0, -661.2648008153774, -399.627009765245, -469.035813042894, -544.5500029982068, 0.01600000075995922, -0.17600000835955143, 1.0560000501573086, 0.0, 0.0, 0.0, 0.0, 0.0, 1.7103874238044863E9, 0.0, 2024-03-13 20:37:03.804
36.0, -790.4914339343086, -263.909780273214, -640.7402298585512, -410.81866038264707, 0.01600000075995922, -0.17600000835955143, 1.0560000501573086, 0.0, 0.0, 0.0, 0.0, 0.0, 1.710387423819876E9, 0.0, 2024-03-13 20:37:03.819
36.0, -703.4116033660248, -287.5496878931299, -507.5287333368324, -497.6292181541212, 0.01600000075995922, -0.17600000835955143, 1.0560000501573086, 0.0, 0.0, 0.0, 0.0, 0.0, 1.710387423819876E9, 0.0, 2024-03-13 20:37:03.819
37.0, -629.8982598870061, -404.9040086027235, -402.8134045274928, -563.4963361737318, 0.01600000075995922, -0.17600000835955143, 1.0560000501573086, 0.0, 0.0, 0.0, 0.0, 0.0, 1.7103874238205698E9, 0.0, 2024-03-13 20:37:03.820
37.0, -469.84550138330087, -496.94107656227425, -298.7432084605098, -627.0503260707483, 0.01600000075995922, -0.17600000835955143, 1.0560000501573086, 0.0, 0.0, 0.0, 0.0, 0.0, 1.7103874238205698E9, 0.0, 2024-03-13 20:37:03.820
38.0, -635.1135503752157, -615.3519190093502, -449.73231942160055, -815.8273861841299, 0.01600000075995922, -0.17600000835955143, 1.0560000501573086, 0.0, 0.0, 0.0, 0.0, 0.0, 1.7103874238342423E9, 0.0, 2024-03-13 20:37:03.834
38.0, -482.34050713526085, -734.1461012018844, -276.55438202340156, -931.4613529141061, 0.01600000075995922, -0.17600000835955143, 1.0560000501573086, 0.0, 0.0, 0.0, 0.0, 0.0, 1.7103874238342423E9, 0.0, 2024-03-13 20:37:03.834
39.0, -612.65358119132, -739.5502566378564, -439.52426249254495, -874.427878589835, 0.01600000075995922, -0.17600000835955143, 1.0560000501573086, 0.0, 0.0, 0.0, 0.0, 0.0, 1.7103874238498905E9, 0.0, 2024-03-13 20:37:03.849
39.0, -666.9326191982254, -616.0924192005768, -510.61415080027655, -794.3566205385141, 0.01600000075995922, -0.17600000835955143, 1.0560000501573086, 0.0, 0.0, 0.0, 0.0, 0.0, 1.7103874238498905E9, 0.0, 2024-03-13 20:37:03.849
40.0, -801.438121104613, -496.30903346976265, -601.5385985230096, -702.0502797821537, 0.01600000075995922, -0.17600000835955143, 1.0400000493973494, 0.0, 0.0, 0.0, 0.0, 0.0, 1.7103874238506043E9, 0.0, 2024-03-13 20:37:03.850
40.0, -672.6453163805418, -414.0181447947398, -470.483154325746, -553.121853696648, 0.01600000075995922, -0.17600000835955143, 1.0400000493973494, 0.0, 0.0, 0.0, 0.0, 0.0, 1.7103874238506043E9, 0.0, 2024-03-13 20:37:03.850
41.0, -790.1548429382965, -257.7239857465029, -626.8165823235177, -408.877652305644, 0.01600000075995922, -0.17600000835955143, 1.0400000493973494, 0.0, 0.0, 0.0, 0.0, 0.0, 1.7103874238642344E9, 0.0, 2024-03-13 20:37:03.864
41.0, -704.8252855492756, -287.2579756965861, -509.24534741649404, -497.1879099593498, 0.01600000075995922, -0.17600000835955143, 1.0400000493973494, 0.0, 0.0, 0.0, 0.0, 0.0, 1.7103874238642344E9, 0.0, 2024-03-13 20:37:03.864
42.0, -632.5161898559891, -413.54691740032285, -420.32361612003297, -574.3532657450996, 0.01600000075995922, -0.17600000835955143, 1.0400000493973494, 0.0, 0.0, 0.0, 0.0, 0.0, 1.710387423879906E9, 0.0, 2024-03-13 20:37:03.879
42.0, -494.2146894945763, -509.7876329100691, -319.002246520482, -642.6494487859309, 0.01600000075995922, -0.17600000835955143, 1.0400000493973494, 0.0, 0.0, 0.0, 0.0, 0.0, 1.710387423879906E9, 0.0, 2024-03-13 20:37:03.879
43.0, -657.145301014185, -626.5865784762427, -460.73136519128457, -826.2392676607706, 0.01600000075995922, -0.17600000835955143, 1.0400000493973494, 0.0, 0.0, 0.0, 0.0, 0.0, 1.7103874238806112E9, 0.0, 2024-03-13 20:37:03.880
43.0, -480.70617085462436, -731.4533732337877, -269.44483220763505, -927.1604679650627, 0.01600000075995922, -0.17600000835955143, 1.0400000493973494, 0.0, 0.0, 0.0, 0.0, 0.0, 1.7103874238806112E9, 0.0, 2024-03-13 20:37:03.880
44.0, -601.0561514287256, -739.5240773381665, -429.84540140721947, -870.8899332317524, 0.01600000075995922, -0.17600000835955143, 1.0400000493973494, 0.0, 0.0, 0.0, 0.0, 0.0, 1.7103874238942356E9, 0.0, 2024-03-13 20:37:03.894
44.0, -682.9580905083567, -622.9214765196666, -522.910941854585, -799.0651545827277, 0.01600000075995922, -0.17600000835955143, 1.0400000493973494, 0.0, 0.0, 0.0, 0.0, 0.0, 1.7103874238942356E9, 0.0, 2024-03-13 20:37:03.894
45.0, -815.066316543147, -502.53596689598635, -614.8638620651327, -712.0844313632697, 0.01600000075995922, -0.17600000835955143, 1.0400000493973494, 0.0, 0.0, 0.0, 0.0, 0.0, 1.710387423909957E9, 0.0, 2024-03-13 20:37:03.909
45.0, -668.8867169250734, -411.59094972349703, -474.0136198839173, -554.1428463845514, 0.01600000075995922, -0.17600000835955143, 1.0400000493973494, 0.0, 0.0, 0.0, 0.0, 0.0, 1.710387423909957E9, 0.0, 2024-03-13 20:37:03.909
46.0, -810.8065704936162, -278.6823850981891, -658.1382444524206, -430.31475885165855, 0.01600000075995922, -0.17600000835955143, 1.0400000493973494, 0.0, 0.0, 0.0, 0.0, 0.0, 1.7103874239106576E9, 0.0, 2024-03-13 20:37:03.910
46.0, -695.6812301576138, -278.6861249981448, -501.3317191102542, -488.0288949678652, 0.01600000075995922, -0.17600000835955143, 1.0400000493973494, 0.0, 0.0, 0.0, 0.0, 0.0, 1.7103874239106576E9, 0.0, 2024-03-13 20:37:03.910
47.0, -604.235066391062, -379.5886258026585, -378.6199917141348, -545.6831926847808, 0.01600000075995922, -0.17600000835955143, 1.0400000493973494, 0.0, 0.0, 0.0, 0.0, 0.0, 1.7103874239242172E9, 0.0, 2024-03-13 20:37:03.924
47.0, -469.7520038844086, -500.3294259221293, -305.2468944834545, -636.1644622627646, 0.01600000075995922, -0.17600000835955143, 1.0400000493973494, 0.0, 0.0, 0.0, 0.0, 0.0, 1.7103874239242172E9, 0.0, 2024-03-13 20:37:03.924
48.0, -651.8757819766179, -636.063484963961, -467.7174983085133, -835.7797524477355, 0.01600000075995922, -0.17600000835955143, 1.0400000493973494, 0.0, 0.0, 0.0, 0.0, 0.0, 1.710387423939952E9, 0.0, 2024-03-13 20:37:03.939
48.0, -500.00779452593997, -748.454958432354, -281.5359287643805, -939.9359662136994, 0.01600000075995922, -0.17600000835955143, 1.0400000493973494, 0.0, 0.0, 0.0, 0.0, 0.0, 1.710387423939952E9, 0.0, 2024-03-13 20:37:03.939
49.0, -619.2545046131127, -735.6944197835401, -422.37308129575104, -865.9383056904189, 0.01600000075995922, -0.17600000835955143, 1.0400000493973494, 0.0, 0.0, 0.0, 0.0, 0.0, 1.7103874239406636E9, 0.0, 2024-03-13 20:37:03.940
49.0, -700.1541505046189, -617.8688716795295, -513.9800607603975, -793.272049551364, 0.01600000075995922, -0.17600000835955143, 1.0400000493973494, 0.0, 0.0, 0.0, 0.0, 0.0, 1.7103874239406636E9, 0.0, 2024-03-13 20:37:03.940
50.0, -834.0986674176529, -509.1443701176904, -610.832249912899, -705.7826999379322, 0.01600000075995922, -0.17600000835955143, 1.0400000493973494, 0.0, 0.0, 0.0, 0.0, 0.0, 1.7103874239541955E9, 0.0, 2024-03-13 20:37:03.954
50.0, -635.4183522216044, -387.9921810030937, -447.4752897983417, -529.1079560811631, 0.01600000075995922, -0.17600000835955143, 1.0400000493973494, 0.0, 0.0, 0.0, 0.0, 0.0, 1.7103874239541955E9, 0.0, 2024-03-13 20:37:03.954
51.0, -787.0918648745865, -257.1891800528392, -627.6356204138137, -410.4708496867679, 0.01600000075995922, -0.17600000835955143, 1.0400000493973494, 0.0, 0.0, 0.0, 0.0, 0.0, 1.710387423970441E9, 0.0, 2024-03-13 20:37:03.970
51.0, -705.158136645332, -290.4406305588782, -503.5980984834023, -494.22964909439906, 0.01600000075995922, -0.17600000835955143, 1.0400000493973494, 0.0, 0.0, 0.0, 0.0, 0.0, 1.710387423970441E9, 0.0, 2024-03-13 20:37:03.970
52.0, -608.3975750417449, -396.43687510304153, -404.4851398076862, -560.5941738081165, 0.01600000075995922, -0.17600000835955143, 1.0400000493973494, 0.0, 0.0, 0.0, 0.0, 0.0, 1.7103874239708502E9, 0.0, 2024-03-13 20:37:03.970
52.0, -450.88046870799735, -495.9874020735733, -302.21383561939, -630.7490871269256, 0.01600000075995922, -0.17600000835955143, 1.0400000493973494, 0.0, 0.0, 0.0, 0.0, 0.0, 1.7103874239708502E9, 0.0, 2024-03-13 20:37:03.970
53.0, -618.6168516706675, -611.978529249318, -452.4138276898302, -817.0391137697734, 0.01600000075995922, -0.17600000835955143, 1.0400000493973494, 0.0, 0.0, 0.0, 0.0, 0.0, 1.7103874239842143E9, 0.0, 2024-03-13 20:37:03.984
53.0, -505.5839853598736, -755.6019072476774, -279.07133469358087, -938.5335037303157, 0.01600000075995922, -0.17600000835955143, 1.0400000493973494, 0.0, 0.0, 0.0, 0.0, 0.0, 1.7103874239842143E9, 0.0, 2024-03-13 20:37:03.984
54.0, -624.7297181482427, -763.8596063498408, -442.5722809564322, -890.6515645976178, 0.01600000075995922, -0.17600000835955143, 1.0400000493973494, 0.0, 0.0, 0.0, 0.0, 0.0, 1.7103874240003183E9, 0.0, 2024-03-13 20:37:04.000
54.0, -695.8495256556198, -628.6771825514734, -506.6274174475111, -795.2541965278797, 0.01600000075995922, -0.17600000835955143, 1.0400000493973494, 0.0, 0.0, 0.0, 0.0, 0.0, 1.7103874240003183E9, 0.0, 2024-03-13 20:37:04.000
55.0, -835.7591829979792, -520.82407767931, -622.9009070699103, -717.5858241980895, 0.01600000075995922, -0.17600000835955143, 1.0400000493973494, 0.0, 0.0, 0.0, 0.0, 0.0, 1.7103874240149517E9, 0.0, 2024-03-13 20:37:04.014
55.0, -662.9365360955708, -411.8153437208384, -470.7486872226, -551.2855628184043, 0.01600000075995922, -0.17600000835955143, 1.0400000493973494, 0.0, 0.0, 0.0, 0.0, 0.0, 1.7103874240149517E9, 0.0, 2024-03-13 20:37:04.014
56.0, -803.8428767761216, -275.6942050335929, -643.0664476309903, -426.896490292158, 0.01600000075995922, -0.17600000835955143, 1.0400000493973494, 0.0, 0.0, 0.0, 0.0, 0.0, 1.7103874240156684E9, 0.0, 2024-03-13 20:37:04.015
56.0, -725.1628615083173, -301.56683292705566, -518.4978599068709, -513.2246009693481, 0.01600000075995922, -0.17600000835955143, 1.0400000493973494, 0.0, 0.0, 0.0, 0.0, 0.0, 1.7103874240156684E9, 0.0, 2024-03-13 20:37:04.015
57.0, -625.4215996400453, -408.1652013640851, -418.4312267424539, -582.2631541513838, 0.01600000075995922, -0.17600000835955143, 1.0400000493973494, 0.0, 0.0, 0.0, 0.0, 0.0, 1.7103874240299623E9, 0.0, 2024-03-13 20:37:04.029
57.0, -441.31380462134257, -491.9258707216941, -305.64706377871335, -634.9602144770324, 0.01600000075995922, -0.17600000835955143, 1.0400000493973494, 0.0, 0.0, 0.0, 0.0, 0.0, 1.7103874240299623E9, 0.0, 2024-03-13 20:37:04.029
58.0, -628.9801144478843, -623.3440852146596, -460.10680189868435, -826.0260933632962, 0.01600000075995922, -0.17600000835955143, 1.0400000493973494, 0.0, 0.0, 0.0, 0.0, 0.0, 1.710387424030692E9, 0.0, 2024-03-13 20:37:04.030
58.0, -516.6279099290259, -760.4151584906504, -292.4003381356597, -948.5302563118748, 0.01600000075995922, -0.17600000835955143, 1.0400000493973494, 0.0, 0.0, 0.0, 0.0, 0.0, 1.710387424030692E9, 0.0, 2024-03-13 20:37:04.030
59.0, -648.2237696698867, -774.2153893271461, -450.37745216395706, -902.5930651561357, 0.01600000075995922, -0.17600000835955143, 1.0400000493973494, 0.0, 0.0, 0.0, 0.0, 0.0, 1.7103874240442114E9, 0.0, 2024-03-13 20:37:04.044
59.0, -692.2255625985563, -638.5654780343175, -526.4002685132436, -813.3590522133745, 0.01600000075995922, -0.17600000835955143, 1.0400000493973494, 0.0, 0.0, 0.0, 0.0, 0.0, 1.7103874240442114E9, 0.0, 2024-03-13 20:37:04.044
60.0, -850.5093484232202, -534.1680407212116, -639.1058935779147, -736.9211069690064, 0.01600000075995922, -0.17600000835955143, 1.0400000493973494, 0.0, 0.0, 0.0, 0.0, 0.0, 1.7103874240599632E9, 0.0, 2024-03-13 20:37:04.059
60.0, -660.1540505285375, -407.02453187759966, -463.57929900754243, -541.4271865352057, 0.01600000075995922, -0.17600000835955143, 1.0400000493973494, 0.0, 0.0, 0.0, 0.0, 0.0, 1.7103874240599632E9, 0.0, 2024-03-13 20:37:04.059
61.0, -779.6980826621875, -260.9851785078645, -645.9686099966057, -419.45408938033506, 0.01600000075995922, -0.17600000835955143, 1.0400000493973494, 0.0, 0.0, 0.0, 0.0, 0.0, 1.7103874240608487E9, 0.0, 2024-03-13 20:37:04.060
61.0, -706.399783430621, -289.82354706618935, -514.660722552333, -503.2540276874788, 0.01600000075995922, -0.17600000835955143, 1.0400000493973494, 0.0, 0.0, 0.0, 0.0, 0.0, 1.7103874240608487E9, 0.0, 2024-03-13 20:37:04.060
62.0, -635.5043699205853, -422.51145759411156, -429.41531291231513, -588.6583830756135, 0.01600000075995922, -0.17600000835955143, 1.0400000493973494, 0.0, 0.0, 0.0, 0.0, 0.0, 1.7103874240742085E9, 0.0, 2024-03-13 20:37:04.074
62.0, -471.30406236601993, -519.6198298935778, -321.57155779004097, -654.2842775480822, 0.01600000075995922, -0.17600000835955143, 1.0400000493973494, 0.0, 0.0, 0.0, 0.0, 0.0, 1.7103874240742085E9, 0.0, 2024-03-13 20:37:04.074
63.0, -642.5185522874817, -634.2346738856286, -465.29778303718194, -829.694935219828, 0.01600000075995922, -0.17600000835955143, 1.0400000493973494, 0.0, 0.0, 0.0, 0.0, 0.0, 1.710387424090201E9, 0.0, 2024-03-13 20:37:04.090
63.0, -487.6586448722519, -737.3025767644867, -277.8334278082475, -932.5534037011676, 0.01600000075995922, -0.17600000835955143, 1.0400000493973494, 0.0, 0.0, 0.0, 0.0, 0.0, 1.710387424090201E9, 0.0, 2024-03-13 20:37:04.090
64.0, -608.6705877385102, -749.8723805155605, -446.15510511398315, -888.9835692173801, 0.01600000075995922, -0.17600000835955143, 1.0400000493973494, 0.0, 0.0, 0.0, 0.0, 0.0, 1.7103874240909357E9, 0.0, 2024-03-13 20:37:04.090
64.0, -671.2933425465599, -616.8104799920693, -513.4527348666452, -796.9895101073198, 0.01600000075995922, -0.17600000835955143, 1.0400000493973494, 0.0, 0.0, 0.0, 0.0, 0.0, 1.7103874240909357E9, 0.0, 2024-03-13 20:37:04.090
65.0, -834.061268418096, -516.3399376324378, -618.7122191195376, -720.0391985690221, 0.01600000075995922, -0.17600000835955143, 1.0400000493973494, 0.0, 0.0, 0.0, 0.0, 0.0, 1.71038742410435E9, 0.0, 2024-03-13 20:37:04.104
65.0, -668.7745199264027, -408.7523656571284, -456.8923578867689, -543.1213612151332, 0.01600000075995922, -0.17600000835955143, 1.0400000493973494, 0.0, 0.0, 0.0, 0.0, 0.0, 1.71038742410435E9, 0.0, 2024-03-13 20:37:04.104
66.0, -833.3319879267365, -277.3958595134318, -650.7444622400217, -428.47098817350343, 0.01600000075995922, -0.17600000835955143, 1.0400000493973494, 0.0, 0.0, 0.0, 0.0, 0.0, 1.7103874241204815E9, 0.0, 2024-03-13 20:37:04.120
66.0, -732.6239619199187, -302.75986101292074, -505.64008385920897, -502.8875174918212, 0.01600000075995922, -0.17600000835955143, 1.0400000493973494, 0.0, 0.0, 0.0, 0.0, 0.0, 1.7103874241204815E9, 0.0, 2024-03-13 20:37:04.120
67.0, -621.3787677879445, -412.5259247124195, -415.92549377214164, -574.30090714572, 0.01600000075995922, -0.17600000835955143, 1.0400000493973494, 0.0, 0.0, 0.0, 0.0, 0.0, 1.7103874241207104E9, 0.0, 2024-03-13 20:37:04.120
67.0, -470.4625848759897, -517.0168595244177, -310.9539818158373, -648.7978443130851, 0.01600000075995922, -0.17600000835955143, 1.0400000493973494, 0.0, 0.0, 0.0, 0.0, 0.0, 1.7103874241207104E9, 0.0, 2024-03-13 20:37:04.120
68.0, -633.6213302928954, -629.7056550392881, -453.54701737640426, -821.0221072225831, 0.01600000075995922, -0.17600000835955143, 1.0400000493973494, 0.0, 0.0, 0.0, 0.0, 0.0, 1.710387424134229E9, 0.0, 2024-03-13 20:37:04.134
68.0, -508.05605923058465, -751.1102874008939, -278.9516578949988, -939.9471859135665, 0.01600000075995922, -0.17600000835955143, 1.0400000493973494, 0.0, 0.0, 0.0, 0.0, 0.0, 1.710387424134229E9, 0.0, 2024-03-13 20:37:04.134
69.0, -612.7358589903452, -756.9632308315486, -433.52172306366265, -883.111926286947, 0.01600000075995922, -0.17600000835955143, 1.0400000493973494, 0.0, 0.0, 0.0, 0.0, 0.0, 1.7103874241499932E9, 0.0, 2024-03-13 20:37:04.149
69.0, -668.8511878754944, -620.5503799477592, -498.7324886410497, -792.5053700604476, 0.01600000075995922, -0.17600000835955143, 1.0400000493973494, 0.0, 0.0, 0.0, 0.0, 0.0, 1.7103874241499932E9, 0.0, 2024-03-13 20:37:04.149
70.0, -824.2664704341441, -512.8655705736019, -611.6138890036382, -709.0925113987178, 0.01600000075995922, -0.17600000835955143, 1.0400000493973494, 0.0, 0.0, 0.0, 0.0, 0.0, 1.7103874241508508E9, 0.0, 2024-03-13 20:37:04.150
70.0, -683.3152509541251, -421.2024926096201, -483.5167056713253, -562.8493334813975, 0.01600000075995922, -0.17600000835955143, 1.0400000493973494, 0.0, 0.0, 0.0, 0.0, 0.0, 1.7103874241508508E9, 0.0, 2024-03-13 20:37:04.150
71.0, -800.7948583122343, -261.40778720285743, -631.1586061720736, -412.6250320612453, 0.01600000075995922, -0.17600000835955143, 1.0400000493973494, 0.0, 0.0, 0.0, 0.0, 0.0, 1.7103874241642287E9, 0.0, 2024-03-13 20:37:04.164
71.0, -683.919244796969, -268.5659557180479, -483.0323886270635, -474.0641085333191, 0.01600000075995922, -0.17600000835955143, 1.0400000493973494, 0.0, 0.0, 0.0, 0.0, 0.0, 1.7103874241642287E9, 0.0, 2024-03-13 20:37:04.164
72.0, -602.4773134118877, -378.7695877123624, -389.0281332908198, -541.965732128825, 0.01600000075995922, -0.17600000835955143, 1.0400000493973494, 0.0, 0.0, 0.0, 0.0, 0.0, 1.7103874241799316E9, 0.0, 2024-03-13 20:37:04.179
72.0, -464.1384140509181, -502.4125501974486, -306.0360133741051, -638.7113341325894, 0.01600000075995922, -0.17600000835955143, 1.0400000493973494, 0.0, 0.0, 0.0, 0.0, 0.0, 1.7103874241799316E9, 0.0, 2024-03-13 20:37:04.179
73.0, -623.3740044143051, -617.0423537893221, -445.1958207753487, -812.0089483293705, 0.01600000075995922, -0.17600000835955143, 1.0400000493973494, 0.0, 0.0, 0.0, 0.0, 0.0, 1.7103874241806176E9, 0.0, 2024-03-13 20:37:04.180
73.0, -514.5709649533965, -756.922091932036, -287.1046397984028, -939.4871782190166, 0.01600000075995922, -0.17600000835955143, 1.0400000493973494, 0.0, 0.0, 0.0, 0.0, 0.0, 1.7103874241806176E9, 0.0, 2024-03-13 20:37:04.180
74.0, -620.5073710982688, -750.6914186058566, -428.7570905201137, -876.8326342613436, 0.01600000075995922, -0.17600000835955143, 1.0400000493973494, 0.0, 0.0, 0.0, 0.0, 0.0, 1.7103874241942523E9, 0.0, 2024-03-13 20:37:04.194
74.0, -679.2929885517806, -619.2975134626031, -509.09949131822214, -791.0355893778615, 0.01600000075995922, -0.17600000835955143, 1.0400000493973494, 0.0, 0.0, 0.0, 0.0, 0.0, 1.7103874241942523E9, 0.0, 2024-03-13 20:37:04.194
75.0, -814.8755816454068, -496.85879876324907, -602.3613765132613, -697.9176903311163, 0.01600000075995922, -0.17600000835955143, 1.0400000493973494, 0.0, 0.0, 0.0, 0.0, 0.0, 1.7103874242099736E9, 0.0, 2024-03-13 20:37:04.209
75.0, -629.0754818967544, -381.3650782816112, -442.7218769546598, -521.957267365884, 0.01600000075995922, -0.17600000835955143, 1.0400000493973494, 0.0, 0.0, 0.0, 0.0, 0.0, 1.7103874242099736E9, 0.0, 2024-03-13 20:37:04.209
76.0, -787.9520418643951, -259.18628662917763, -631.4054395691492, -406.5888335327618, 0.01600000075995922, -0.17600000835955143, 1.0400000493973494, 0.0, 0.0, 0.0, 0.0, 0.0, 1.710387424210632E9, 0.0, 2024-03-13 20:37:04.210
76.0, -706.4259627303109, -285.34688681922853, -497.30384685797617, -489.15460485452786, 0.01600000075995922, -0.17600000835955143, 1.0400000493973494, 0.0, 0.0, 0.0, 0.0, 0.0, 1.710387424210632E9, 0.0, 2024-03-13 20:37:04.210
77.0, -605.3158974782564, -390.3258785754442, -396.6388297006488, -550.806855624076, 0.01600000075995922, -0.17600000835955143, 1.0400000493973494, 0.0, 0.0, 0.0, 0.0, 0.0, 1.710387424224257E9, 0.0, 2024-03-13 20:37:04.224
77.0, -466.4982909229584, -501.6944894059561, -305.6171445790678, -631.7700798148289, 0.01600000075995922, -0.17600000835955143, 1.0400000493973494, 0.0, 0.0, 0.0, 0.0, 0.0, 1.710387424224257E9, 0.0, 2024-03-13 20:37:04.224
78.0, -643.0720574809238, -606.9147047093138, -446.84885655576363, -806.309340796899, 0.01600000075995922, -0.17600000835955143, 1.0400000493973494, 0.0, 0.0, 0.0, 0.0, 0.0, 1.7103874242399366E9, 0.0, 2024-03-13 20:37:04.239
78.0, -498.11914504831657, -738.1889330539852, -276.37112692557275, -928.5404910487123, 0.01600000075995922, -0.17600000835955143, 1.0400000493973494, 0.0, 0.0, 0.0, 0.0, 0.0, 1.7103874242399366E9, 0.0, 2024-03-13 20:37:04.239
79.0, -614.6132887681015, -761.6942042754963, -441.82056106533855, -883.6130728810094, 0.01600000075995922, -0.17600000835955143, 1.0400000493973494, 0.0, 0.0, 0.0, 0.0, 0.0, 1.710387424240823E9, 0.0, 2024-03-13 20:37:04.240
79.0, -662.0782290557399, -609.3194603808224, -501.4700954086147, -779.269864117261, 0.01600000075995922, -0.17600000835955143, 1.0400000493973494, 0.0, 0.0, 0.0, 0.0, 0.0, 1.710387424240823E9, 0.0, 2024-03-13 20:37:04.240
80.0, -831.8285481445491, -512.3120653801598, -618.1213149265386, -714.7659396314994, 0.01600000075995922, -0.17600000835955143, 1.0400000493973494, 0.0, 0.0, 0.0, 0.0, 0.0, 1.7103874242544665E9, 0.0, 2024-03-13 20:37:04.254
80.0, -684.8448700360022, -416.57997626438737, -479.65712891705334, -559.1543123251759, 0.01600000075995922, -0.17600000835955143, 1.0400000493973494, 0.0, 0.0, 0.0, 0.0, 0.0, 1.7103874242544665E9, 0.0, 2024-03-13 20:37:04.254
81.0, -804.4188213692978, -271.55039588268846, -641.5106492494233, -422.5843856432475, 0.01600000075995922, -0.17600000835955143, 1.0400000493973494, 0.0, 0.0, 0.0, 0.0, 0.0, 1.7103874242699564E9, 0.0, 2024-03-13 20:37:04.269
81.0, -691.3018073095009, -280.7542896736413, -491.8136737230234, -486.7386294831522, 0.01600000075995922, -0.17600000835955143, 1.0400000493973494, 0.0, 0.0, 0.0, 0.0, 0.0, 1.7103874242699564E9, 0.0, 2024-03-13 20:37:04.269
82.0, -623.9854780570604, -410.6821540342644, -410.05759074166417, -571.6605377770029, 0.01600000075995922, -0.17600000835955143, 1.0400000493973494, 0.0, 0.0, 0.0, 0.0, 0.0, 1.7103874242706563E9, 0.0, 2024-03-13 20:37:04.270
82.0, -487.12009927863255, -522.9408610542305, -310.82682521734387, -650.7351124901325, 0.01600000075995922, -0.17600000835955143, 1.0400000493973494, 0.0, 0.0, 0.0, 0.0, 0.0, 1.7103874242706563E9, 0.0, 2024-03-13 20:37:04.270
83.0, -665.2122652186081, -649.9721728991717, -473.33108814200386, -839.8038848000579, 0.01600000075995922, -0.17600000835955143, 1.0400000493973494, 0.0, 0.0, 0.0, 0.0, 0.0, 1.7103874242845244E9, 0.0, 2024-03-13 20:37:04.284
83.0, -516.43343513133, -772.8241465436295, -304.9215231873095, -957.0534883108921, 0.01600000075995922, -0.17600000835955143, 1.0400000493973494, 0.0, 0.0, 0.0, 0.0, 0.0, 1.7103874242845244E9, 0.0, 2024-03-13 20:37:04.284
84.0, -616.8460090416484, -759.4390446022153, -448.53368148580194, -896.5045080282725, 0.01600000075995922, -0.17600000835955143, 1.0400000493973494, 0.0, 0.0, 0.0, 0.0, 0.0, 1.710387424299922E9, 0.0, 2024-03-13 20:37:04.299
84.0, -704.193242456764, -622.8466785205528, -519.4814535952173, -803.1566051342525, 0.01600000075995922, -0.17600000835955143, 1.0400000493973494, 0.0, 0.0, 0.0, 0.0, 0.0, 1.710387424299922E9, 0.0, 2024-03-13 20:37:04.299
85.0, -835.5160895008594, -519.0588449002244, -616.8946277410723, -721.9054086469114, 0.01600000075995922, -0.17600000835955143, 1.0400000493973494, 0.0, 0.0, 0.0, 0.0, 0.0, 1.7103874243006685E9, 0.0, 2024-03-13 20:37:04.300
85.0, -670.7155280034058, -427.41446643602103, -481.2765055978671, -570.4675096911378, 0.01600000075995922, -0.17600000835955143, 1.0400000493973494, 0.0, 0.0, 0.0, 0.0, 0.0, 1.7103874243006685E9, 0.0, 2024-03-13 20:37:04.300
86.0, -835.0037232069299, -301.4396763285622, -661.0254472182132, -455.13647485757247, 0.01600000075995922, -0.17600000835955143, 1.0400000493973494, 0.0, 0.0, 0.0, 0.0, 0.0, 1.710387424314253E9, 0.0, 2024-03-13 20:37:04.314
86.0, -719.4669938758016, -307.1542434608564, -514.541045753751, -512.1549895820208, 0.01600000075995922, -0.17600000835955143, 1.0400000493973494, 0.0, 0.0, 0.0, 0.0, 0.0, 1.710387424314253E9, 0.0, 2024-03-13 20:37:04.314
87.0, -648.1078327712603, -430.5073636993766, -434.12010705657303, -596.1269632871263, 0.01600000075995922, -0.17600000835955143, 1.0400000493973494, 0.0, 0.0, 0.0, 0.0, 0.0, 1.7103874243299544E9, 0.0, 2024-03-13 20:37:04.329
87.0, -498.8446856397204, -544.318129200954, -336.0898494180292, -680.4635772379115, 0.01600000075995922, -0.17600000835955143, 1.0400000493973494, 0.0, 0.0, 0.0, 0.0, 0.0, 1.7103874243299544E9, 0.0, 2024-03-13 20:37:04.329
88.0, -674.4423383092508, -654.575989744626, -483.11840632604435, -849.9203141801991, 0.01600000075995922, -0.17600000835955143, 1.0400000493973494, 0.0, 0.0, 0.0, 0.0, 0.0, 1.7103874243306177E9, 0.0, 2024-03-13 20:37:04.330
88.0, -498.01816774951294, -745.4256394682452, -285.23094992060214, -945.1419069520198, 0.01600000075995922, -0.17600000835955143, 1.0400000493973494, 0.0, 0.0, 0.0, 0.0, 0.0, 1.7103874243306177E9, 0.0, 2024-03-13 20:37:04.330
89.0, -650.3255934449844, -793.2253008019179, -461.75796772912145, -918.2969050700776, 0.01600000075995922, -0.17600000835955143, 1.0400000493973494, 0.0, 0.0, 0.0, 0.0, 0.0, 1.7103874243443203E9, 0.0, 2024-03-13 20:37:04.344
89.0, -710.6258703805506, -653.8915880527347, -530.4917190647684, -821.3586982185952, 0.01600000075995922, -0.17600000835955143, 1.0400000493973494, 0.0, 0.0, 0.0, 0.0, 0.0, 1.7103874243443203E9, 0.0, 2024-03-13 20:37:04.344
90.0, -847.7156431563199, -525.2670788266696, -635.3173749228008, -733.5514571089298, 0.01600000075995922, -0.17600000835955143, 1.0400000493973494, 0.0, 0.0, 0.0, 0.0, 0.0, 1.7103874243599477E9, 0.0, 2024-03-13 20:37:04.359
90.0, -678.3524037129246, -422.5264171939343, -478.31824473291636, -563.952603968326, 0.01600000075995922, -0.17600000835955143, 1.0400000493973494, 0.0, 0.0, 0.0, 0.0, 0.0, 1.7103874243599477E9, 0.0, 2024-03-13 20:37:04.359
91.0, -800.3610299173743, -277.60155401099473, -650.7856011395343, -433.83774460991845, 0.01600000075995922, -0.17600000835955143, 1.0400000493973494, 0.0, 0.0, 0.0, 0.0, 0.0, 1.7103874243606553E9, 0.0, 2024-03-13 20:37:04.360
91.0, -696.04026055336, -306.27536697126925, -520.0910572879948, -511.8520576856099, 0.01600000075995922, -0.17600000835955143, 1.0400000493973494, 0.0, 0.0, 0.0, 0.0, 0.0, 1.7103874243606553E9, 0.0, 2024-03-13 20:37:04.360
92.0, -662.9514956953935, -427.14145373925567, -436.55852182768285, -596.298998685088, 0.01600000075995922, -0.17600000835955143, 1.0400000493973494, 0.0, 0.0, 0.0, 0.0, 0.0, 1.7103874243742604E9, 0.0, 2024-03-13 20:37:04.374
92.0, -501.67952980613336, -532.3205301431008, -325.20674054697156, -661.3751278640702, 0.01600000075995922, -0.17600000835955143, 1.0400000493973494, 0.0, 0.0, 0.0, 0.0, 0.0, 1.7103874243742604E9, 0.0, 2024-03-13 20:37:04.374
93.0, -637.1704953508452, -632.2450471092016, -456.63243483984843, -823.4418224939145, 0.01600000075995922, -0.17600000835955143, 1.0400000493973494, 0.0, 0.0, 0.0, 0.0, 0.0, 1.7103874243901434E9, 0.0, 2024-03-13 20:37:04.390
93.0, -492.6701108128764, -745.1601065713912, -273.0164366653189, -928.9817992434837, 0.01600000075995922, -0.17600000835955143, 1.0400000493973494, 0.0, 0.0, 0.0, 0.0, 0.0, 1.7103874243901434E9, 0.0, 2024-03-13 20:37:04.390
94.0, -627.2391910185106, -766.1334655229002, -433.9443317586556, -888.4225842240267, 0.01600000075995922, -0.17600000835955143, 1.0400000493973494, 0.0, 0.0, 0.0, 0.0, 0.0, 1.7103874243906367E9, 0.0, 2024-03-13 20:37:04.390
94.0, -711.0933578750119, -637.944654641673, -519.3617767966352, -802.0234154476784, 0.01600000075995922, -0.17600000835955143, 1.0400000493973494, 0.0, 0.0, 0.0, 0.0, 0.0, 1.7103874243906367E9, 0.0, 2024-03-13 20:37:04.390
95.0, -836.0770744942129, -516.8036852269433, -622.8036696710624, -717.7055009966716, 0.01600000075995922, -0.17600000835955143, 1.0400000493973494, 0.0, 0.0, 0.0, 0.0, 0.0, 1.710387424404287E9, 0.0, 2024-03-13 20:37:04.404
95.0, -683.2815918545239, -427.6164210336283, -478.6398761291057, -568.3582061161287, 0.01600000075995922, -0.17600000835955143, 1.0400000493973494, 0.0, 0.0, 0.0, 0.0, 0.0, 1.710387424404287E9, 0.0, 2024-03-13 20:37:04.404
96.0, -819.1091483952478, -287.1420387979597, -656.4178904728033, -438.7407534518279, 0.01600000075995922, -0.17600000835955143, 1.0400000493973494, 0.0, 0.0, 0.0, 0.0, 0.0, 1.7103874244202068E9, 0.0, 2024-03-13 20:37:04.420
96.0, -700.7300950977951, -286.77926850225776, -506.39180375030264, -497.7002762532793, 0.01600000075995922, -0.17600000835955143, 1.0400000493973494, 0.0, 0.0, 0.0, 0.0, 0.0, 1.7103874244202068E9, 0.0, 2024-03-13 20:37:04.420
97.0, -615.1219151620753, -401.2202071463689, -409.5601840475574, -572.1579444711097, 0.01600000075995922, -0.17600000835955143, 1.0400000493973494, 0.0, 0.0, 0.0, 0.0, 0.0, 1.710387424420648E9, 0.0, 2024-03-13 20:37:04.420
97.0, -485.6241392963566, -516.6653089285828, -315.3670637635514, -654.1272017499432, 0.01600000075995922, -0.17600000835955143, 1.0400000493973494, 0.0, 0.0, 0.0, 0.0, 0.0, 1.710387424420648E9, 0.0, 2024-03-13 20:37:04.420
98.0, -646.7521190373227, -631.8673172136769, -461.99545137630776, -827.1331037501805, 0.01600000075995922, -0.17600000835955143, 1.0400000493973494, 0.0, 0.0, 0.0, 0.0, 0.0, 1.7103874244347742E9, 0.0, 2024-03-13 20:37:04.434
98.0, -490.4785294388421, -745.8332885634154, -271.77852977998555, -929.352049339097, 0.01600000075995922, -0.17600000835955143, 1.0400000493973494, 0.0, 0.0, 0.0, 0.0, 0.0, 1.7103874244347742E9, 0.0, 2024-03-13 20:37:04.434
99.0, -611.2286793082021, -764.2747352449223, -442.08609396219254, -891.2686480903067, 0.01600000075995922, -0.17600000835955143, 1.0400000493973494, 0.0, 0.0, 0.0, 0.0, 0.0, 1.7103874244499574E9, 0.0, 2024-03-13 20:37:04.449
99.0, -684.4316110908985, -624.8138658972457, -515.5433389418758, -795.8114416212775, 0.01600000075995922, -0.17600000835955143, 1.0400000493973494, 0.0, 0.0, 0.0, 0.0, 0.0, 1.7103874244499574E9, 0.0, 2024-03-13 20:37:04.449
100.0, -856.4146504532546, -519.9265016899444, -620.2044392018579, -720.9853932578117, 0.01600000075995922, -0.17600000835955143, 1.0400000493973494, 0.0, 0.0, 0.0, 0.0, 0.0, 1.7103874244506786E9, 0.0, 2024-03-13 20:37:04.450
100.0, -672.5779981813394, -415.31962997931987, -474.294112380594, -559.4983831210993, 0.01600000075995922, -0.17600000835955143, 1.0400000493973494, 0.0, 0.0, 0.0, 0.0, 0.0, 1.7103874244506786E9, 0.0, 2024-03-13 20:37:04.450
0.0, -305.8452784763649, 213.6904036682099, -153.41256613237783, 65.46694872435182, 0.01600000075995922, -0.17600000835955143, 1.0400000493973494, 0.0, 0.0, 0.0, 0.0, 0.0, 1.7103874244652126E9, 0.0, 2024-03-13 20:37:04.465
1.0, -182.2341051409021, 219.79392039589584, 7.4255713620223105, 13.70673333760351, 0.01600000075995922, -0.17600000835955143, 1.0400000493973494, 0.0, 0.0, 0.0, 0.0, 0.0, 1.7103874244657383E9, 0.0, 2024-03-13 20:37:04.465
1.0, -142.66783355968073, 69.37140427809209, 71.72006145026535, -96.27250465936959, 0.01600000075995922, -0.17600000835955143, 1.0400000493973494, 0.0, 0.0, 0.0, 0.0, 0.0, 1.7103874244657383E9, 0.0, 2024-03-13 20:37:04.465
2.0, 30.310019190888852, -15.043747571762651, 178.3820081865415, -155.66772580565885, 0.01600000075995922, -0.17600000835955143, 1.0400000493973494, 0.0, 0.0, 0.0, 0.0, 0.0, 1.7103874244792848E9, 0.0, 2024-03-13 20:37:04.479
2.0, -152.05685239844024, -137.72555576823652, 30.04822619399056, -336.98742540739477, 0.01600000075995922, -0.17600000835955143, 1.0400000493973494, 0.0, 0.0, 0.0, 0.0, 0.0, 1.7103874244792848E9, 0.0, 2024-03-13 20:37:04.479
3.0, -3.2368834116496146, -245.27011889405549, 220.04823359288275, -441.405432170257, 0.01600000075995922, -0.17600000835955143, 1.0400000493973494, 0.0, 0.0, 0.0, 0.0, 0.0, 1.7103874244949343E9, 0.0, 2024-03-13 20:37:04.494
3.0, -135.89113483997062, -275.3089953381568, 46.9843631433323, -407.31998397409916, 0.01600000075995922, -0.17600000835955143, 1.0400000493973494, 0.0, 0.0, 0.0, 0.0, 0.0, 1.7103874244949343E9, 0.0, 2024-03-13 20:37:04.494
4.0, -196.85711396764964, -127.65026528760791, -17.396144643891603, -305.4451091811061, 0.01600000075995922, -0.17600000835955143, 1.0400000493973494, 0.0, 0.0, 0.0, 0.0, 0.0, 1.710387424495618E9, 0.0, 2024-03-13 20:37:04.495
4.0, -341.7183988513425, -15.384078467730433, -123.078237591777, -222.43241981463507, 0.01600000075995922, -0.17600000835955143, 1.0400000493973494, 0.0, 0.0, 0.0, 0.0, 0.0, 1.710387424495618E9, 0.0, 2024-03-13 20:37:04.495
5.0, -165.63455918757245, 90.29614453017712, 29.059022655710578, -57.5832396177575, 0.01600000075995922, -0.17600000835955143, 1.0400000493973494, 0.0, 0.0, 0.0, 0.0, 0.0, 1.7103874245092287E9, 0.0, 2024-03-13 20:37:04.509
5.0, -325.14316224772483, 221.96306237019598, -156.0978143005632, 70.81500566098839, 0.01600000075995922, -0.17600000835955143, 1.0400000493973494, 0.0, 0.0, 0.0, 0.0, 0.0, 1.7103874245092287E9, 0.0, 2024-03-13 20:37:04.509
6.0, -190.83961493894458, 218.89260450657457, 2.0251558260060847, 11.27579836640507, 0.01600000075995922, -0.17600000835955143, 1.0400000493973494, 0.0, 0.0, 0.0, 0.0, 0.0, 1.7103874245248992E9, 0.0, 2024-03-13 20:37:04.524
6.0, -131.82212368818, 87.67821456119418, 78.48928037006408, -79.1138436626643, 0.01600000075995922, -0.17600000835955143, 1.0400000493973494, 0.0, 0.0, 0.0, 0.0, 0.0, 1.7103874245248992E9, 0.0, 2024-03-13 20:37:04.524
7.0, -13.622585588600487, -35.59823772823438, 178.28851068764925, -156.49424369586632, 0.01600000075995922, -0.17600000835955143, 1.0400000493973494, 0.0, 0.0, 0.0, 0.0, 0.0, 1.7103874245256193E9, 0.0, 2024-03-13 20:37:04.525
7.0, -145.2876334786415, -121.66268545854837, 42.285178849007934, -314.7350206710398, 0.01600000075995922, -0.17600000835955143, 1.0400000493973494, 0.0, 0.0, 0.0, 0.0, 0.0, 1.7103874245256193E9, 0.0, 2024-03-13 20:37:04.525
8.0, 7.335813763085753, -235.8493109056726, 225.94979572296143, -423.36415478400886, 0.01600000075995922, -0.17600000835955143, 1.0400000493973494, 0.0, 0.0, 0.0, 0.0, 0.0, 1.71038742453951E9, 0.0, 2024-03-13 20:37:04.539
8.0, -127.24448614241555, -269.3962135082111, 53.59650626499206, -398.8154514748603, 0.01600000075995922, -0.17600000835955143, 1.0400000493973494, 0.0, 0.0, 0.0, 0.0, 0.0, 1.71038742453951E9, 0.0, 2024-03-13 20:37:04.539
9.0, -183.55428982526064, -135.84812599048018, -23.07331277662888, -306.8400918645784, 0.01600000075995922, -0.17600000835955143, 1.0400000493973494, 0.0, 0.0, 0.0, 0.0, 0.0, 1.710387424554907E9, 0.0, 2024-03-13 20:37:04.554
9.0, -346.3409151965752, -9.617152736056596, -117.10187746258453, -214.74318550573662, 0.01600000075995922, -0.17600000835955143, 1.0400000493973494, 0.0, 0.0, 0.0, 0.0, 0.0, 1.710387424554907E9, 0.0, 2024-03-13 20:37:04.554
10.0, -179.10941872792318, 79.10262396279722, 29.3843939518556, -57.347625920549035, 0.01600000075995922, -0.17600000835955143, 1.0400000493973494, 0.0, 0.0, 0.0, 0.0, 0.0, 1.7103874245556383E9, 0.0, 2024-03-13 20:37:04.555
10.0, -314.42086907476187, 215.51547484658659, -151.1985453586094, 70.27646006736904, 0.01600000075995922, -0.17600000835955143, 1.0400000493973494, 0.0, 0.0, 0.0, 0.0, 0.0, 1.7103874245556383E9, 0.0, 2024-03-13 20:37:04.555
11.0, -184.39576731529087, 231.19687536079437, 4.62064639525488, 19.70553286653012, 0.01600000075995922, -0.1600000075995922, 1.0400000493973494, 0.0, 0.0, 0.0, 0.0, 0.0, 1.7103874245696032E9, 0.0, 2024-03-13 20:37:04.569
11.0, -103.178229927551, 106.69934573583305, 98.85677552875131, -57.08209302369505, 0.01600000075995922, -0.1600000075995922, 1.0400000493973494, 0.0, 0.0, 0.0, 0.0, 0.0, 1.7103874245696032E9, 0.0, 2024-03-13 20:37:04.569
12.0, 0.15520584816113114, -43.3734897361137, 159.47307401057333, -174.34478618437424, 0.01600000075995922, -0.1600000075995922, 1.0400000493973494, 0.0, 0.0, 0.0, 0.0, 0.0, 1.710387424585218E9, 0.0, 2024-03-13 20:37:04.585
12.0, -141.57765272259712, -131.75667543895543, 32.254767167847604, -332.0096185663715, 0.01600000075995922, -0.1600000075995922, 1.0400000493973494, 0.0, 0.0, 0.0, 0.0, 0.0, 1.710387424585218E9, 0.0, 2024-03-13 20:37:04.585
13.0, 23.15559057565406, -233.54927243292332, 229.13993038516492, -423.0799223873764, 0.01600000075995922, -0.1600000075995922, 1.0400000493973494, 0.0, 0.0, 0.0, 0.0, 0.0, 1.7103874245857751E9, 0.0, 2024-03-13 20:37:04.585
13.0, -105.48948810016736, -255.4164674738422, 63.028533953242004, -387.90616330411285, 0.01600000075995922, -0.1600000075995922, 1.0400000493973494, 0.0, 0.0, 0.0, 0.0, 0.0, 1.7103874245857751E9, 0.0, 2024-03-13 20:37:04.585
14.0, -187.5335433781147, -130.15599825792015, -24.00454786559567, -305.23941468354315, 0.01600000075995922, -0.1600000075995922, 1.0400000493973494, 0.0, 0.0, 0.0, 0.0, 0.0, 1.7103874245992348E9, 0.0, 2024-03-13 20:37:04.599
14.0, -317.4875870384276, -1.8643401279114187, -121.64959580870345, -208.99495927384123, 0.01600000075995922, -0.1600000075995922, 1.0400000493973494, 0.0, 0.0, 0.0, 0.0, 0.0, 1.7103874245992348E9, 0.0, 2024-03-13 20:37:04.599
15.0, -192.3000458716415, 66.41688331309706, 19.65691416710615, -63.94106954243034, 0.01600000075995922, -0.1600000075995922, 1.0400000493973494, 0.0, 0.0, 0.0, 0.0, 0.0, 1.710387424614964E9, 0.0, 2024-03-13 20:37:04.614
15.0, -331.8151437686756, 215.75482844375074, -151.58001515408978, 72.43812224175781, 0.01600000075995922, -0.1600000075995922, 1.0400000493973494, 0.0, 0.0, 0.0, 0.0, 0.0, 1.710387424614964E9, 0.0, 2024-03-13 20:37:04.614
16.0, -209.45683691836894, 218.31665991339833, 2.331827622372657, 13.332743342034519, 0.01600000075995922, -0.1600000075995922, 1.0400000493973494, 0.0, 0.0, 0.0, 0.0, 0.0, 1.7103874246156654E9, 0.0, 2024-03-13 20:37:04.615
16.0, -115.30672548385337, 94.27913798298687, 86.13737577944994, -66.83201220817864, 0.01600000075995922, -0.1600000075995922, 1.0400000493973494, 0.0, 0.0, 0.0, 0.0, 0.0, 1.7103874246156654E9, 0.0, 2024-03-13 20:37:04.615
17.0, 36.41353591857478, -6.292381675448269, 194.07088850066066, -139.78063079388812, 0.01600000075995922, -0.1600000075995922, 1.0400000493973494, 0.0, 0.0, 0.0, 0.0, 0.0, 1.7103874246293724E9, 0.0, 2024-03-13 20:37:04.629
17.0, -148.60492473933846, -122.38074625004083, 45.69222770864144, -315.4830006621778, 0.01600000075995922, -0.1600000075995922, 1.0400000493973494, 0.0, 0.0, 0.0, 0.0, 0.0, 1.7103874246293724E9, 0.0, 2024-03-13 20:37:04.629
18.0, 16.958576349075884, -226.6603767145425, 236.94136169273406, -418.2778908442706, 0.01600000075995922, -0.1600000075995922, 1.0400000493973494, 0.0, 0.0, 0.0, 0.0, 0.0, 1.7103874246450624E9, 0.0, 2024-03-13 20:37:04.645
18.0, -120.50144652230665, -269.3887337082997, 51.04589449521154, -397.36063039209694, 0.01600000075995922, -0.1600000075995922, 1.0400000493973494, 0.0, 0.0, 0.0, 0.0, 0.0, 1.7103874246450624E9, 0.0, 2024-03-13 20:37:04.645
19.0, -200.10708702914417, -141.9927816176787, -37.18769520940259, -316.57505144923925, 0.01600000075995922, -0.1600000075995922, 1.0400000493973494, 0.0, 0.0, 0.0, 0.0, 0.0, 1.7103874246456983E9, 0.0, 2024-03-13 20:37:04.645
19.0, -335.03519763052464, -5.2115505882538855, -113.9267024002038, -209.84391656378284, 0.01600000075995922, -0.1600000075995922, 1.0400000493973494, 0.0, 0.0, 0.0, 0.0, 0.0, 1.7103874246456983E9, 0.0, 2024-03-13 20:37:04.645
20.0, -145.1660867300816, 108.50571741443127, 45.282708663493395, -39.10065403673798, 0.01600000075995922, -0.1600000075995922, 1.0400000493973494, 0.0, 0.0, 0.0, 0.0, 0.0, 1.7103874246593807E9, 0.0, 2024-03-13 20:37:04.659
20.0, -302.8084797123447, 226.9221697114408, -147.39880700362846, 73.04398603457958, 0.01600000075995922, -0.1600000075995922, 1.0400000493973494, 0.0, 0.0, 0.0, 0.0, 0.0, 1.7103874246593807E9, 0.0, 2024-03-13 20:37:04.659
21.0, -199.10105394106358, 230.43019586987793, 12.556714101228863, 30.057575943879783, 0.01600000075995922, -0.1600000075995922, 1.0400000493973494, 0.0, 0.0, 0.0, 0.0, 0.0, 1.7103874246755984E9, 0.0, 2024-03-13 20:37:04.675
21.0, -112.99546731123701, 110.15127339493483, 108.83856851048768, -55.02140814810991, 0.01600000075995922, -0.1600000075995922, 1.0400000493973494, 0.0, 0.0, 0.0, 0.0, 0.0, 1.7103874246755984E9, 0.0, 2024-03-13 20:37:04.675
22.0, 2.0625548255629838, -29.805132696870714, 181.66564034763724, -157.8742667795159, 0.01600000075995922, -0.1600000075995922, 1.0400000493973494, 0.0, 0.0, 0.0, 0.0, 0.0, 1.7103874246767347E9, 0.0, 2024-03-13 20:37:04.676
22.0, -155.1497496617958, -131.18821064569056, 30.306279290933162, -327.2300264229998, 0.01600000075995922, -0.1600000075995922, 1.0400000493973494, 0.0, 0.0, 0.0, 0.0, 0.0, 1.7103874246767347E9, 0.0, 2024-03-13 20:37:04.676
23.0, -13.005502095911652, -242.20340093038976, 218.88886460661888, -429.77808320801705, 0.01600000075995922, -0.1600000075995922, 1.0400000493973494, 0.0, 0.0, 0.0, 0.0, 0.0, 1.7103874246892643E9, 0.0, 2024-03-13 20:37:04.689
23.0, -111.50324722891673, -257.0508037544787, 64.20660243928432, -388.037059802562, 0.01600000075995922, -0.1600000075995922, 1.0400000493973494, 0.0, 0.0, 0.0, 0.0, 0.0, 1.7103874246892643E9, 0.0, 2024-03-13 20:37:04.689
24.0, -179.54511707276106, -125.7242168104276, -17.03711424814537, -297.1874100789428, 0.01600000075995922, -0.1600000075995922, 1.0400000493973494, 0.0, 0.0, 0.0, 0.0, 0.0, 1.7103874247049365E9, 0.0, 2024-03-13 20:37:04.704
24.0, -356.0870944811031, -22.071019588503987, -119.42435533506796, -217.18160027684644, 0.01600000075995922, -0.1600000075995922, 1.0400000493973494, 0.0, 0.0, 0.0, 0.0, 0.0, 1.7103874247049365E9, 0.0, 2024-03-13 20:37:04.704
25.0, -181.83206589566544, 76.331358095631, 30.805555935017765, -60.04035388864577, 0.01600000075995922, -0.1600000075995922, 1.0400000493973494, 0.0, 0.0, 0.0, 0.0, 0.0, 1.7103874247056646E9, 0.0, 2024-03-13 20:37:04.705
25.0, -322.76084597595036, 209.6513117160648, -154.63551341788843, 69.5135204764083, 0.01600000075995922, -0.1600000075995922, 1.0400000493973494, 0.0, 0.0, 0.0, 0.0, 0.0, 1.7103874247056646E9, 0.0, 2024-03-13 20:37:04.705
26.0, -207.42233134247363, 219.76400119625032, -9.243162740487605, 10.785871472209692, 0.01600000075995922, -0.1600000075995922, 1.0400000493973494, 0.0, 0.0, 0.0, 0.0, 0.0, 1.7103874247192864E9, 0.0, 2024-03-13 20:37:04.719
26.0, -114.65224299160764, 103.63262777216733, 100.416313810274, -63.31650624983013, 0.01600000075995922, -0.1600000075995922, 1.0400000493973494, 0.0, 0.0, 0.0, 0.0, 0.0, 1.7103874247192864E9, 0.0, 2024-03-13 20:37:04.719
27.0, 26.985248130280524, -8.080053854268044, 186.88280078582466, -145.81682932237163, 0.01600000075995922, -0.1600000075995922, 1.0400000493973494, 0.0, 0.0, 0.0, 0.0, 0.0, 1.7103874247349553E9, 0.0, 2024-03-13 20:37:04.734
27.0, -152.6327969916165, -133.03946112375706, 35.94978832406923, -322.6000302778557, 0.01600000075995922, -0.1600000075995922, 1.0400000493973494, 0.0, 0.0, 0.0, 0.0, 0.0, 1.7103874247349553E9, 0.0, 2024-03-13 20:37:04.734
28.0, 10.226756428834051, -243.3029315173626, 218.77666760794818, -430.33532830141485, 0.01600000075995922, -0.1600000075995922, 1.0400000493973494, 0.0, 0.0, 0.0, 0.0, 0.0, 1.7103874247361543E9, 0.0, 2024-03-13 20:37:04.736
28.0, -101.12502485187724, -259.66125392355025, 64.44221613649279, -387.7416077060625, 0.01600000075995922, -0.1600000075995922, 1.0400000493973494, 0.0, 0.0, 0.0, 0.0, 0.0, 1.7103874247361543E9, 0.0, 2024-03-13 20:37:04.736
29.0, -224.43139634095132, -152.81979198940098, -37.019399711396545, -320.7039010003209, 0.01600000075995922, -0.1600000075995922, 1.0400000493973494, 0.0, 0.0, 0.0, 0.0, 0.0, 1.710387424749632E9, 0.0, 2024-03-13 20:37:04.749
29.0, -334.3358363388106, 0.06918814918026328, -100.175090263132, -197.68550180783495, 0.01600000075995922, -0.1600000075995922, 1.0400000493973494, 0.0, 0.0, 0.0, 0.0, 0.0, 1.710387424749632E9, 0.0, 2024-03-13 20:37:04.749
30.0, -173.12557879881933, 80.19467474985868, 20.371235058642924, -61.29696027375758, 0.01600000075995922, -0.1600000075995922, 1.0560000501573086, 0.0, 0.0, 0.0, 0.0, 0.0, 1.710387424764989E9, 0.0, 2024-03-13 20:37:04.764
30.0, -312.2891261000186, 217.6172986216843, -149.88958037411794, 70.54199296422303, 0.01600000075995922, -0.1600000075995922, 1.0560000501573086, 0.0, 0.0, 0.0, 0.0, 0.0, 1.710387424764989E9, 0.0, 2024-03-13 20:37:04.764
31.0, -198.5026699481532, 225.42620972916484, 2.092474025208503, 17.409234293736517, 0.01600000075995922, -0.17600000835955143, 1.0560000501573086, 0.0, 0.0, 0.0, 0.0, 0.0, 1.7103874247657657E9, 0.0, 2024-03-13 20:37:04.765
31.0, -123.1904345904477, 102.3835011869669, 93.228226095438, -64.35993833746761, 0.01600000075995922, -0.17600000835955143, 1.0560000501573086, 0.0, 0.0, 0.0, 0.0, 0.0, 1.7103874247657657E9, 0.0, 2024-03-13 20:37:04.765
32.0, 19.030480924528092, -15.155944570433348, 186.00018439628184, -147.10335490712896, 0.01600000075995922, -0.17600000835955143, 1.0560000501573086, 0.0, 0.0, 0.0, 0.0, 0.0, 1.710387424779219E9, 0.0, 2024-03-13 20:37:04.779
32.0, -146.8808308597654, -125.4287647139281, 33.859184248838574, -319.64550931286067, 0.01600000075995922, -0.17600000835955143, 1.0560000501573086, 0.0, 0.0, 0.0, 0.0, 0.0, 1.710387424779219E9, 0.0, 2024-03-13 20:37:04.779
33.0, -13.689903787802905, -232.6629161434248, 224.9961212342605, -425.316382560879, 0.01600000075995922, -0.17600000835955143, 1.0560000501573086, 0.0, 0.0, 0.0, 0.0, 0.0, 1.710387424794983E9, 0.0, 2024-03-13 20:37:04.794
33.0, -124.4096419760026, -255.87647516839206, 61.319399673491716, -388.0781987020746, 0.01600000075995922, -0.17600000835955143, 1.0560000501573086, 0.0, 0.0, 0.0, 0.0, 0.0, 1.710387424794983E9, 0.0, 2024-03-13 20:37:04.794
34.0, -190.97425133734941, -133.96695631276816, -24.879684455227107, -302.09415882080793, 0.01600000075995922, -0.17600000835955143, 1.0560000501573086, 0.0, 0.0, 0.0, 0.0, 0.0, 1.7103874247957206E9, 0.0, 2024-03-13 20:37:04.795
34.0, -337.36515530291945, -7.167518265079707, -114.39044999470934, -208.2656787824817, 0.01600000075995922, -0.17600000835955143, 1.0560000501573086, 0.0, 0.0, 0.0, 0.0, 0.0, 1.7103874247957206E9, 0.0, 2024-03-13 20:37:04.795
35.0, -166.47977657755837, 91.83324341196567, 37.85152745153755, -51.270288492552936, 0.01600000075995922, -0.17600000835955143, 1.0560000501573086, 0.0, 0.0, 0.0, 0.0, 0.0, 1.7103874248092403E9, 0.0, 2024-03-13 20:37:04.809
35.0, -301.6154516264796, 225.91613662336022, -152.69450534088537, 74.46140811778605, 0.01600000075995922, -0.17600000835955143, 1.0560000501573086, 0.0, 0.0, 0.0, 0.0, 0.0, 1.7103874248092403E9, 0.0, 2024-03-13 20:37:04.809
36.0, -214.30000736098737, 216.37565183639526, -1.6810850300826132, 10.950427070260048, 0.01600000075995922, -0.17600000835955143, 1.0560000501573086, 0.0, 0.0, 0.0, 0.0, 0.0, 1.7103874248249927E9, 0.0, 2024-03-13 20:37:04.824
36.0, -131.07414369704202, 93.16838769614697, 96.50437845662236, -67.77820689696819, 0.01600000075995922, -0.17600000835955143, 1.0560000501573086, 0.0, 0.0, 0.0, 0.0, 0.0, 1.7103874248249927E9, 0.0, 2024-03-13 20:37:04.824
37.0, 17.88233163813129, -28.31665251450613, 180.91392045654356, -160.59317404730245, 0.01600000075995922, -0.17600000835955143, 1.0560000501573086, 0.0, 0.0, 0.0, 0.0, 0.0, 1.710387424825713E9, 0.0, 2024-03-13 20:37:04.825
37.0, -173.12744874879718, -132.29148113261908, 30.900923383887857, -322.9328813739121, 0.01600000075995922, -0.17600000835955143, 1.0560000501573086, 0.0, 0.0, 0.0, 0.0, 0.0, 1.710387424825713E9, 0.0, 2024-03-13 20:37:04.825
38.0, 22.00370138930157, -229.9963674750179, 229.368064282462, -420.47321211826056, 0.01600000075995922, -0.17600000835955143, 1.0560000501573086, 0.0, 0.0, 0.0, 0.0, 0.0, 1.7103874248400643E9, 0.0, 2024-03-13 20:37:04.840
38.0, -127.3005846417509, -276.03827582951635, 48.68601762317121, -403.9391144141555, 0.01600000075995922, -0.17600000835955143, 1.0560000501573086, 0.0, 0.0, 0.0, 0.0, 0.0, 1.7103874248400643E9, 0.0, 2024-03-13 20:37:04.840
39.0, -199.67325863428414, -134.34842610824853, -24.187802963424474, -307.8087259531021, 0.01600000075995922, -0.17600000835955143, 1.0560000501573086, 0.0, 0.0, 0.0, 0.0, 0.0, 1.7103874248549924E9, 0.0, 2024-03-13 20:37:04.854
39.0, -345.0618694117293, -8.828033845406026, -120.50518642226234, -214.79554410511628, 0.01600000075995922, -0.17600000835955143, 1.0560000501573086, 0.0, 0.0, 0.0, 0.0, 0.0, 1.7103874248549924E9, 0.0, 2024-03-13 20:37:04.854
40.0, -149.309895880986, 106.20941884163767, 51.277768292464316, -40.390919521450996, 0.01600000075995922, -0.17600000835955143, 1.0560000501573086, 0.0, 0.0, 0.0, 0.0, 0.0, 1.71038742485568E9, 0.0, 2024-03-13 20:37:04.855
40.0, -329.68714069388807, 205.27188886795193, -160.6118735470809, 52.58673327695578, 0.01600000075995922, -0.17600000835955143, 1.0560000501573086, 0.0, 0.0, 0.0, 0.0, 0.0, 1.71038742485568E9, 0.0, 2024-03-13 20:37:04.855
41.0, -227.52429360430688, 206.97354334779084, -17.1754905465059, -0.9387148888781667, 0.01600000075995922, -0.17600000835955143, 1.0560000501573086, 0.0, 0.0, 0.0, 0.0, 0.0, 1.7103874248695304E9, 0.0, 2024-03-13 20:37:04.869
41.0, -130.1541283079423, 105.18094635382295, 96.17152736056596, -59.70002299267799, 0.01600000075995922, -0.17600000835955143, 1.0560000501573086, 0.0, 0.0, 0.0, 0.0, 0.0, 1.7103874248695304E9, 0.0, 2024-03-13 20:37:04.869
42.0, 26.132550940383226, -4.22795689990744, 189.54186965432018, -144.13761424226686, 0.01600000075995922, -0.17600000835955143, 1.0560000501573086, 0.0, 0.0, 0.0, 0.0, 0.0, 1.710387424885248E9, 0.0, 2024-03-13 20:37:04.885
42.0, -158.777452618815, -129.74086936283857, 32.69607536261901, -326.407248432748, 0.01600000075995922, -0.17600000835955143, 1.0560000501573086, 0.0, 0.0, 0.0, 0.0, 0.0, 1.710387424885248E9, 0.0, 2024-03-13 20:37:04.885
43.0, -7.735983058344573, -239.53311236202717, 230.8528045648709, -425.2752436613664, 0.01600000075995922, -0.17600000835955143, 1.0560000501573086, 0.0, 0.0, 0.0, 0.0, 0.0, 1.710387424885928E9, 0.0, 2024-03-13 20:37:04.885
43.0, -141.92359346849844, -282.5344820525497, 46.845986844971776, -410.4166211374104, 0.01600000075995922, -0.17600000835955143, 1.0560000501573086, 0.0, 0.0, 0.0, 0.0, 0.0, 1.710387424885928E9, 0.0, 2024-03-13 20:37:04.885
44.0, -200.70921092201024, -135.5788531936705, -24.928303154651076, -307.5880718557164, 0.01600000075995922, -0.17600000835955143, 1.0560000501573086, 0.0, 0.0, 0.0, 0.0, 0.0, 1.710387424899587E9, 0.0, 2024-03-13 20:37:04.899
44.0, -316.4927736502141, -5.899692180100828, -107.41927647730336, -207.76079228846356, 0.01600000075995922, -0.17600000835955143, 1.0560000501573086, 0.0, 0.0, 0.0, 0.0, 0.0, 1.710387424899587E9, 0.0, 2024-03-13 20:37:04.899
45.0, -152.2756365458481, 79.9628009526059, 34.74741048831493, -58.985702101141214, 0.01600000075995922, -0.17600000835955143, 1.0560000501573086, 0.0, 0.0, 0.0, 0.0, 0.0, 1.7103874249149508E9, 0.0, 2024-03-13 20:37:04.914
45.0, -323.1123965717852, 212.20192348584533, -146.52367041399702, 65.46320882439613, 0.01600000075995922, -0.17600000835955143, 1.0560000501573086, 0.0, 0.0, 0.0, 0.0, 0.0, 1.7103874249149508E9, 0.0, 2024-03-13 20:37:04.914
46.0, -216.41679073590785, 214.38976495992392, -0.3309811460785568, 9.27869179006666, 0.01600000075995922, -0.17600000835955143, 1.0560000501573086, 0.0, 0.0, 0.0, 0.0, 0.0, 1.7103874249157145E9, 0.0, 2024-03-13 20:37:04.915
46.0, -117.61798365646973, 94.50353198032826, 87.62959586177021, -70.97582135908306, 0.01600000075995922, -0.17600000835955143, 1.0560000501573086, 0.0, 0.0, 0.0, 0.0, 0.0, 1.7103874249157145E9, 0.0, 2024-03-13 20:37:04.915
47.0, 20.66481720516458, -32.553959164302796, 171.07050377316773, -167.60922636417672, 0.01600000075995922, -0.17600000835955143, 1.0560000501573086, 0.0, 0.0, 0.0, 0.0, 0.0, 1.710387424929385E9, 0.0, 2024-03-13 20:37:04.929
47.0, -149.76429372560233, -132.88986512552947, 27.98754131840542, -329.44030729681253, 0.01600000075995922, -0.17600000835955143, 1.0560000501573086, 0.0, 0.0, 0.0, 0.0, 0.0, 1.710387424929385E9, 0.0, 2024-03-13 20:37:04.929
48.0, -9.512435537297279, -241.51525933854282, 227.62153100315481, -429.88280040677637, 0.01600000075995922, -0.17600000835955143, 1.0560000501573086, 0.0, 0.0, 0.0, 0.0, 0.0, 1.7103874249450753E9, 0.0, 2024-03-13 20:37:04.945
48.0, -127.64839533763006, -267.91895302571356, 56.29671403300017, -397.8879562858492, 0.01600000075995922, -0.17600000835955143, 1.0560000501573086, 0.0, 0.0, 0.0, 0.0, 0.0, 1.7103874249450753E9, 0.0, 2024-03-13 20:37:04.945
49.0, -186.39661379158497, -128.67125797551125, -26.506540935952216, -306.7690337654203, 0.01600000075995922, -0.17600000835955143, 1.0560000501573086, 0.0, 0.0, 0.0, 0.0, 0.0, 1.71038742494573E9, 0.0, 2024-03-13 20:37:04.945
49.0, -319.12566321901977, 0.5591150433756411, -116.61195056838915, -208.77430517645553, 0.01600000075995922, -0.17600000835955143, 1.0560000501573086, 0.0, 0.0, 0.0, 0.0, 0.0, 1.71038742494573E9, 0.0, 2024-03-13 20:37:04.945
50.0, -182.3967907889746, 75.16076940950006, 20.610588655807078, -66.02419381774962, 0.01600000075995922, -0.17600000835955143, 1.0400000493973494, 0.0, 0.0, 0.0, 0.0, 0.0, 1.710387424959366E9, 0.0, 2024-03-13 20:37:04.959
50.0, -329.6684411941096, 203.41689848992974, -164.25079620396718, 52.35111957974732, 0.01600000075995922, -0.17600000835955143, 1.0400000493973494, 0.0, 0.0, 0.0, 0.0, 0.0, 1.710387424959366E9, 0.0, 2024-03-13 20:37:04.959
51.0, -198.92901854310185, 225.11579803284258, 6.045548278372735, 19.238045372068882, 0.01600000075995922, -0.17600000835955143, 1.0400000493973494, 0.0, 0.0, 0.0, 0.0, 0.0, 1.7103874249749365E9, 0.0, 2024-03-13 20:37:04.974
51.0, -100.84827225515619, 111.17600598279387, 100.86884170491248, -54.916690949350595, 0.01600000075995922, -0.17600000835955143, 1.0400000493973494, 0.0, 0.0, 0.0, 0.0, 0.0, 1.7103874249749365E9, 0.0, 2024-03-13 20:37:04.974
52.0, 6.935644467826933, -31.6638629748486, 173.64729484263808, -161.54684853600338, 0.01600000075995922, -0.17600000835955143, 1.0400000493973494, 0.0, 0.0, 0.0, 0.0, 0.0, 1.710387424975676E9, 0.0, 2024-03-13 20:37:04.975
52.0, -133.26011522114277, -117.94148500263691, 43.99057322880253, -313.8935431810096, 0.01600000075995922, -0.17600000835955143, 1.0400000493973494, 0.0, 0.0, 0.0, 0.0, 0.0, 1.710387424975676E9, 0.0, 2024-03-13 20:37:04.975
53.0, 2.0662947255186737, -232.94340864010155, 227.74494770169258, -422.6535737924278, 0.01600000075995922, -0.17600000835955143, 1.0400000493973494, 0.0, 0.0, 0.0, 0.0, 0.0, 1.7103874249893708E9, 0.0, 2024-03-13 20:37:04.989
53.0, -138.18369351280853, -276.3823466254398, 47.261115740053356, -403.53894511889666, 0.01600000075995922, -0.17600000835955143, 1.0400000493973494, 0.0, 0.0, 0.0, 0.0, 0.0, 1.7103874249893708E9, 0.0, 2024-03-13 20:37:04.989
54.0, -183.21769882924855, -120.62299327086657, -18.978122325148433, -297.2098494786769, 0.01600000075995922, -0.17600000835955143, 1.0400000493973494, 0.0, 0.0, 0.0, 0.0, 0.0, 1.710387425005244E9, 0.0, 2024-03-13 20:37:05.005
54.0, -326.2015539351851, 7.709803758654743, -112.24748732009903, -198.72519399551675, 0.01600000075995922, -0.17600000835955143, 1.0400000493973494, 0.0, 0.0, 0.0, 0.0, 0.0, 1.710387425005244E9, 0.0, 2024-03-13 20:37:05.005
55.0, -165.4326045899652, 87.55105796270072, 28.445679062977433, -53.89943816140294, 0.01600000075995922, -0.17600000835955143, 1.0400000493973494, 0.0, 0.0, 0.0, 0.0, 0.0, 1.7103874250058577E9, 0.0, 2024-03-13 20:37:05.005
55.0, -329.9451937908307, 207.37371264304966, -164.93145799590275, 56.69688332825899, 0.01600000075995922, -0.17600000835955143, 1.0400000493973494, 0.0, 0.0, 0.0, 0.0, 0.0, 1.7103874250058577E9, 0.0, 2024-03-13 20:37:05.005
56.0, -186.2694571930915, 231.24923396017402, 0.8807464395649731, 20.748964954167604, 0.01600000075995922, -0.17600000835955143, 1.0400000493973494, 0.0, 0.0, 0.0, 0.0, 0.0, 1.7103874250193293E9, 0.0, 2024-03-13 20:37:05.019
56.0, -104.07954581687227, 102.42464008647949, 96.65771435480565, -61.19598297495395, 0.01600000075995922, -0.17600000835955143, 1.0400000493973494, 0.0, 0.0, 0.0, 0.0, 0.0, 1.7103874250193293E9, 0.0, 2024-03-13 20:37:05.019
57.0, 6.090427077841014, -31.65638317493722, 167.27076541818678, -167.86727946111932, 0.01600000075995922, -0.17600000835955143, 1.0400000493973494, 0.0, 0.0, 0.0, 0.0, 0.0, 1.7103874250352197E9, 0.0, 2024-03-13 20:37:05.035
57.0, -152.41214289423078, -128.98166967183352, 33.97138124750927, -320.8983757980168, 0.01600000075995922, -0.17600000835955143, 1.0400000493973494, 0.0, 0.0, 0.0, 0.0, 0.0, 1.7103874250352197E9, 0.0, 2024-03-13 20:37:05.035
58.0, 18.824786426965147, -226.15175032056868, 243.64326241333038, -411.9088412197307, 0.01600000075995922, -0.17600000835955143, 1.0400000493973494, 0.0, 0.0, 0.0, 0.0, 0.0, 1.710387425035833E9, 0.0, 2024-03-13 20:37:05.035
58.0, -118.33978434791788, -260.8729815091938, 48.38308572676033, -399.1557823708281, 0.01600000075995922, -0.17600000835955143, 1.0400000493973494, 0.0, 0.0, 0.0, 0.0, 0.0, 1.710387425035833E9, 0.0, 2024-03-13 20:37:05.035
59.0, -174.1521813366562, -116.89057311508805, -15.945063461083919, -295.56055359821767, 0.01600000075995922, -0.17600000835955143, 1.0400000493973494, 0.0, 0.0, 0.0, 0.0, 0.0, 1.710387425049436E9, 0.0, 2024-03-13 20:37:05.049
59.0, -313.53825268521905, 3.057368213776499, -105.85599829582497, -202.27435905346647, 0.01600000075995922, -0.17600000835955143, 1.0400000493973494, 0.0, 0.0, 0.0, 0.0, 0.0, 1.710387425049436E9, 0.0, 2024-03-13 20:37:05.049
60.0, -190.8863636883907, 64.34497873764485, 21.422146946191788, -72.94300873577595, 0.01600000075995922, -0.17600000835955143, 1.0400000493973494, 0.0, 0.0, 0.0, 0.0, 0.0, 1.7103874250649357E9, 0.0, 2024-03-13 20:37:05.064
60.0, -328.3482565097511, 202.53054220043123, -161.37481313804165, 58.578053005971014, 0.01600000075995922, -0.17600000835955143, 1.0400000493973494, 0.0, 0.0, 0.0, 0.0, 0.0, 1.7103874250649357E9, 0.0, 2024-03-13 20:37:05.064
61.0, -192.88160031475127, 227.6290108030662, -2.257029623258859, 18.07867638580501, 0.01600000075995922, -0.17600000835955143, 1.0400000493973494, 0.0, 0.0, 0.0, 0.0, 0.0, 1.7103874250656445E9, 0.0, 2024-03-13 20:37:05.065
61.0, -109.56597905186936, 102.36854158714414, 92.18105410784483, -71.81729884911329, 0.01600000075995922, -0.17600000835955143, 1.0400000493973494, 0.0, 0.0, 0.0, 0.0, 0.0, 1.7103874250656445E9, 0.0, 2024-03-13 20:37:05.065
62.0, 6.183924576733261, -29.99212769465521, 168.61338950227946, -170.066340635065, 0.01600000075995922, -0.17600000835955143, 1.0400000493973494, 0.0, 0.0, 0.0, 0.0, 0.0, 1.710387425079332E9, 0.0, 2024-03-13 20:37:05.079
62.0, -133.66776431631297, -107.17057313024998, 57.77210456551984, -305.1459171846509, 0.01600000075995922, -0.17600000835955143, 1.0400000493973494, 0.0, 0.0, 0.0, 0.0, 0.0, 1.710387425079332E9, 0.0, 2024-03-13 20:37:05.079
63.0, 38.69861479150131, -204.23967648018152, 253.68489379435778, -403.1836546231061, 0.01600000075995922, -0.17600000835955143, 1.0400000493973494, 0.0, 0.0, 0.0, 0.0, 0.0, 1.710387425095009E9, 0.0, 2024-03-13 20:37:05.095
63.0, -116.93358196457848, -247.17746787145734, 83.20903411414474, -379.4689490040764, 0.01600000075995922, -0.17600000835955143, 1.0400000493973494, 0.0, 0.0, 0.0, 0.0, 0.0, 1.710387425095009E9, 0.0, 2024-03-13 20:37:05.095
64.0, -211.49508239421993, -131.24056924507022, -22.456229283940047, -303.12637120857835, 0.01600000075995922, -0.17600000835955143, 1.0400000493973494, 0.0, 0.0, 0.0, 0.0, 0.0, 1.7103874250956504E9, 0.0, 2024-03-13 20:37:05.095
64.0, -347.33198868483305, -5.04699499020353, -103.79905332019553, -197.5957442088984, 0.01600000075995922, -0.17600000835955143, 1.0400000493973494, 0.0, 0.0, 0.0, 0.0, 0.0, 1.7103874250956504E9, 0.0, 2024-03-13 20:37:05.095
65.0, -161.30375503888354, 95.1954134721309, 45.95215075556189, -44.37765287421644, 0.01600000075995922, -0.17600000835955143, 1.0400000493973494, 0.0, 0.0, 0.0, 0.0, 0.0, 1.7103874251093569E9, 0.0, 2024-03-13 20:37:05.109
65.0, -311.60846430808306, 215.41449754778296, -145.7195919235237, 69.17318958044052, 0.01600000075995922, -0.17600000835955143, 1.0400000493973494, 0.0, 0.0, 0.0, 0.0, 0.0, 1.7103874251093569E9, 0.0, 2024-03-13 20:37:05.109
66.0, -202.84843369666487, 231.7017618548125, 11.378645615186542, 26.025963791646063, 0.01600000075995922, -0.17600000835955143, 1.0400000493973494, 0.0, 0.0, 0.0, 0.0, 0.0, 1.7103874251249602E9, 0.0, 2024-03-13 20:37:05.124
66.0, -88.89929189672694, 125.60827991180122, 122.02545575425029, -41.40443240944296, 0.01600000075995922, -0.17600000835955143, 1.0400000493973494, 0.0, 0.0, 0.0, 0.0, 0.0, 1.7103874251249602E9, 0.0, 2024-03-13 20:37:05.124
