%OpenBCI Raw EXG Data
%Number of channels = 4
%Sample Rate = 200 Hz
%Board = OpenBCI_GUI$BoardGanglionBLE
Sample Index, EXG Channel 0, EXG Channel 1, EXG Channel 2, EXG Channel 3, Accel Channel 0, Accel Channel 1, Accel Channel 2, Other, Other, Other, Other, Other, Timestamp, Other, Timestamp (Formatted)
2.0, -118.41084244707599, -58.18349356064573, -110.14192364504561, -126.63114254968241, 0.01600000075995922, 0.0, 0.0, 0.0, 0.0, 0.0, 0.0, 0.0, 1.7103875756691823E9, 0.0, 2024-03-13 20:39:35.669
2.0, -162.5379220242612, -264.1173447207548, -129.39492861693725, -254.85361253051087, 0.01600000075995922, 0.0, 0.0, 0.0, 0.0, 0.0, 0.0, 0.0, 1.7103875756691823E9, 0.0, 2024-03-13 20:39:35.669
3.0, -196.00441677775234, -91.99592906003818, -197.4255787609145, -131.6014695907943, 0.01600000075995922, 0.0, 0.0, 0.0, 0.0, 0.0, 0.0, 0.0, 1.710387575683517E9, 0.0, 2024-03-13 20:39:35.683
3.0, -309.0653323382139, 33.991950697265565, -259.44433972612023, -27.36484797578305, 0.01600000075995922, 0.0, 0.0, 0.0, 0.0, 0.0, 0.0, 0.0, 1.710387575683517E9, 0.0, 2024-03-13 20:39:35.683
4.0, -195.4490416343324, 81.59152738330886, -150.21869157021865, 80.75378979323432, 0.01600000075995922, 0.0, 0.0, 0.0, 0.0, 0.0, 0.0, 0.0, 1.7103875756839335E9, 0.0, 2024-03-13 20:39:35.683
4.0, -332.3162903627381, 239.04131551785395, -340.2261787690222, 221.65452062385157, 0.01600000075995922, 0.0, 0.0, 0.0, 0.0, 0.0, 0.0, 0.0, 1.7103875756839335E9, 0.0, 2024-03-13 20:39:35.683
5.0, -174.17836063634604, 275.2921657883562, -147.16506325639784, 195.46400123415515, 0.01600000075995922, 0.0, 0.0, 0.0, 0.0, 0.0, 0.0, 0.0, 1.710387575697543E9, 0.0, 2024-03-13 20:39:35.697
5.0, -119.5178528339602, 119.74972663121298, -63.135121101979166, 87.45943041378632, 0.01600000075995922, 0.0, 0.0, 0.0, 0.0, 0.0, 0.0, 0.0, 1.710387575697543E9, 0.0, 2024-03-13 20:39:35.697
6.0, -28.83275870839134, -23.217298924922943, -28.37275101384148, -23.27713732421398, 0.01600000075995922, 0.0, 0.0, 0.0, 0.0, 0.0, 0.0, 0.0, 1.7103875757132287E9, 0.0, 2024-03-13 20:39:35.713
6.0, -133.68646381609142, -71.51249700272456, -118.29677549842745, -137.54043072042987, 0.01600000075995922, 0.0, 0.0, 0.0, 0.0, 0.0, 0.0, 0.0, 1.7103875757132287E9, 0.0, 2024-03-13 20:39:35.713
7.0, 9.254382440354675, -211.05564414942637, 79.83003450417891, -259.9997148695402, 0.01600000075995922, 0.0, 0.0, 0.0, 0.0, 0.0, 0.0, 0.0, 1.7103875757139275E9, 0.0, 2024-03-13 20:39:35.713
7.0, -136.28756423527375, -250.2909345845692, -116.98220066400245, -244.52400885289535, 0.01600000075995922, 0.0, 0.0, 0.0, 0.0, 0.0, 0.0, 0.0, 1.7103875757139275E9, 0.0, 2024-03-13 20:39:35.713
8.0, -188.868687662296, -81.48681018454954, -190.15895314700902, -128.87508252309635, 0.01600000075995922, 0.0, 0.0, 0.0, 0.0, 0.0, 0.0, 0.0, 1.7103875757275512E9, 0.0, 2024-03-13 20:39:35.727
8.0, -313.45597488619387, 45.3911657622084, -251.46713312063366, -29.275936853140593, 0.01600000075995922, 0.0, 0.0, 0.0, 0.0, 0.0, 0.0, 0.0, 1.7103875757275512E9, 0.0, 2024-03-13 20:39:35.727
9.0, -181.34213900147006, 103.26050772657618, -135.2703114473261, 91.78275476256385, 0.01600000075995922, 0.0, 0.0, 0.0, 0.0, 0.0, 0.0, 0.0, 1.7103875757432084E9, 0.0, 2024-03-13 20:39:35.743
9.0, -306.50350086856633, 236.92079224297777, -344.7851168150082, 217.61168877175078, 0.01600000075995922, 0.0, 0.0, 0.0, 0.0, 0.0, 0.0, 0.0, 1.7103875757432084E9, 0.0, 2024-03-13 20:39:35.743
10.0, -176.59059610776603, 269.67483605491, -155.3741436591372, 188.44794891728088, 0.01600000075995922, 0.0, 1.0560000501573086, 0.0, 0.0, 0.0, 0.0, 0.0, 1.7103875757439237E9, 0.0, 2024-03-13 20:39:35.743
10.0, -122.65936879673973, 109.58093865169212, -68.12040774291381, 74.60165436612442, 0.01600000075995922, 0.0, 1.0560000501573086, 0.0, 0.0, 0.0, 0.0, 0.0, 1.7103875757439237E9, 0.0, 2024-03-13 20:39:35.743
11.0, -26.102631740737706, -10.239846078678966, -16.73418235173449, -20.038383962586522, 0.01600000075995922, -0.17600000835955143, 1.0560000501573086, 0.0, 0.0, 0.0, 0.0, 0.0, 1.710387575757537E9, 0.0, 2024-03-13 20:39:35.757
11.0, -153.6687492793426, -73.6105808778666, -127.14911869354546, -150.41316636791453, 0.01600000075995922, -0.17600000835955143, 1.0560000501573086, 0.0, 0.0, 0.0, 0.0, 0.0, 1.710387575757537E9, 0.0, 2024-03-13 20:39:35.757
12.0, 4.833820692729205, -200.91677536955103, 84.54604834830388, -265.41882990533486, 0.01600000075995922, -0.17600000835955143, 1.0560000501573086, 0.0, 0.0, 0.0, 0.0, 0.0, 1.710387575773527E9, 0.0, 2024-03-13 20:39:35.773
12.0, -152.85532103898004, -254.87231203028932, -126.79943804768845, -253.72416274389252, 0.01600000075995922, -0.17600000835955143, 1.0560000501573086, 0.0, 0.0, 0.0, 0.0, 0.0, 1.710387575773527E9, 0.0, 2024-03-13 20:39:35.773
13.0, -180.92888005636632, -81.46811068477109, -198.92527864314616, -134.55225065583363, 0.01600000075995922, -0.17600000835955143, 1.0560000501573086, 0.0, 0.0, 0.0, 0.0, 0.0, 1.71038757577416E9, 0.0, 2024-03-13 20:39:35.774
13.0, -315.53909916151315, 36.23215077072382, -269.62060750555247, -44.34025387465954, 0.01600000075995922, -0.17600000835955143, 1.0560000501573086, 0.0, 0.0, 0.0, 0.0, 0.0, 1.71038757577416E9, 0.0, 2024-03-13 20:39:35.774
14.0, -175.5789531697519, 100.51542115909979, -145.61861462472007, 84.40767204994336, 0.01600000075995922, -0.17600000835955143, 1.0560000501573086, 0.0, 0.0, 0.0, 0.0, 0.0, 1.7103875757878232E9, 0.0, 2024-03-13 20:39:35.787
14.0, -299.9287567464635, 268.16017657285556, -327.8508498156443, 235.51458985963836, 0.01600000075995922, -0.17600000835955143, 1.0560000501573086, 0.0, 0.0, 0.0, 0.0, 0.0, 1.7103875757878232E9, 0.0, 2024-03-13 20:39:35.787
15.0, -175.43496702145785, 281.1937279184349, -148.70590203814209, 198.12307010265067, 0.01600000075995922, -0.17600000835955143, 1.0560000501573086, 0.0, 0.0, 0.0, 0.0, 0.0, 1.710387575803206E9, 0.0, 2024-03-13 20:39:35.803
15.0, -115.14216988580301, 123.25775278965011, -63.91676019271836, 86.03452853066847, 0.01600000075995922, -0.17600000835955143, 1.0560000501573086, 0.0, 0.0, 0.0, 0.0, 0.0, 1.710387575803206E9, 0.0, 2024-03-13 20:39:35.803
16.0, 12.923224296886474, 13.620715638622642, 0.8807464395649731, 6.4475875236094, 0.01600000075995922, -0.17600000835955143, 1.0560000501573086, 0.0, 0.0, 0.0, 0.0, 0.0, 1.7103875758039153E9, 0.0, 2024-03-13 20:39:35.803
16.0, -131.5846400409937, -67.92593294521794, -114.86354733910412, -135.01973815029487, 0.01600000075995922, -0.17600000835955143, 1.0560000501573086, 0.0, 0.0, 0.0, 0.0, 0.0, 1.7103875758039153E9, 0.0, 2024-03-13 20:39:35.803
17.0, 18.405917631927878, -199.94440138107166, 79.26904951082543, -263.0664328332059, 0.01600000075995922, -0.17600000835955143, 1.0560000501573086, 0.0, 0.0, 0.0, 0.0, 0.0, 1.71038757581764E9, 0.0, 2024-03-13 20:39:35.817
17.0, -134.73550575366244, -240.40637900168076, -119.76842613099143, -237.67999193398282, 0.01600000075995922, -0.17600000835955143, 1.0560000501573086, 0.0, 0.0, 0.0, 0.0, 0.0, 1.71038757581764E9, 0.0, 2024-03-13 20:39:35.817
18.0, -179.39926097448915, -62.63023460796103, -183.4233933268115, -114.21467469679192, 0.01600000075995922, -0.17600000835955143, 1.0560000501573086, 0.0, 0.0, 0.0, 0.0, 0.0, 1.7103875758332076E9, 0.0, 2024-03-13 20:39:35.833
18.0, -304.26704069506377, 53.42821076698601, -247.32706386968493, -23.149980725720525, 0.01600000075995922, -0.17600000835955143, 1.0560000501573086, 0.0, 0.0, 0.0, 0.0, 0.0, 1.7103875758332076E9, 0.0, 2024-03-13 20:39:35.833
19.0, -170.3580528316088, 116.31275857193395, -132.51400517998263, 104.22540191514418, 0.01600000075995922, -0.17600000835955143, 1.0560000501573086, 0.0, 0.0, 0.0, 0.0, 0.0, 1.7103875758339093E9, 0.0, 2024-03-13 20:39:35.833
19.0, -300.94600953441113, 276.91154246916994, -318.3402842283249, 249.0305882995017, 0.01600000075995922, -0.17600000835955143, 1.0560000501573086, 0.0, 0.0, 0.0, 0.0, 0.0, 1.7103875758339093E9, 0.0, 2024-03-13 20:39:35.833
20.0, -159.46559421066195, 303.6443473524414, -120.98950346652418, 224.76237748702988, 0.01600000075995922, -0.17600000835955143, 1.0400000493973494, 0.0, 0.0, 0.0, 0.0, 0.0, 1.7103875758475196E9, 0.0, 2024-03-13 20:39:35.847
20.0, -95.4366370192729, 137.83962271688506, -54.88864169968292, 99.58792597008869, 0.01600000075995922, -0.17600000835955143, 1.0400000493973494, 0.0, 0.0, 0.0, 0.0, 0.0, 1.7103875758475196E9, 0.0, 2024-03-13 20:39:35.847
21.0, -15.937583661172539, 9.813497483730316, 4.055921501945704, 6.735559820197523, 0.01600000075995922, -0.1600000075995922, 1.0400000493973494, 0.0, 0.0, 0.0, 0.0, 0.0, 1.7103875758637452E9, 0.0, 2024-03-13 20:39:35.863
21.0, -132.56823372934014, -51.64240853814408, -104.87801445741206, -121.4850402106531, 0.01600000075995922, -0.1600000075995922, 1.0400000493973494, 0.0, 0.0, 0.0, 0.0, 0.0, 1.7103875758637452E9, 0.0, 2024-03-13 20:39:35.863
22.0, 18.611612129490823, -196.69816821953282, 88.45798370195553, -252.9874024526216, 0.01600000075995922, -0.1600000075995922, 1.0400000493973494, 0.0, 0.0, 0.0, 0.0, 0.0, 1.7103875758639512E9, 0.0, 2024-03-13 20:39:35.863
22.0, -114.05759889865294, -233.91765257855877, -109.80533264903352, -227.088595259469, 0.01600000075995922, -0.1600000075995922, 1.0400000493973494, 0.0, 0.0, 0.0, 0.0, 0.0, 1.7103875758639512E9, 0.0, 2024-03-13 20:39:35.863
23.0, -158.21646762546152, -45.927841405849904, -163.98339335713536, -94.97662932472304, 0.01600000075995922, -0.1600000075995922, 1.0400000493973494, 0.0, 0.0, 0.0, 0.0, 0.0, 1.7103875758778007E9, 0.0, 2024-03-13 20:39:35.877
23.0, -283.51807574089617, 67.37429770175368, -244.4548207037151, -10.83075027167797, 0.01600000075995922, -0.1600000075995922, 1.0400000493973494, 0.0, 0.0, 0.0, 0.0, 0.0, 1.7103875758778007E9, 0.0, 2024-03-13 20:39:35.877
24.0, -156.03423600131646, 126.64236224954948, -126.29455155367032, 113.369457306806, 0.01600000075995922, -0.1600000075995922, 1.0400000493973494, 0.0, 0.0, 0.0, 0.0, 0.0, 1.7103875758935363E9, 0.0, 2024-03-13 20:39:35.893
24.0, -314.4545281743631, 273.3025390119292, -323.1460556713864, 250.90801807725802, 0.01600000075995922, -0.1600000075995922, 1.0400000493973494, 0.0, 0.0, 0.0, 0.0, 0.0, 1.7103875758935363E9, 0.0, 2024-03-13 20:39:35.893
25.0, -189.7176449522376, 289.7506190170534, -134.74485550355166, 215.14709470095113, 0.01600000075995922, -0.1600000075995922, 1.0400000493973494, 0.0, 0.0, 0.0, 0.0, 0.0, 1.7103875758940706E9, 0.0, 2024-03-13 20:39:35.894
25.0, -133.95760656287894, 136.1192687372677, -57.70478636631742, 101.57007294660434, 0.01600000075995922, -0.1600000075995922, 1.0400000493973494, 0.0, 0.0, 0.0, 0.0, 0.0, 1.7103875758940706E9, 0.0, 2024-03-13 20:39:35.894
26.0, 33.49641395313665, 35.82076177559793, 21.9924816894345, 35.158799483440816, 0.01600000075995922, -0.1600000075995922, 1.0400000493973494, 0.0, 0.0, 0.0, 0.0, 0.0, 1.7103875759075384E9, 0.0, 2024-03-13 20:39:35.907
26.0, -110.56640229001641, -31.57410537591204, -87.113489667885, -97.10463239951059, 0.01600000075995922, -0.1600000075995922, 1.0400000493973494, 0.0, 0.0, 0.0, 0.0, 0.0, 1.7103875759075384E9, 0.0, 2024-03-13 20:39:35.907
27.0, 46.672081497032195, -167.17913786927238, 110.2915196432732, -220.5662097367458, 0.01600000075995922, -0.1600000075995922, 1.0400000493973494, 0.0, 0.0, 0.0, 0.0, 0.0, 1.7103875759236631E9, 0.0, 2024-03-13 20:39:35.923
27.0, -96.43893020739779, -200.12765647890046, -95.20850312197581, -204.77635212382302, 0.01600000075995922, -0.1600000075995922, 1.0400000493973494, 0.0, 0.0, 0.0, 0.0, 0.0, 1.7103875759236631E9, 0.0, 2024-03-13 20:39:35.923
28.0, -140.98674852959812, -25.403270449023694, -159.17014211416245, -77.00267013767734, 0.01600000075995922, -0.1600000075995922, 1.0400000493973494, 0.0, 0.0, 0.0, 0.0, 0.0, 1.7103875759240117E9, 0.0, 2024-03-13 20:39:35.924
28.0, -294.52460131049156, 71.09549815766513, -238.42236207518727, -2.378576371818781, 0.01600000075995922, -0.1600000075995922, 1.0400000493973494, 0.0, 0.0, 0.0, 0.0, 0.0, 1.7103875759240117E9, 0.0, 2024-03-13 20:39:35.924
29.0, -161.74880313361064, 132.01659848587587, -118.9643476405181, 125.26607906585559, 0.01600000075995922, -0.1600000075995922, 1.0400000493973494, 0.0, 0.0, 0.0, 0.0, 0.0, 1.7103875759380069E9, 0.0, 2024-03-13 20:39:35.938
29.0, -293.20067672617733, 289.7767983167432, -301.01706763356924, 272.1431700256653, 0.01600000075995922, -0.1600000075995922, 1.0400000493973494, 0.0, 0.0, 0.0, 0.0, 0.0, 1.7103875759380069E9, 0.0, 2024-03-13 20:39:35.938
30.0, -156.24180044885725, 305.6115347291343, -120.51079627219588, 228.4237395436503, 0.01600000075995922, -0.1600000075995922, 1.0400000493973494, 0.0, 0.0, 0.0, 0.0, 0.0, 1.710387575953518E9, 0.0, 2024-03-13 20:39:35.953
30.0, -103.92994981864467, 139.4552594977431, -56.06297028576955, 104.74524800898507, 0.01600000075995922, -0.1600000075995922, 1.0400000493973494, 0.0, 0.0, 0.0, 0.0, 0.0, 1.710387575953518E9, 0.0, 2024-03-13 20:39:35.953
31.0, 24.026987265329808, 27.40224697533995, 12.377198903355747, 20.86864175274968, 0.01600000075995922, -0.17600000835955143, 1.0400000493973494, 0.0, 0.0, 0.0, 0.0, 0.0, 1.7103875759540129E9, 0.0, 2024-03-13 20:39:35.954
31.0, -110.35696789249778, -44.34212382463738, -109.44817220326513, -117.22529416112229, 0.01600000075995922, -0.17600000835955143, 1.0400000493973494, 0.0, 0.0, 0.0, 0.0, 0.0, 1.7103875759540129E9, 0.0, 2024-03-13 20:39:35.954
32.0, 23.742754868697375, -198.93462839303538, 74.44083866802976, -263.6236779266037, 0.01600000075995922, -0.17600000835955143, 1.0400000493973494, 0.0, 0.0, 0.0, 0.0, 0.0, 1.7103875759675543E9, 0.0, 2024-03-13 20:39:35.967
32.0, -125.66250846115872, -226.26207736926153, -112.43074241792783, -231.0192301128991, 0.01600000075995922, -0.17600000835955143, 1.0400000493973494, 0.0, 0.0, 0.0, 0.0, 0.0, 1.7103875759675543E9, 0.0, 2024-03-13 20:39:35.967
33.0, -163.17183506675065, -44.91058861790225, -174.77674462925643, -97.75163509184495, 0.01600000075995922, -0.17600000835955143, 1.0400000493973494, 0.0, 0.0, 0.0, 0.0, 0.0, 1.7103875759835472E9, 0.0, 2024-03-13 20:39:35.983
33.0, -311.68326230719686, 53.297314268536866, -250.94354712683707, -22.94802612811327, 0.01600000075995922, -0.17600000835955143, 1.0400000493973494, 0.0, 0.0, 0.0, 0.0, 0.0, 1.7103875759835472E9, 0.0, 2024-03-13 20:39:35.983
34.0, -173.4359904951416, 113.29091940773651, -137.06920332601294, 97.12333189928904, 0.01600000075995922, -0.17600000835955143, 1.0400000493973494, 0.0, 0.0, 0.0, 0.0, 0.0, 1.7103875759839797E9, 0.0, 2024-03-13 20:39:35.983
34.0, -277.14528621640056, 287.73481294093654, -310.95024191588163, 263.8069330244325, 0.01600000075995922, -0.17600000835955143, 1.0400000493973494, 0.0, 0.0, 0.0, 0.0, 0.0, 1.7103875759839797E9, 0.0, 2024-03-13 20:39:35.983
35.0, -153.65004977956414, 297.9409999200143, -131.8389532379806, 220.0501035428606, 0.01600000075995922, -0.17600000835955143, 1.0400000493973494, 0.0, 0.0, 0.0, 0.0, 0.0, 1.7103875759976563E9, 0.0, 2024-03-13 20:39:35.997
35.0, -121.73561350768432, 130.38226220523939, -54.06586370943114, 98.00968818878755, 0.01600000075995922, -0.17600000835955143, 1.0400000493973494, 0.0, 0.0, 0.0, 0.0, 0.0, 1.7103875759976563E9, 0.0, 2024-03-13 20:39:35.997
36.0, 28.623324310872704, 34.16024619527161, 17.90477103786543, 25.838968793861568, 0.01600000075995922, -0.17600000835955143, 1.0400000493973494, 0.0, 0.0, 0.0, 0.0, 0.0, 1.710387576013311E9, 0.0, 2024-03-13 20:39:36.013
36.0, -106.21689864154905, -39.92156207701191, -98.83059622906148, -110.67298943875358, 0.01600000075995922, -0.17600000835955143, 1.0400000493973494, 0.0, 0.0, 0.0, 0.0, 0.0, 1.710387576013311E9, 0.0, 2024-03-13 20:39:36.013
37.0, 25.90441704308614, -190.8863636883907, 82.0216158782132, -260.53078066324815, 0.01600000075995922, -0.17600000835955143, 1.0400000493973494, 0.0, 0.0, 0.0, 0.0, 0.0, 1.710387576013994E9, 0.0, 2024-03-13 20:39:36.013
37.0, -131.7099266895093, -240.7280103978701, -120.39672932354733, -240.6906113983132, 0.01600000075995922, -0.17600000835955143, 1.0400000493973494, 0.0, 0.0, 0.0, 0.0, 0.0, 1.710387576013994E9, 0.0, 2024-03-13 20:39:36.013
38.0, -170.09438988473266, -62.2712042122148, -168.06362420879304, -105.13045770442113, 0.01600000075995922, -0.17600000835955143, 1.0400000493973494, 0.0, 0.0, 0.0, 0.0, 0.0, 1.7103875760275152E9, 0.0, 2024-03-13 20:39:36.027
38.0, -315.191288465634, 50.3577529033646, -247.94040746241808, -19.802770265378058, 0.01600000075995922, -0.17600000835955143, 1.0400000493973494, 0.0, 0.0, 0.0, 0.0, 0.0, 1.7103875760275152E9, 0.0, 2024-03-13 20:39:36.027
39.0, -191.90361647633836, 111.98195442324504, -128.28417833009735, 106.86951118381694, 0.01600000075995922, -0.17600000835955143, 1.0400000493973494, 0.0, 0.0, 0.0, 0.0, 0.0, 1.7103875760432055E9, 0.0, 2024-03-13 20:39:36.043
39.0, -313.8075254820287, 282.5924505018629, -310.05266592651606, 257.82309309532866, 0.01600000075995922, -0.17600000835955143, 1.0400000493973494, 0.0, 0.0, 0.0, 0.0, 0.0, 1.7103875760432055E9, 0.0, 2024-03-13 20:39:36.043
40.0, -154.97771426383406, 292.263831787277, -128.89939187280834, 211.20898004760966, 0.01600000075995922, -0.17600000835955143, 1.0400000493973494, 0.0, 0.0, 0.0, 0.0, 0.0, 1.7103875760439236E9, 0.0, 2024-03-13 20:39:36.043
40.0, -110.848764736671, 125.46803366346285, -47.494859487283975, 97.16073089884594, 0.01600000075995922, -0.17600000835955143, 1.0400000493973494, 0.0, 0.0, 0.0, 0.0, 0.0, 1.7103875760439236E9, 0.0, 2024-03-13 20:39:36.043
41.0, 21.416537096258253, 28.59901496116072, 15.017568272072822, 22.90688722860068, 0.01600000075995922, -0.17600000835955143, 1.0400000493973494, 0.0, 0.0, 0.0, 0.0, 0.0, 1.710387576057476E9, 0.0, 2024-03-13 20:39:36.057
41.0, -81.47746043466032, -44.78343201940879, -97.88814144022763, -114.89159658877179, 0.01600000075995922, -0.17600000835955143, 1.0400000493973494, 0.0, 0.0, 0.0, 0.0, 0.0, 1.710387576057476E9, 0.0, 2024-03-13 20:39:36.057
42.0, 11.48336281394586, -190.83400508901104, 89.25832229247317, -247.4673101180233, 0.01600000075995922, -0.17600000835955143, 1.0400000493973494, 0.0, 0.0, 0.0, 0.0, 0.0, 1.7103875760736449E9, 0.0, 2024-03-13 20:39:36.073
42.0, -116.36511717131361, -229.51953023066744, -107.4043168774806, -230.22637132229283, 0.01600000075995922, -0.17600000835955143, 1.0400000493973494, 0.0, 0.0, 0.0, 0.0, 0.0, 1.7103875760736449E9, 0.0, 2024-03-13 20:39:36.073
43.0, -142.92775660660118, -42.38241624785587, -148.43288934137672, -87.75114261033013, 0.01600000075995922, -0.17600000835955143, 1.0400000493973494, 0.0, 0.0, 0.0, 0.0, 0.0, 1.7103875760741048E9, 0.0, 2024-03-13 20:39:36.074
43.0, -295.89714459422976, 54.105132658965886, -239.37977646384388, -16.197506708092988, 0.01600000075995922, -0.17600000835955143, 1.0400000493973494, 0.0, 0.0, 0.0, 0.0, 0.0, 1.7103875760741048E9, 0.0, 2024-03-13 20:39:36.074
44.0, -160.70537104597315, 125.38575586443767, -125.0790840680711, 110.63933033915237, 0.01600000075995922, -0.17600000835955143, 1.0400000493973494, 0.0, 0.0, 0.0, 0.0, 0.0, 1.7103875760874937E9, 0.0, 2024-03-13 20:39:36.087
44.0, -292.4040780356154, 284.9336278741248, -298.7245089607313, 267.5842319796793, 0.01600000075995922, -0.17600000835955143, 1.0400000493973494, 0.0, 0.0, 0.0, 0.0, 0.0, 1.7103875760874937E9, 0.0, 2024-03-13 20:39:36.087
45.0, -165.90196203440428, 299.4967983015813, -118.69320489373058, 223.65162720018998, 0.01600000075995922, -0.17600000835955143, 1.0400000493973494, 0.0, 0.0, 0.0, 0.0, 0.0, 1.710387576103207E9, 0.0, 2024-03-13 20:39:36.103
45.0, -92.16796445799991, 154.69909171713516, -38.91926888888702, 123.5232856865041, 0.01600000075995922, -0.17600000835955143, 1.0400000493973494, 0.0, 0.0, 0.0, 0.0, 0.0, 1.710387576103207E9, 0.0, 2024-03-13 20:39:36.103
46.0, 39.16610228596255, 38.62942664232105, 26.573859135154635, 34.71375138871372, 0.01600000075995922, -0.17600000835955143, 1.0400000493973494, 0.0, 0.0, 0.0, 0.0, 0.0, 1.7103875761039288E9, 0.0, 2024-03-13 20:39:36.103
46.0, -113.89865315053612, -52.03135813353583, -104.0888955667615, -121.35040381224826, 0.01600000075995922, -0.17600000835955143, 1.0400000493973494, 0.0, 0.0, 0.0, 0.0, 0.0, 1.7103875761039288E9, 0.0, 2024-03-13 20:39:36.103
47.0, 38.42186219478026, -181.2935203020461, 100.11899176379666, -238.64488612255082, 0.01600000075995922, -0.17600000835955143, 1.0400000493973494, 0.0, 0.0, 0.0, 0.0, 0.0, 1.7103875761175275E9, 0.0, 2024-03-13 20:39:36.117
47.0, -107.4417158770375, -217.22647907631472, -88.1737513053231, -210.36002275766805, 0.01600000075995922, -0.17600000835955143, 1.0400000493973494, 0.0, 0.0, 0.0, 0.0, 0.0, 1.7103875761175275E9, 0.0, 2024-03-13 20:39:36.117
48.0, -153.33963808324188, -46.94509419379756, -154.52892626915127, -93.05806064745411, 0.01600000075995922, -0.17600000835955143, 1.0400000493973494, 0.0, 0.0, 0.0, 0.0, 0.0, 1.7103875761332664E9, 0.0, 2024-03-13 20:39:36.133
48.0, -280.10728698130697, 76.40241619478911, -232.50210044533014, -0.5609849933534861, 0.01600000075995922, -0.17600000835955143, 1.0400000493973494, 0.0, 0.0, 0.0, 0.0, 0.0, 1.7103875761332664E9, 0.0, 2024-03-13 20:39:36.133
49.0, -172.49353570630774, 129.76143881259486, -125.20624066656455, 120.03395902784541, 0.01600000075995922, -0.17600000835955143, 1.0400000493973494, 0.0, 0.0, 0.0, 0.0, 0.0, 1.710387576134002E9, 0.0, 2024-03-13 20:39:36.134
49.0, -302.0305805215612, 283.8976755863987, -311.91139620449394, 258.2943204897456, 0.01600000075995922, -0.17600000835955143, 1.0400000493973494, 0.0, 0.0, 0.0, 0.0, 0.0, 1.710387576134002E9, 0.0, 2024-03-13 20:39:36.134
50.0, -154.4092494705692, 306.0865020235069, -127.43709099013358, 225.09896848304197, 0.01600000075995922, -0.17600000835955143, 1.0400000493973494, 0.0, 0.0, 0.0, 0.0, 0.0, 1.7103875761475625E9, 0.0, 2024-03-13 20:39:36.147
50.0, -109.89135034801438, 146.51993051404133, -42.72274714382365, 117.02333956351504, 0.01600000075995922, -0.17600000835955143, 1.0400000493973494, 0.0, 0.0, 0.0, 0.0, 0.0, 1.7103875761475625E9, 0.0, 2024-03-13 20:39:36.147
51.0, 4.759022693615407, 20.834982653148472, 10.518468625377864, 25.831488993950188, 0.01600000075995922, -0.1600000075995922, 1.0400000493973494, 0.0, 0.0, 0.0, 0.0, 0.0, 1.7103875761635852E9, 0.0, 2024-03-13 20:39:36.163
51.0, -116.29966892208904, -42.210380849894136, -90.4494804283604, -105.36981130158529, 0.01600000075995922, -0.1600000075995922, 1.0400000493973494, 0.0, 0.0, 0.0, 0.0, 0.0, 1.7103875761635852E9, 0.0, 2024-03-13 20:39:36.163
52.0, 28.922516307327896, -174.41210438357666, 95.9153442136012, -235.9110192549415, 0.01600000075995922, -0.1600000075995922, 1.0400000493973494, 0.0, 0.0, 0.0, 0.0, 0.0, 1.7103875761639888E9, 0.0, 2024-03-13 20:39:36.163
52.0, -118.11913025053218, -215.9025544920005, -104.30019991425797, -221.83403582172468, 0.01600000075995922, -0.1600000075995922, 1.0400000493973494, 0.0, 0.0, 0.0, 0.0, 0.0, 1.7103875761639888E9, 0.0, 2024-03-13 20:39:36.163
53.0, -159.32721791230142, -52.03135813353583, -163.32143106497824, -94.53906102990732, 0.01600000075995922, -0.1600000075995922, 1.0400000493973494, 0.0, 0.0, 0.0, 0.0, 0.0, 1.7103875761775005E9, 0.0, 2024-03-13 20:39:36.177
53.0, -295.3174601010978, 66.93672940693796, -236.86282379366457, -7.853789906948805, 0.01600000075995922, -0.1600000075995922, 1.0400000493973494, 0.0, 0.0, 0.0, 0.0, 0.0, 1.7103875761775005E9, 0.0, 2024-03-13 20:39:36.177
54.0, -179.05706012854353, 123.90475548198447, -127.57733723847196, 112.65887631522492, 0.01600000075995922, -0.1600000075995922, 1.0400000493973494, 0.0, 0.0, 0.0, 0.0, 0.0, 1.7103875761932693E9, 0.0, 2024-03-13 20:39:36.193
54.0, -287.48984949383885, 290.9324274030514, -307.20660206023604, 266.8437317884527, 0.01600000075995922, -0.1600000075995922, 1.0400000493973494, 0.0, 0.0, 0.0, 0.0, 0.0, 1.7103875761932693E9, 0.0, 2024-03-13 20:39:36.193
55.0, -173.3032240467146, 316.8461941960268, -115.45445153210312, 230.18523242278025, 0.01600000075995922, -0.1600000075995922, 1.0400000493973494, 0.0, 0.0, 0.0, 0.0, 0.0, 1.710387576193986E9, 0.0, 2024-03-13 20:39:36.193
55.0, -123.44100788747892, 149.78112327540293, -45.6323893093504, 112.18016912089661, 0.01600000075995922, -0.1600000075995922, 1.0400000493973494, 0.0, 0.0, 0.0, 0.0, 0.0, 1.710387576193986E9, 0.0, 2024-03-13 20:39:36.193
56.0, 15.144724870566279, 20.748964954167604, -0.5179761438630521, 12.573543651029468, 0.01600000075995922, -0.1600000075995922, 1.0400000493973494, 0.0, 0.0, 0.0, 0.0, 0.0, 1.7103875762077956E9, 0.0, 2024-03-13 20:39:36.207
56.0, -109.2387378057465, -49.44334736419842, -98.84555582888424, -118.42206214694306, 0.01600000075995922, -0.1600000075995922, 1.0400000493973494, 0.0, 0.0, 0.0, 0.0, 0.0, 1.7103875762077956E9, 0.0, 2024-03-13 20:39:36.207
57.0, 40.688241567928344, -176.14741796301678, 99.40467087225989, -236.0568753532134, 0.01600000075995922, -0.1600000075995922, 1.0400000493973494, 0.0, 0.0, 0.0, 0.0, 0.0, 1.710387576223515E9, 0.0, 2024-03-13 20:39:36.223
57.0, -117.61798365646973, -212.1925737359561, -92.83366665011272, -210.87612895155326, 0.01600000075995922, -0.1600000075995922, 1.0400000493973494, 0.0, 0.0, 0.0, 0.0, 0.0, 1.710387576223515E9, 0.0, 2024-03-13 20:39:36.223
58.0, -191.20986503455788, -65.17336657783017, -182.1967061413452, -109.73427454987541, 0.01600000075995922, -0.1600000075995922, 1.0400000493973494, 0.0, 0.0, 0.0, 0.0, 0.0, 1.7103875762240229E9, 0.0, 2024-03-13 20:39:36.224
58.0, -299.22939545474946, 62.03372056502849, -248.80432435218245, -12.147195056080818, 0.01600000075995922, -0.1600000075995922, 1.0400000493973494, 0.0, 0.0, 0.0, 0.0, 0.0, 1.7103875762240229E9, 0.0, 2024-03-13 20:39:36.224
59.0, -174.20640988601372, 121.2980452128686, -129.32761041773483, 115.42640228243545, 0.01600000075995922, -0.1600000075995922, 1.0400000493973494, 0.0, 0.0, 0.0, 0.0, 0.0, 1.710387576237716E9, 0.0, 2024-03-13 20:39:36.237
59.0, -304.87290448788553, 275.68485528370366, -317.87279673386365, 254.27018813742325, 0.01600000075995922, -0.1600000075995922, 1.0400000493973494, 0.0, 0.0, 0.0, 0.0, 0.0, 1.710387576237716E9, 0.0, 2024-03-13 20:39:36.237
60.0, -164.43966115172952, 297.9036009204574, -131.79781433846802, 217.0806229780428, 0.01600000075995922, -0.1600000075995922, 1.0400000493973494, 0.0, 0.0, 0.0, 0.0, 0.0, 1.7103875762698035E9, 0.0, 2024-03-13 20:39:36.269
60.0, -102.83415913162753, 146.30301631661132, -53.32910341816023, 105.97941499436274, 0.01600000075995922, -0.1600000075995922, 1.0400000493973494, 0.0, 0.0, 0.0, 0.0, 0.0, 1.7103875762698035E9, 0.0, 2024-03-13 20:39:36.269
61.0, 21.13230469962582, 32.30899571720511, 22.568426282610744, 23.823162717744708, 0.01600000075995922, -0.1600000075995922, 1.0400000493973494, 0.0, 0.0, 0.0, 0.0, 0.0, 1.7103875762708342E9, 0.0, 2024-03-13 20:39:36.270
61.0, -116.7596766166389, -57.76088486565277, -111.72951117623597, -126.53764505079016, 0.01600000075995922, -0.1600000075995922, 1.0400000493973494, 0.0, 0.0, 0.0, 0.0, 0.0, 1.7103875762708342E9, 0.0, 2024-03-13 20:39:36.270
62.0, 43.1490957387723, -174.5130816823803, 85.88119263248518, -245.5824005403556, 0.01600000075995922, -0.1600000075995922, 1.0400000493973494, 0.0, 0.0, 0.0, 0.0, 0.0, 1.710387576271368E9, 0.0, 2024-03-13 20:39:36.271
62.0, -135.21421294799075, -234.54595577111468, -117.52822605753317, -231.64005350554362, 0.01600000075995922, -0.1600000075995922, 1.0400000493973494, 0.0, 0.0, 0.0, 0.0, 0.0, 1.710387576271368E9, 0.0, 2024-03-13 20:39:36.271
63.0, -189.71016515232623, -73.44602527981624, -173.70339334197342, -114.49516719346866, 0.01600000075995922, -0.1600000075995922, 1.0400000493973494, 0.0, 0.0, 0.0, 0.0, 0.0, 1.7103875762718384E9, 0.0, 2024-03-13 20:39:36.271
63.0, -304.6559902904555, 49.87156590912491, -249.80287764035165, -24.88155440520495, 0.01600000075995922, -0.1600000075995922, 1.0400000493973494, 0.0, 0.0, 0.0, 0.0, 0.0, 1.7103875762718384E9, 0.0, 2024-03-13 20:39:36.271
64.0, -173.10687929904088, 113.97532109962776, -138.28093091165647, 100.62761815777048, 0.01600000075995922, -0.1600000075995922, 1.0400000493973494, 0.0, 0.0, 0.0, 0.0, 0.0, 1.7103875762824712E9, 0.0, 2024-03-13 20:39:36.282
64.0, -289.1466251742095, 275.258506688755, -322.5663711782545, 248.92961100069806, 0.01600000075995922, -0.1600000075995922, 1.0400000493973494, 0.0, 0.0, 0.0, 0.0, 0.0, 1.7103875762824712E9, 0.0, 2024-03-13 20:39:36.282
65.0, -178.73355878237635, 285.36371636902913, -132.8823853256181, 213.29584422288463, 0.01600000075995922, -0.1600000075995922, 1.0400000493973494, 0.0, 0.0, 0.0, 0.0, 0.0, 1.7103875762975264E9, 0.0, 2024-03-13 20:39:36.297
65.0, -131.5977296908386, 125.29225836554542, -66.37387446360663, 91.16941116983071, 0.01600000075995922, -0.1600000075995922, 1.0400000493973494, 0.0, 0.0, 0.0, 0.0, 0.0, 1.7103875762975264E9, 0.0, 2024-03-13 20:39:36.297
66.0, 12.220123105216771, 22.12898803781718, 4.201777600217611, 12.91387454699725, 0.01600000075995922, -0.1600000075995922, 1.0400000493973494, 0.0, 0.0, 0.0, 0.0, 0.0, 1.7103875763132975E9, 0.0, 2024-03-13 20:39:36.313
66.0, -110.31582899298519, -49.2264331667684, -102.06560969073325, -113.58637150423601, 0.01600000075995922, -0.1600000075995922, 1.0400000493973494, 0.0, 0.0, 0.0, 0.0, 0.0, 1.7103875763132975E9, 0.0, 2024-03-13 20:39:36.313
67.0, 35.18684873310849, -176.55506705818698, 87.48560971347615, -242.28754867939278, 0.01600000075995922, -0.1600000075995922, 1.0400000493973494, 0.0, 0.0, 0.0, 0.0, 0.0, 1.7103875763138804E9, 0.0, 2024-03-13 20:39:36.313
67.0, -113.5901114041917, -219.0478103547357, -99.58044617017731, -216.62435518344864, 0.01600000075995922, -0.1600000075995922, 1.0400000493973494, 0.0, 0.0, 0.0, 0.0, 0.0, 1.7103875763138804E9, 0.0, 2024-03-13 20:39:36.313
68.0, -175.7528585176915, -68.61781443702057, -173.35932254604995, -113.34327800711617, 0.01600000075995922, -0.1600000075995922, 1.0400000493973494, 0.0, 0.0, 0.0, 0.0, 0.0, 1.7103875763275087E9, 0.0, 2024-03-13 20:39:36.327
68.0, -314.61160397250205, 48.30454782769084, -254.02896459028125, -26.859961481764913, 0.01600000075995922, -0.1600000075995922, 1.0400000493973494, 0.0, 0.0, 0.0, 0.0, 0.0, 1.7103875763275087E9, 0.0, 2024-03-13 20:39:36.327
69.0, -178.33899933705106, 117.8909963532351, -132.92539417510852, 101.83186594350263, 0.01600000075995922, -0.1600000075995922, 1.0400000493973494, 0.0, 0.0, 0.0, 0.0, 0.0, 1.710387576343204E9, 0.0, 2024-03-13 20:39:36.343
69.0, -313.527032985352, 269.3307652589865, -318.8152515226975, 243.73488996224478, 0.01600000075995922, -0.1600000075995922, 1.0400000493973494, 0.0, 0.0, 0.0, 0.0, 0.0, 1.710387576343204E9, 0.0, 2024-03-13 20:39:36.343
70.0, -181.50482464954257, 283.84531698701903, -144.1020851926878, 200.2996918768622, 0.01600000075995922, -0.1600000075995922, 1.0400000493973494, 0.0, 0.0, 0.0, 0.0, 0.0, 1.7103875763439646E9, 0.0, 2024-03-13 20:39:36.343
70.0, -84.50864934874699, 175.00300857657567, -39.51017308188602, 127.71571353683248, 0.01600000075995922, -0.1600000075995922, 1.0400000493973494, 0.0, 0.0, 0.0, 0.0, 0.0, 1.7103875763439646E9, 0.0, 2024-03-13 20:39:36.343
71.0, 62.398360810708255, 53.51796836592257, 45.78946510748938, 51.52086178958416, 0.01600000075995922, -0.17600000835955143, 1.0400000493973494, 0.0, 0.0, 0.0, 0.0, 0.0, 1.7103875763575141E9, 0.0, 2024-03-13 20:39:36.357
71.0, -157.8948362292722, -87.82594060944393, -114.43345884419978, -151.80814905138686, 0.01600000075995922, -0.17600000835955143, 1.0400000493973494, 0.0, 0.0, 0.0, 0.0, 0.0, 1.7103875763575141E9, 0.0, 2024-03-13 20:39:36.357
72.0, 20.578799506183714, -187.1464637327008, 74.32490176940337, -255.48191572306678, 0.01600000075995922, -0.17600000835955143, 1.0400000493973494, 0.0, 0.0, 0.0, 0.0, 0.0, 1.7103875763735805E9, 0.0, 2024-03-13 20:39:36.373
72.0, -86.75632922211662, -188.27965341927484, -81.22875708760694, -192.59923786809668, 0.01600000075995922, -0.17600000835955143, 1.0400000493973494, 0.0, 0.0, 0.0, 0.0, 0.0, 1.7103875763735805E9, 0.0, 2024-03-13 20:39:36.373
73.0, -188.32640216872096, -92.96830304851755, -195.3125352859497, -140.99235837953165, 0.01600000075995922, -0.17600000835955143, 1.0400000493973494, 0.0, 0.0, 0.0, 0.0, 0.0, 1.7103875763740585E9, 0.0, 2024-03-13 20:39:36.374
73.0, -325.4460941441357, 29.537729850038886, -271.74487068038434, -47.231196540407836, 0.01600000075995922, -0.17600000835955143, 1.0400000493973494, 0.0, 0.0, 0.0, 0.0, 0.0, 1.7103875763740585E9, 0.0, 2024-03-13 20:39:36.374
74.0, -148.88354728603736, 162.15271232882515, -99.49068857124075, 148.62175428913906, 0.01600000075995922, -0.17600000835955143, 1.0400000493973494, 0.0, 0.0, 0.0, 0.0, 0.0, 1.7103875763875175E9, 0.0, 2024-03-13 20:39:36.387
74.0, -285.70591721497476, 294.0178448664956, -297.09017268009484, 261.67519004968926, 0.01600000075995922, -0.17600000835955143, 1.0400000493973494, 0.0, 0.0, 0.0, 0.0, 0.0, 1.7103875763875175E9, 0.0, 2024-03-13 20:39:36.387
75.0, -194.25040369853377, 258.1746436911635, -161.42156188748777, 172.5084953061305, 0.01600000075995922, -0.17600000835955143, 1.0400000493973494, 0.0, 0.0, 0.0, 0.0, 0.0, 1.710387576403508E9, 0.0, 2024-03-13 20:39:36.403
75.0, -99.22141577443108, 164.29193510347977, -50.06791065679863, 125.8569832588546, 0.01600000075995922, -0.17600000835955143, 1.0400000493973494, 0.0, 0.0, 0.0, 0.0, 0.0, 1.710387576403508E9, 0.0, 2024-03-13 20:39:36.403
76.0, 35.51222002925351, 54.82693335041404, 35.57953822845593, 49.329280415549874, 0.01600000075995922, -0.17600000835955143, 1.0400000493973494, 0.0, 0.0, 0.0, 0.0, 0.0, 1.7103875764041004E9, 0.0, 2024-03-13 20:39:36.404
76.0, -142.82303940784186, -89.72206988697872, -122.9118120437488, -155.06560191279277, 0.01600000075995922, -0.17600000835955143, 1.0400000493973494, 0.0, 0.0, 0.0, 0.0, 0.0, 1.7103875764041004E9, 0.0, 2024-03-13 20:39:36.404
77.0, 28.260554015170783, -182.65484388591722, 90.75054237479344, -241.8350207847543, 0.01600000075995922, -0.17600000835955143, 1.0400000493973494, 0.0, 0.0, 0.0, 0.0, 0.0, 1.7103875764179754E9, 0.0, 2024-03-13 20:39:36.417
77.0, -83.27448236336932, -168.89201204897836, -61.88225461682305, -169.3968985429965, 0.01600000075995922, -0.17600000835955143, 1.0400000493973494, 0.0, 0.0, 0.0, 0.0, 0.0, 1.7103875764179754E9, 0.0, 2024-03-13 20:39:36.417
78.0, -163.38500936422497, -60.03474403871223, -159.97796050459146, -104.10946501651779, 0.01600000075995922, -0.17600000835955143, 1.0400000493973494, 0.0, 0.0, 0.0, 0.0, 0.0, 1.7103875764331982E9, 0.0, 2024-03-13 20:39:36.433
78.0, -315.7896724585444, 35.79084257595241, -258.18399344105273, -38.13201994821429, 0.01600000075995922, -0.17600000835955143, 1.0400000493973494, 0.0, 0.0, 0.0, 0.0, 0.0, 1.7103875764331982E9, 0.0, 2024-03-13 20:39:36.433
79.0, -147.3501883042045, 161.62912633502856, -104.68914950964972, 149.59412827761844, 0.01600000075995922, -0.17600000835955143, 1.0400000493973494, 0.0, 0.0, 0.0, 0.0, 0.0, 1.7103875764339948E9, 0.0, 2024-03-13 20:39:36.433
79.0, -284.6961442269385, 289.91891451505944, -290.64258515648544, 268.1003381735645, 0.01600000075995922, -0.17600000835955143, 1.0400000493973494, 0.0, 0.0, 0.0, 0.0, 0.0, 1.7103875764339948E9, 0.0, 2024-03-13 20:39:36.433
80.0, -181.61702164821327, 259.15823737950996, -151.41732950601727, 191.84377807704732, 0.01600000075995922, -0.17600000835955143, 1.0400000493973494, 0.0, 0.0, 0.0, 0.0, 0.0, 1.7103875764475274E9, 0.0, 2024-03-13 20:39:36.447
80.0, -116.7391071668826, 146.82286241045222, -48.699107273016125, 125.23241996625438, 0.01600000075995922, -0.17600000835955143, 1.0400000493973494, 0.0, 0.0, 0.0, 0.0, 0.0, 1.7103875764475274E9, 0.0, 2024-03-13 20:39:36.447
81.0, 58.318129959050566, 58.518214606679976, 38.79585219034925, 53.24495566915721, 0.01600000075995922, -0.17600000835955143, 1.0400000493973494, 0.0, 0.0, 0.0, 0.0, 0.0, 1.7103875764633005E9, 0.0, 2024-03-13 20:39:36.463
81.0, -138.31272006127983, -92.41479785507545, -129.12004597019404, -154.60185431828722, 0.01600000075995922, -0.17600000835955143, 1.0400000493973494, 0.0, 0.0, 0.0, 0.0, 0.0, 1.7103875764633005E9, 0.0, 2024-03-13 20:39:36.463
82.0, 15.690750264097005, -193.35095775919035, 78.29667552234605, -250.07776028709486, 0.01600000075995922, -0.17600000835955143, 1.0400000493973494, 0.0, 0.0, 0.0, 0.0, 0.0, 1.7103875764643452E9, 0.0, 2024-03-13 20:39:36.464
82.0, -115.83031147764996, -192.41972267022356, -80.16288560023531, -190.57595199206844, 0.01600000075995922, -0.17600000835955143, 1.0400000493973494, 0.0, 0.0, 0.0, 0.0, 0.0, 1.7103875764643452E9, 0.0, 2024-03-13 20:39:36.464
83.0, -186.2320581935346, -77.45893793227151, -178.26233138795942, -125.50543266301975, 0.01600000075995922, -0.17600000835955143, 1.0400000493973494, 0.0, 0.0, 0.0, 0.0, 0.0, 1.7103875764776616E9, 0.0, 2024-03-13 20:39:36.477
83.0, -321.20504759438336, 31.628333925269544, -268.3939203200862, -40.798568616621196, 0.01600000075995922, -0.17600000835955143, 1.0400000493973494, 0.0, 0.0, 0.0, 0.0, 0.0, 1.7103875764776616E9, 0.0, 2024-03-13 20:39:36.477
84.0, -156.5391224953346, 152.47011134354398, -110.24290094384924, 143.1241013542749, 0.01600000075995922, -0.17600000835955143, 1.0400000493973494, 0.0, 0.0, 0.0, 0.0, 0.0, 1.71038757649322E9, 0.0, 2024-03-13 20:39:36.493
84.0, -297.01911458093673, 278.5982373491861, -307.9994608508423, 258.8777448828332, 0.01600000075995922, -0.17600000835955143, 1.0400000493973494, 0.0, 0.0, 0.0, 0.0, 0.0, 1.71038757649322E9, 0.0, 2024-03-13 20:39:36.493
85.0, -200.5820543235168, 257.6173985977657, -148.86671773623675, 185.1456172564067, 0.01600000075995922, -0.17600000835955143, 1.0400000493973494, 0.0, 0.0, 0.0, 0.0, 0.0, 1.710387576493938E9, 0.0, 2024-03-13 20:39:36.493
85.0, -101.35689864913002, 150.24861076986417, -47.113389691803604, 120.34811062412336, 0.01600000075995922, -0.17600000835955143, 1.0400000493973494, 0.0, 0.0, 0.0, 0.0, 0.0, 1.710387576493938E9, 0.0, 2024-03-13 20:39:36.493
86.0, 32.1089110695757, 40.9444247148931, 25.94929584255442, 34.859607486985624, 0.01600000075995922, -0.17600000835955143, 1.0400000493973494, 0.0, 0.0, 0.0, 0.0, 0.0, 1.7103875765075288E9, 0.0, 2024-03-13 20:39:36.507
86.0, -153.12646378576756, -88.43928420217708, -118.76800289284438, -156.14269310003147, 0.01600000075995922, -0.17600000835955143, 1.0400000493973494, 0.0, 0.0, 0.0, 0.0, 0.0, 1.7103875765075288E9, 0.0, 2024-03-13 20:39:36.507
87.0, 19.434390119742602, -184.49113476416096, 78.19195832358673, -248.00959561159834, 0.01600000075995922, -0.17600000835955143, 1.0400000493973494, 0.0, 0.0, 0.0, 0.0, 0.0, 1.710387576523274E9, 0.0, 2024-03-13 20:39:36.523
87.0, -81.00436309026554, -172.6917504039593, -80.35736039793119, -176.48774885898456, 0.01600000075995922, -0.17600000835955143, 1.0400000493973494, 0.0, 0.0, 0.0, 0.0, 0.0, 1.710387576523274E9, 0.0, 2024-03-13 20:39:36.523
88.0, -177.72004589438438, -74.29124266980216, -176.17546721268445, -120.02647922793403, 0.01600000075995922, -0.17600000835955143, 1.0400000493973494, 0.0, 0.0, 0.0, 0.0, 0.0, 1.7103875765239656E9, 0.0, 2024-03-13 20:39:36.523
88.0, -326.4820464318618, 28.804709458723664, -283.52181564085186, -48.00909573119134, 0.01600000075995922, -0.17600000835955143, 1.0400000493973494, 0.0, 0.0, 0.0, 0.0, 0.0, 1.7103875765239656E9, 0.0, 2024-03-13 20:39:36.523
89.0, -148.3861405919306, 161.3561136382632, -120.42664852319285, 141.7889570700936, 0.01600000075995922, -0.17600000835955143, 1.0400000493973494, 0.0, 0.0, 0.0, 0.0, 0.0, 1.710387576537922E9, 0.0, 2024-03-13 20:39:36.537
89.0, -323.5911037661135, 280.01565943239257, -310.68844891898334, 248.97448980016634, 0.01600000075995922, -0.17600000835955143, 1.0400000493973494, 0.0, 0.0, 0.0, 0.0, 0.0, 1.710387576537922E9, 0.0, 2024-03-13 20:39:36.537
90.0, -186.82296238653362, 259.6257248739712, -161.7020543841645, 173.00216210028157, 0.01600000075995922, -0.17600000835955143, 1.0400000493973494, 0.0, 0.0, 0.0, 0.0, 0.0, 1.710387576553334E9, 0.0, 2024-03-13 20:39:36.553
90.0, -87.63520571170375, 166.11326638190076, -51.504032239783555, 123.34377048863098, 0.01600000075995922, -0.17600000835955143, 1.0400000493973494, 0.0, 0.0, 0.0, 0.0, 0.0, 1.710387576553334E9, 0.0, 2024-03-13 20:39:36.553
91.0, 57.23729887185618, 59.85709879081696, 29.390003801789135, 51.8387532858178, 0.01600000075995922, -0.17600000835955143, 1.0400000493973494, 0.0, 0.0, 0.0, 0.0, 0.0, 1.7103875765542428E9, 0.0, 2024-03-13 20:39:36.554
91.0, -146.71253536175936, -88.40936500253156, -121.96187745500356, -154.17550572333857, 0.01600000075995922, -0.17600000835955143, 1.0400000493973494, 0.0, 0.0, 0.0, 0.0, 0.0, 1.7103875765542428E9, 0.0, 2024-03-13 20:39:36.554
92.0, 12.451996902469546, -196.4438550225459, 79.56824150728062, -251.764455167111, 0.01600000075995922, -0.17600000835955143, 1.0400000493973494, 0.0, 0.0, 0.0, 0.0, 0.0, 1.710387576567717E9, 0.0, 2024-03-13 20:39:36.567
92.0, -95.60493251727894, -194.8469177414663, -91.52844156557694, -197.4835472102277, 0.01600000075995922, -0.17600000835955143, 1.0400000493973494, 0.0, 0.0, 0.0, 0.0, 0.0, 1.710387576567717E9, 0.0, 2024-03-13 20:39:36.567
93.0, -181.9012540448457, -83.47643696097657, -174.26063843537122, -127.40530184051022, 0.01600000075995922, -0.17600000835955143, 1.0400000493973494, 0.0, 0.0, 0.0, 0.0, 0.0, 1.7103875765833251E9, 0.0, 2024-03-13 20:39:36.583
93.0, -324.25306605827063, 33.50576370302588, -272.6835855692625, -46.427118049934506, 0.01600000075995922, -0.17600000835955143, 1.0400000493973494, 0.0, 0.0, 0.0, 0.0, 0.0, 1.7103875765833251E9, 0.0, 2024-03-13 20:39:36.583
94.0, -152.51873004296795, 153.89875312661752, -120.54258542181924, 139.35054229898378, 0.01600000075995922, -0.17600000835955143, 1.0400000493973494, 0.0, 0.0, 0.0, 0.0, 0.0, 1.7103875765839503E9, 0.0, 2024-03-13 20:39:36.583
94.0, -288.78385487850755, 284.7541126762517, -300.0596532449126, 257.7034162967466, 0.01600000075995922, -0.17600000835955143, 1.0400000493973494, 0.0, 0.0, 0.0, 0.0, 0.0, 1.7103875765839503E9, 0.0, 2024-03-13 20:39:36.583
95.0, -214.37854526005685, 250.79208117863163, -176.35498241055757, 164.34803360281512, 0.01600000075995922, -0.17600000835955143, 1.0400000493973494, 0.0, 0.0, 0.0, 0.0, 0.0, 1.7103875765978024E9, 0.0, 2024-03-13 20:39:36.597
95.0, -111.91089632408693, 155.51812980743125, -69.80336272297427, 107.42301637725905, 0.01600000075995922, -0.17600000835955143, 1.0400000493973494, 0.0, 0.0, 0.0, 0.0, 0.0, 1.7103875765978024E9, 0.0, 2024-03-13 20:39:36.597
96.0, 51.055244245100766, 53.24495566915721, 23.320146173704416, 38.816421640105546, 0.01600000075995922, -0.17600000835955143, 1.0400000493973494, 0.0, 0.0, 0.0, 0.0, 0.0, 1.7103875766133187E9, 0.0, 2024-03-13 20:39:36.613
96.0, -131.12463234644383, -84.47499024914578, -121.47943036071956, -157.92288547893986, 0.01600000075995922, -0.17600000835955143, 1.0400000493973494, 0.0, 0.0, 0.0, 0.0, 0.0, 1.7103875766133187E9, 0.0, 2024-03-13 20:39:36.613
97.0, 14.68471717601642, -193.5192532571964, 66.51225076196715, -259.71548247290775, 0.01600000075995922, -0.17600000835955143, 1.0400000493973494, 0.0, 0.0, 0.0, 0.0, 0.0, 1.710387576613968E9, 0.0, 2024-03-13 20:39:36.613
97.0, -107.41927647730336, -195.35554413544014, -91.85381286172196, -198.61673689680174, 0.01600000075995922, -0.17600000835955143, 1.0400000493973494, 0.0, 0.0, 0.0, 0.0, 0.0, 1.710387576613968E9, 0.0, 2024-03-13 20:39:36.613
98.0, -179.7545514702797, -84.96117724338546, -172.39068845752627, -125.49421296315268, 0.01600000075995922, -0.17600000835955143, 1.0400000493973494, 0.0, 0.0, 0.0, 0.0, 0.0, 1.710387576628114E9, 0.0, 2024-03-13 20:39:36.628
98.0, -330.62211568281054, 23.464132321998477, -270.40972639620304, -43.285602087154984, 0.01600000075995922, -0.17600000835955143, 1.0400000493973494, 0.0, 0.0, 0.0, 0.0, 0.0, 1.710387576628114E9, 0.0, 2024-03-13 20:39:36.628
99.0, -162.17889162851498, 147.43246610322967, -112.58407831611112, 142.0170909673907, 0.01600000075995922, -0.17600000835955143, 1.0400000493973494, 0.0, 0.0, 0.0, 0.0, 0.0, 1.7103875766432717E9, 0.0, 2024-03-13 20:39:36.643
99.0, -291.2073100497946, 280.46070752711967, -297.97278906963766, 259.97353556985036, 0.01600000075995922, -0.17600000835955143, 1.0400000493973494, 0.0, 0.0, 0.0, 0.0, 0.0, 1.7103875766432717E9, 0.0, 2024-03-13 20:39:36.643
100.0, -192.37297392077744, 249.82344709010795, -155.47512095794082, 180.19398971507326, 0.01600000075995922, -0.17600000835955143, 1.0400000493973494, 0.0, 0.0, 0.0, 0.0, 0.0, 1.7103875766439557E9, 0.0, 2024-03-13 20:39:36.643
100.0, -107.90920337149873, 157.01034988975152, -52.712019925471395, 124.80233147135004, 0.01600000075995922, -0.17600000835955143, 1.0400000493973494, 0.0, 0.0, 0.0, 0.0, 0.0, 1.7103875766439557E9, 0.0, 2024-03-13 20:39:36.643
0.0, -519.6048702937551, -21.912073840387166, -319.61559011321515, -144.67802978586406, 0.01600000075995922, -0.17600000835955143, 1.0400000493973494, 0.0, 0.0, 0.0, 0.0, 0.0, 1.7103875766583817E9, 0.0, 2024-03-13 20:39:36.658
1.0, -669.3186753699556, -159.89381275558844, -467.81473570736125, -344.87300446396694, 0.01600000075995922, -0.17600000835955143, 1.0400000493973494, 0.0, 0.0, 0.0, 0.0, 0.0, 1.7103875766590114E9, 0.0, 2024-03-13 20:39:36.659
1.0, -518.8830696023069, -273.4072562106885, -287.2093569971621, -448.4944125362672, 0.01600000075995922, -0.17600000835955143, 1.0400000493973494, 0.0, 0.0, 0.0, 0.0, 0.0, 1.7103875766590114E9, 0.0, 2024-03-13 20:39:36.659
2.0, -628.9857242978178, -268.45562866935506, -453.97897582128644, -395.6870251619257, 0.01600000075995922, -0.17600000835955143, 1.0400000493973494, 0.0, 0.0, 0.0, 0.0, 0.0, 1.7103875766728683E9, 0.0, 2024-03-13 20:39:36.672
2.0, -722.9338811347261, -166.55831447662786, -547.5419229627587, -334.15445119095966, 0.01600000075995922, -0.17600000835955143, 1.0400000493973494, 0.0, 0.0, 0.0, 0.0, 0.0, 1.7103875766728683E9, 0.0, 2024-03-13 20:39:36.672
3.0, -854.1071321805939, -50.84767979755998, -639.6668785712682, -249.50742554385215, 0.01600000075995922, -0.17600000835955143, 1.0400000493973494, 0.0, 0.0, 0.0, 0.0, 0.0, 1.7103875766884363E9, 0.0, 2024-03-13 20:39:36.688
3.0, -681.217167078983, 82.85187366837636, -474.9373751729727, -56.724932577926666, 0.01600000075995922, -0.17600000835955143, 1.0400000493973494, 0.0, 0.0, 0.0, 0.0, 0.0, 1.7103875766884363E9, 0.0, 2024-03-13 20:39:36.688
4.0, -821.0052776727825, 206.21247370680794, -667.0878250463866, 58.69585985457525, 0.01600000075995922, -0.17600000835955143, 1.0400000493973494, 0.0, 0.0, 0.0, 0.0, 0.0, 1.7103875766891885E9, 0.0, 2024-03-13 20:39:36.689
4.0, -761.8737194733694, 163.73469001008198, -530.2336659678258, -36.555652116891, 0.01600000075995922, -0.17600000835955143, 1.0400000493973494, 0.0, 0.0, 0.0, 0.0, 0.0, 1.7103875766891885E9, 0.0, 2024-03-13 20:39:36.689
5.0, -632.5760282552801, 81.66632538242266, -412.25665191560984, -77.27194293448702, 0.01600000075995922, -0.17600000835955143, 1.0400000493973494, 0.0, 0.0, 0.0, 0.0, 0.0, 1.7103875767025547E9, 0.0, 2024-03-13 20:39:36.702
5.0, -490.093319743406, -26.89736048132181, -328.9429006027058, -159.06542491540313, 0.01600000075995922, -0.17600000835955143, 1.0400000493973494, 0.0, 0.0, 0.0, 0.0, 0.0, 1.7103875767025547E9, 0.0, 2024-03-13 20:39:36.702
6.0, -675.4633309971541, -168.97802974795923, -481.7271635425277, -355.7374138352461, 0.01600000075995922, -0.17600000835955143, 1.0400000493973494, 0.0, 0.0, 0.0, 0.0, 0.0, 1.7103875767181957E9, 0.0, 2024-03-13 20:39:36.718
6.0, -521.6431157696061, -272.5882181203924, -277.59033431112766, -444.8330504796468, 0.01600000075995922, -0.17600000835955143, 1.0400000493973494, 0.0, 0.0, 0.0, 0.0, 0.0, 1.7103875767181957E9, 0.0, 2024-03-13 20:39:36.718
7.0, -628.3910802048631, -256.42063061194494, -440.53029558062553, -382.18598632188514, 0.01600000075995922, -0.17600000835955143, 1.0400000493973494, 0.0, 0.0, 0.0, 0.0, 0.0, 1.7103875767190087E9, 0.0, 2024-03-13 20:39:36.719
7.0, -717.1594756031409, -154.0932279243134, -526.4301877128892, -313.3830468370579, 0.01600000075995922, -0.17600000835955143, 1.0400000493973494, 0.0, 0.0, 0.0, 0.0, 0.0, 1.7103875767190087E9, 0.0, 2024-03-13 20:39:36.719
8.0, -870.8282248824835, -56.77916112728417, -633.7129578418098, -241.83315083477646, 0.01600000075995922, -0.17600000835955143, 1.0400000493973494, 0.0, 0.0, 0.0, 0.0, 0.0, 1.7103875767325425E9, 0.0, 2024-03-13 20:39:36.732
8.0, -694.2581982244737, 78.15081942407414, -462.7453013174236, -47.55095798661932, 0.01600000075995922, -0.17600000835955143, 1.0400000493973494, 0.0, 0.0, 0.0, 0.0, 0.0, 1.7103875767325425E9, 0.0, 2024-03-13 20:39:36.732
9.0, -830.575681659393, 208.40031518088654, -655.8793448791839, 66.09338196692988, 0.01600000075995922, -0.17600000835955143, 1.0400000493973494, 0.0, 0.0, 0.0, 0.0, 0.0, 1.7103875767482364E9, 0.0, 2024-03-13 20:39:36.748
9.0, -730.2379057481885, 180.65025750966743, -518.7147741043009, -21.839145791251212, 0.01600000075995922, -0.17600000835955143, 1.0400000493973494, 0.0, 0.0, 0.0, 0.0, 0.0, 1.7103875767482364E9, 0.0, 2024-03-13 20:39:36.748
10.0, -638.9787369794212, 82.08893407741562, -411.13468192890286, -77.21584443515167, 0.01600000075995922, -0.17600000835955143, 1.0400000493973494, 0.0, 0.0, 0.0, 0.0, 0.0, 1.7103875767489822E9, 0.0, 2024-03-13 20:39:36.748
10.0, -487.5090488740243, -17.416714093647897, -317.0761980433017, -144.01606749370694, 0.01600000075995922, -0.17600000835955143, 1.0400000493973494, 0.0, 0.0, 0.0, 0.0, 0.0, 1.7103875767489822E9, 0.0, 2024-03-13 20:39:36.748
11.0, -660.473811974749, -171.21822982141748, -501.3616383098997, -369.8704957677983, 0.01600000075995922, -0.17600000835955143, 1.0400000493973494, 0.0, 0.0, 0.0, 0.0, 0.0, 1.710387576762575E9, 0.0, 2024-03-13 20:39:36.762
11.0, -493.1001993077807, -271.64202343160287, -292.56489373371005, -457.9077407247387, 0.01600000075995922, -0.17600000835955143, 1.0400000493973494, 0.0, 0.0, 0.0, 0.0, 0.0, 1.710387576762575E9, 0.0, 2024-03-13 20:39:36.762
12.0, -622.3474018764682, -262.1875563436188, -458.60897196643054, -393.85073428368196, 0.01600000075995922, -0.17600000835955143, 1.0400000493973494, 0.0, 0.0, 0.0, 0.0, 0.0, 1.7103875767782109E9, 0.0, 2024-03-13 20:39:36.778
12.0, -678.8629000568762, -133.50133876828477, -527.5371980997734, -310.0956747760065, 0.01600000075995922, -0.17600000835955143, 1.0400000493973494, 0.0, 0.0, 0.0, 0.0, 0.0, 1.7103875767782109E9, 0.0, 2024-03-13 20:39:36.778
13.0, -882.1376823484898, -48.96651011984795, -628.6491333018057, -242.21462063025683, 0.01600000075995922, -0.17600000835955143, 1.0400000493973494, 0.0, 0.0, 0.0, 0.0, 0.0, 1.710387576778901E9, 0.0, 2024-03-13 20:39:36.778
13.0, -683.835097047966, 88.24106950452551, -453.2422155300155, -38.40316269500181, 0.01600000075995922, -0.17600000835955143, 1.0400000493973494, 0.0, 0.0, 0.0, 0.0, 0.0, 1.710387576778901E9, 0.0, 2024-03-13 20:39:36.778
14.0, -816.7530114231631, 218.03055756678805, -643.4179982268251, 79.83751430409029, 0.01600000075995922, -0.17600000835955143, 1.0400000493973494, 0.0, 0.0, 0.0, 0.0, 0.0, 1.7103875767925396E9, 0.0, 2024-03-13 20:39:36.792
14.0, -714.7435002317652, 190.13838369725272, -500.707155817654, -7.017922266852111, 0.01600000075995922, -0.17600000835955143, 1.0400000493973494, 0.0, 0.0, 0.0, 0.0, 0.0, 1.7103875767925396E9, 0.0, 2024-03-13 20:39:36.792
15.0, -628.8174287998118, 100.78469395590946, -391.01402016729116, -55.81987678864971, 0.01600000075995922, -0.17600000835955143, 1.0400000493973494, 0.0, 0.0, 0.0, 0.0, 0.0, 1.7103875768079624E9, 0.0, 2024-03-13 20:39:36.807
15.0, -473.00571684585884, -2.255159673281014, -303.45922230463475, -125.45120411366224, 0.01600000075995922, -0.17600000835955143, 1.0400000493973494, 0.0, 0.0, 0.0, 0.0, 0.0, 1.7103875768079624E9, 0.0, 2024-03-13 20:39:36.807
16.0, -679.9736503437161, -164.98007669532672, -471.33024166570976, -342.79735998855904, 0.01600000075995922, -0.17600000835955143, 1.0400000493973494, 0.0, 0.0, 0.0, 0.0, 0.0, 1.7103875768232265E9, 0.0, 2024-03-13 20:39:36.823
16.0, -523.9618537421338, -274.8583373934962, -277.59781411103904, -444.0065325894393, 0.01600000075995922, -0.17600000835955143, 1.0400000493973494, 0.0, 0.0, 0.0, 0.0, 0.0, 1.7103875768232265E9, 0.0, 2024-03-13 20:39:36.823
17.0, -636.895612704102, -267.4421157813631, -433.5441624633968, -376.1946665928699, 0.01600000075995922, -0.17600000835955143, 1.0400000493973494, 0.0, 0.0, 0.0, 0.0, 0.0, 1.710387576823928E9, 0.0, 2024-03-13 20:39:36.823
17.0, -684.618606088683, -156.93929179059342, -522.0806840644218, -312.320915249642, 0.01600000075995922, -0.17600000835955143, 1.0400000493973494, 0.0, 0.0, 0.0, 0.0, 0.0, 1.710387576823928E9, 0.0, 2024-03-13 20:39:36.823
18.0, -840.1947043454275, -46.40093875024468, -619.0787293151952, -235.73337400704622, 0.01600000075995922, -0.17600000835955143, 1.0400000493973494, 0.0, 0.0, 0.0, 0.0, 0.0, 1.7103875768387868E9, 0.0, 2024-03-13 20:39:36.838
18.0, -682.6682482617907, 82.77333576930687, -458.5566133670509, -38.620076892431825, 0.01600000075995922, -0.17600000835955143, 1.0400000493973494, 0.0, 0.0, 0.0, 0.0, 0.0, 1.7103875768387868E9, 0.0, 2024-03-13 20:39:36.838
19.0, -820.6836462765932, 206.13767570769414, -653.1492179115303, 70.00157742062584, 0.01600000075995922, -0.17600000835955143, 1.0400000493973494, 0.0, 0.0, 0.0, 0.0, 0.0, 1.7103875768390598E9, 0.0, 2024-03-13 20:39:36.839
19.0, -730.4473401457071, 174.733735779766, -508.87135742092505, -20.74709500418976, 0.01600000075995922, -0.17600000835955143, 1.0400000493973494, 0.0, 0.0, 0.0, 0.0, 0.0, 1.7103875768390598E9, 0.0, 2024-03-13 20:39:36.839
20.0, -640.0595680666156, 75.52166975522414, -401.75875273998827, -80.0170295019634, 0.01600000075995922, -0.17600000835955143, 1.0400000493973494, 0.0, 0.0, 0.0, 0.0, 0.0, 1.710387576853066E9, 0.0, 2024-03-13 20:39:36.853
20.0, -559.1580522251315, -121.16527876444161, -393.1083641424775, -252.61154250707477, 0.01600000075995922, -0.17600000835955143, 1.0400000493973494, 0.0, 0.0, 0.0, 0.0, 0.0, 1.710387576853066E9, 0.0, 2024-03-13 20:39:36.853
21.0, -725.3648161059245, -218.24747176421806, -527.0697106053121, -416.39111131662503, 0.01600000075995922, -0.17600000835955143, 1.0400000493973494, 0.0, 0.0, 0.0, 0.0, 0.0, 1.710387576868214E9, 0.0, 2024-03-13 20:39:36.868
21.0, -584.2340814280324, -350.5127735971473, -341.6361210523173, -529.0518575818278, 0.01600000075995922, -0.17600000835955143, 1.0400000493973494, 0.0, 0.0, 0.0, 0.0, 0.0, 1.710387576868214E9, 0.0, 2024-03-13 20:39:36.868
22.0, -704.0193371088244, -347.30767933512107, -507.54930278658867, -467.5342432106845, 0.01600000075995922, -0.17600000835955143, 1.0400000493973494, 0.0, 0.0, 0.0, 0.0, 0.0, 1.7103875768689256E9, 0.0, 2024-03-13 20:39:36.868
22.0, -732.3434694232419, -175.22740257391706, -560.2276636124589, -349.2486874121241, 0.01600000075995922, -0.17600000835955143, 1.0400000493973494, 0.0, 0.0, 0.0, 0.0, 0.0, 1.7103875768689256E9, 0.0, 2024-03-13 20:39:36.868
23.0, -864.9229228524491, -55.88532503787428, -636.4468247094192, -251.414774521254, 0.01600000075995922, -0.17600000835955143, 1.0400000493973494, 0.0, 0.0, 0.0, 0.0, 0.0, 1.7103875768829117E9, 0.0, 2024-03-13 20:39:36.882
23.0, -713.395266297739, 32.27720656758174, -498.8203762900084, -96.81666010292247, 0.01600000075995922, -0.17600000835955143, 1.0400000493973494, 0.0, 0.0, 0.0, 0.0, 0.0, 1.7103875768829117E9, 0.0, 2024-03-13 20:39:36.882
24.0, -828.7094715815037, 197.02727941563353, -665.6330039636232, 58.14609456108883, 0.01600000075995922, -0.17600000835955143, 1.0400000493973494, 0.0, 0.0, 0.0, 0.0, 0.0, 1.7103875768982277E9, 0.0, 2024-03-13 20:39:36.898
24.0, -756.7837156336755, 176.83181965490803, -511.5678252889775, -17.5083416425623, 0.01600000075995922, -0.17600000835955143, 1.0400000493973494, 0.0, 0.0, 0.0, 0.0, 0.0, 1.7103875768982277E9, 0.0, 2024-03-13 20:39:36.898
25.0, -684.5232386398129, 30.934582483489066, -426.96193854138255, -113.72474780259654, 0.01600000075995922, -0.17600000835955143, 1.0400000493973494, 0.0, 0.0, 0.0, 0.0, 0.0, 1.7103875768989053E9, 0.0, 2024-03-13 20:39:36.898
25.0, -513.0974443708546, -53.57406686525792, -339.63153467606753, -168.14216210786253, 0.01600000075995922, -0.17600000835955143, 1.0400000493973494, 0.0, 0.0, 0.0, 0.0, 0.0, 1.7103875768989053E9, 0.0, 2024-03-13 20:39:36.898
26.0, -657.1191217144951, -148.3487415923737, -462.5452166697942, -328.144431962166, 0.01600000075995922, -0.17600000835955143, 1.0400000493973494, 0.0, 0.0, 0.0, 0.0, 0.0, 1.7103875769125388E9, 0.0, 2024-03-13 20:39:36.912
26.0, -539.9536659526639, -298.36360861500725, -287.2168367970735, -471.47609776398167, 0.01600000075995922, -0.17600000835955143, 1.0400000493973494, 0.0, 0.0, 0.0, 0.0, 0.0, 1.7103875769125388E9, 0.0, 2024-03-13 20:39:36.912
27.0, -655.6998296813108, -305.06550933560356, -477.64880264084786, -427.50235408497974, 0.01600000075995922, -0.17600000835955143, 1.0400000493973494, 0.0, 0.0, 0.0, 0.0, 0.0, 1.7103875769281948E9, 0.0, 2024-03-13 20:39:36.928
27.0, -716.8752432065085, -150.0877950717695, -539.2393450611271, -321.7940818374045, 0.01600000075995922, -0.17600000835955143, 1.0400000493973494, 0.0, 0.0, 0.0, 0.0, 0.0, 1.7103875769281948E9, 0.0, 2024-03-13 20:39:36.928
28.0, -859.8179594129324, -50.7280029989779, -642.5765207367949, -256.72543245833367, 0.01600000075995922, -0.17600000835955143, 1.0400000493973494, 0.0, 0.0, 0.0, 0.0, 0.0, 1.7103875769289107E9, 0.0, 2024-03-13 20:39:36.928
28.0, -709.6291870423593, 36.637929915916175, -511.3191219419241, -109.01247385842726, 0.01600000075995922, -0.17600000835955143, 1.0400000493973494, 0.0, 0.0, 0.0, 0.0, 0.0, 1.7103875769289107E9, 0.0, 2024-03-13 20:39:36.928
29.0, -852.0240079052746, 189.6297573032789, -683.4199681528844, 37.58038470475003, 0.01600000075995922, -0.17600000835955143, 1.0400000493973494, 0.0, 0.0, 0.0, 0.0, 0.0, 1.7103875769425092E9, 0.0, 2024-03-13 20:39:36.942
29.0, -750.5006837081164, 177.67703704489395, -530.6375751630403, -37.67388220364228, 0.01600000075995922, -0.17600000835955143, 1.0400000493973494, 0.0, 0.0, 0.0, 0.0, 0.0, 1.7103875769425092E9, 0.0, 2024-03-13 20:39:36.942
30.0, -630.2797296824865, 87.36219301493838, -410.65597473457456, -76.73339734086767, 0.01600000075995922, -0.17600000835955143, 1.0400000493973494, 0.0, 0.0, 0.0, 0.0, 0.0, 1.710387576958223E9, 0.0, 2024-03-13 20:39:36.958
30.0, -473.6153205386363, -1.0808310871943831, -308.42206954583526, -133.46206981875002, 0.01600000075995922, -0.17600000835955143, 1.0400000493973494, 0.0, 0.0, 0.0, 0.0, 0.0, 1.710387576958223E9, 0.0, 2024-03-13 20:39:36.958
31.0, -686.439937367104, -163.06524791801348, -474.2361439312808, -350.082685102243, 0.01600000075995922, -0.1600000075995922, 1.0400000493973494, 0.0, 0.0, 0.0, 0.0, 0.0, 1.7103875769591978E9, 0.0, 2024-03-13 20:39:36.959
31.0, -539.2356051611714, -277.69318155990914, -289.6253323685378, -455.974212447647, 0.01600000075995922, -0.1600000075995922, 1.0400000493973494, 0.0, 0.0, 0.0, 0.0, 0.0, 1.7103875769591978E9, 0.0, 2024-03-13 20:39:36.959
32.0, -612.3805684945546, -239.19091151608154, -416.4490797659382, -360.4197685797699, 0.01600000075995922, -0.1600000075995922, 1.0400000493973494, 0.0, 0.0, 0.0, 0.0, 0.0, 1.7103875769726164E9, 0.0, 2024-03-13 20:39:36.972
32.0, -687.3038542568684, -130.65901480196044, -501.61595150688663, -294.50403186073527, 0.01600000075995922, -0.1600000075995922, 1.0400000493973494, 0.0, 0.0, 0.0, 0.0, 0.0, 1.7103875769726164E9, 0.0, 2024-03-13 20:39:36.972
33.0, -862.1292175855488, -49.83042700961232, -624.1687331548892, -238.03341247979552, 0.01600000075995922, -0.1600000075995922, 1.0400000493973494, 0.0, 0.0, 0.0, 0.0, 0.0, 1.710387576988186E9, 0.0, 2024-03-13 20:39:36.988
33.0, -677.3351509249769, 94.31092713261023, -458.97174226213247, -39.33065788401291, 0.01600000075995922, -0.1600000075995922, 1.0400000493973494, 0.0, 0.0, 0.0, 0.0, 0.0, 1.710387576988186E9, 0.0, 2024-03-13 20:39:36.988
34.0, -811.7228459827602, 230.5704421182163, -632.6583060543053, 91.04599447129294, 0.01600000075995922, -0.1600000075995922, 1.0400000493973494, 0.0, 0.0, 0.0, 0.0, 0.0, 1.7103875769888933E9, 0.0, 2024-03-13 20:39:36.988
34.0, -702.1288176812232, 184.30413976637647, -512.6262169764377, -15.615952264983207, 0.01600000075995922, -0.1600000075995922, 1.0400000493973494, 0.0, 0.0, 0.0, 0.0, 0.0, 1.7103875769888933E9, 0.0, 2024-03-13 20:39:36.988
35.0, -644.3043545163237, 95.88168511399999, -401.8260709391907, -63.640007595997304, 0.01600000075995922, -0.1600000075995922, 1.0400000493973494, 0.0, 0.0, 0.0, 0.0, 0.0, 1.7103875770031085E9, 0.0, 2024-03-13 20:39:37.003
35.0, -488.85915275802836, 3.496806458570063, -297.63993797358125, -122.96791054308414, 0.01600000075995922, -0.1600000075995922, 1.0400000493973494, 0.0, 0.0, 0.0, 0.0, 0.0, 1.7103875770031085E9, 0.0, 2024-03-13 20:39:37.003
36.0, -641.5349585991353, -142.0844091665931, -458.7492182147689, -334.24046888994053, 0.01600000075995922, -0.1600000075995922, 1.0400000493973494, 0.0, 0.0, 0.0, 0.0, 0.0, 1.7103875770187645E9, 0.0, 2024-03-13 20:39:37.018
36.0, -504.0431465781294, -259.41629047645256, -270.48078449536115, -443.83823709143326, 0.01600000075995922, -0.1600000075995922, 1.0400000493973494, 0.0, 0.0, 0.0, 0.0, 0.0, 1.7103875770187645E9, 0.0, 2024-03-13 20:39:37.018
37.0, -613.2482252842747, -243.3982989662327, -435.41037254128605, -371.3477562502958, 0.01600000075995922, -0.1600000075995922, 1.0400000493973494, 0.0, 0.0, 0.0, 0.0, 0.0, 1.7103875770192E9, 0.0, 2024-03-13 20:39:37.019
37.0, -720.933034658432, -149.9419389734976, -532.6646009390242, -319.59128076350316, 0.01600000075995922, -0.1600000075995922, 1.0400000493973494, 0.0, 0.0, 0.0, 0.0, 0.0, 1.7103875770192E9, 0.0, 2024-03-13 20:39:37.019
38.0, -849.9259240301326, -36.26580987032503, -626.7118651247583, -237.61080378480256, 0.01600000075995922, -0.1600000075995922, 1.0400000493973494, 0.0, 0.0, 0.0, 0.0, 0.0, 1.7103875770325692E9, 0.0, 2024-03-13 20:39:37.032
38.0, -654.7498950925656, 112.30732571939006, -453.16741753090173, -33.06258555827662, 0.01600000075995922, -0.1600000075995922, 1.0400000493973494, 0.0, 0.0, 0.0, 0.0, 0.0, 1.7103875770325692E9, 0.0, 2024-03-13 20:39:37.032
39.0, -808.8842619163916, 234.0223697773181, -640.8823460568674, 84.134659353178, 0.01600000075995922, -0.1600000075995922, 1.0400000493973494, 0.0, 0.0, 0.0, 0.0, 0.0, 1.7103875770483139E9, 0.0, 2024-03-13 20:39:37.048
39.0, -699.2752740150318, 208.8266637758352, -490.23543594172224, 8.62233934784308, 0.01600000075995922, -0.1600000075995922, 1.0400000493973494, 0.0, 0.0, 0.0, 0.0, 0.0, 1.7103875770483139E9, 0.0, 2024-03-13 20:39:37.048
40.0, -622.8934272699989, 109.80533264903352, -379.07999940868467, -39.798145378474146, 0.01600000075995922, -0.1600000075995922, 1.0400000493973494, 0.0, 0.0, 0.0, 0.0, 0.0, 1.7103875770491428E9, 0.0, 2024-03-13 20:39:37.049
40.0, -486.97424318036065, -3.5641246577724814, -298.6310114618391, -120.45095787290484, 0.01600000075995922, -0.1600000075995922, 1.0400000493973494, 0.0, 0.0, 0.0, 0.0, 0.0, 1.7103875770491428E9, 0.0, 2024-03-13 20:39:37.049
41.0, -666.7942428998649, -150.44682546751574, -459.24288500892, -338.1037855441682, 0.01600000075995922, -0.1600000075995922, 1.0400000493973494, 0.0, 0.0, 0.0, 0.0, 0.0, 1.7103875770626123E9, 0.0, 2024-03-13 20:39:37.062
41.0, -510.4907341017388, -260.1380911679007, -277.9905036063865, -443.38944909675047, 0.01600000075995922, -0.1600000075995922, 1.0400000493973494, 0.0, 0.0, 0.0, 0.0, 0.0, 1.7103875770626123E9, 0.0, 2024-03-13 20:39:37.062
42.0, -621.7976365829818, -259.79028047202155, -434.19116515573114, -376.74069198640063, 0.01600000075995922, -0.1600000075995922, 1.0400000493973494, 0.0, 0.0, 0.0, 0.0, 0.0, 1.7103875770781896E9, 0.0, 2024-03-13 20:39:37.078
42.0, -709.1037310985848, -136.20902633620426, -515.939768337179, -304.4559056428261, 0.01600000075995922, -0.1600000075995922, 1.0400000493973494, 0.0, 0.0, 0.0, 0.0, 0.0, 1.7103875770781896E9, 0.0, 2024-03-13 20:39:37.078
43.0, -859.4738886170089, -55.59361284133047, -633.7578366412781, -248.677167753689, 0.01600000075995922, -0.1600000075995922, 1.0400000493973494, 0.0, 0.0, 0.0, 0.0, 0.0, 1.7103875770790873E9, 0.0, 2024-03-13 20:39:37.079
43.0, -665.4160897661932, 100.26110796211287, -457.2177291829139, -34.73432083847001, 0.01600000075995922, -0.1600000075995922, 1.0400000493973494, 0.0, 0.0, 0.0, 0.0, 0.0, 1.7103875770790873E9, 0.0, 2024-03-13 20:39:37.079
44.0, -825.1154277240857, 218.7523582582362, -652.9547431138344, 73.45350507972762, 0.01600000075995922, -0.1600000075995922, 1.0400000493973494, 0.0, 0.0, 0.0, 0.0, 0.0, 1.710387577092496E9, 0.0, 2024-03-13 20:39:37.092
44.0, -738.2599911531433, 168.71997665101662, -525.3418768257834, -29.760253897402436, 0.01600000075995922, -0.1600000075995922, 1.0400000493973494, 0.0, 0.0, 0.0, 0.0, 0.0, 1.710387577092496E9, 0.0, 2024-03-13 20:39:37.092
45.0, -623.1851394665428, 91.18811066960916, -404.20464731100947, -64.99011148000136, 0.01600000075995922, -0.1600000075995922, 1.0400000493973494, 0.0, 0.0, 0.0, 0.0, 0.0, 1.7103875771083648E9, 0.0, 2024-03-13 20:39:37.108
45.0, -466.3486949247308, 7.23296651430428, -300.8487721355632, -121.98057695478201, 0.01600000075995922, -0.1600000075995922, 1.0400000493973494, 0.0, 0.0, 0.0, 0.0, 0.0, 1.7103875771083648E9, 0.0, 2024-03-13 20:39:37.108
46.0, -693.8636387791485, -166.96970347175375, -481.0352820507251, -350.78952619386837, 0.01600000075995922, -0.1600000075995922, 1.0400000493973494, 0.0, 0.0, 0.0, 0.0, 0.0, 1.7103875771089346E9, 0.0, 2024-03-13 20:39:37.108
46.0, -539.6133350566961, -263.04773333342746, -279.48272368870676, -443.5988834942691, 0.01600000075995922, -0.1600000075995922, 1.0400000493973494, 0.0, 0.0, 0.0, 0.0, 0.0, 1.7103875771089346E9, 0.0, 2024-03-13 20:39:37.108
47.0, -610.4433003175072, -227.63836055295542, -421.9355130009353, -357.24085361743346, 0.01600000075995922, -0.1600000075995922, 1.0400000493973494, 0.0, 0.0, 0.0, 0.0, 0.0, 1.7103875771225417E9, 0.0, 2024-03-13 20:39:37.122
47.0, -689.9479635255411, -137.28237762348726, -527.1781677040271, -311.3597609610297, 0.01600000075995922, -0.1600000075995922, 1.0400000493973494, 0.0, 0.0, 0.0, 0.0, 0.0, 1.7103875771225417E9, 0.0, 2024-03-13 20:39:37.122
48.0, -849.3125804373994, -46.27378215175122, -636.6525192069821, -248.05260446108878, 0.01600000075995922, -0.1600000075995922, 1.0400000493973494, 0.0, 0.0, 0.0, 0.0, 0.0, 1.710387577138363E9, 0.0, 2024-03-13 20:39:37.138
48.0, -666.5679789525457, 93.15903794625774, -459.64492425415665, -43.94195452937856, 0.01600000075995922, -0.1600000075995922, 1.0400000493973494, 0.0, 0.0, 0.0, 0.0, 0.0, 1.710387577138363E9, 0.0, 2024-03-13 20:39:37.138
49.0, -807.3060241350904, 226.41541326744482, -646.1967438939027, 73.52456317888573, 0.01600000075995922, -0.1600000075995922, 1.0400000493973494, 0.0, 0.0, 0.0, 0.0, 0.0, 1.710387577139007E9, 0.0, 2024-03-13 20:39:37.139
49.0, -724.8187907123938, 179.26649452606216, -515.2142277457751, -21.59605229413137, 0.01600000075995922, -0.1600000075995922, 1.0400000493973494, 0.0, 0.0, 0.0, 0.0, 0.0, 1.710387577139007E9, 0.0, 2024-03-13 20:39:37.139
50.0, -632.6022075549699, 85.73907643416896, -400.6667019529268, -63.213659001048654, 0.01600000075995922, -0.1600000075995922, 1.0400000493973494, 0.0, 0.0, 0.0, 0.0, 0.0, 1.7103875771529007E9, 0.0, 2024-03-13 20:39:37.152
50.0, -496.02106117317453, -13.729172737337649, -311.27935311198235, -141.67863002140075, 0.01600000075995922, -0.1600000075995922, 1.0400000493973494, 0.0, 0.0, 0.0, 0.0, 0.0, 1.7103875771529007E9, 0.0, 2024-03-13 20:39:37.152
51.0, -671.629933542572, -166.88742567272857, -468.529056598898, -346.76165394159034, 0.01600000075995922, -0.1600000075995922, 1.0400000493973494, 0.0, 0.0, 0.0, 0.0, 0.0, 1.7103875771683836E9, 0.0, 2024-03-13 20:39:37.168
51.0, -527.7653319970705, -273.50449360953644, -274.63207344617695, -446.21681346325204, 0.01600000075995922, -0.1600000075995922, 1.0400000493973494, 0.0, 0.0, 0.0, 0.0, 0.0, 1.7103875771683836E9, 0.0, 2024-03-13 20:39:37.168
52.0, -627.9796912097372, -258.0699264924042, -437.4635776169598, -376.32182319136336, 0.01600000075995922, -0.1600000075995922, 1.0400000493973494, 0.0, 0.0, 0.0, 0.0, 0.0, 1.7103875771689942E9, 0.0, 2024-03-13 20:39:37.168
52.0, -711.5010069701821, -156.99165038997307, -532.2120730443858, -323.5069560171105, 0.01600000075995922, -0.1600000075995922, 1.0400000493973494, 0.0, 0.0, 0.0, 0.0, 0.0, 1.7103875771689942E9, 0.0, 2024-03-13 20:39:37.168
53.0, -867.5857316209003, -53.25617536902428, -635.0406223260798, -250.8612693278119, 0.01600000075995922, -0.1600000075995922, 1.0400000493973494, 0.0, 0.0, 0.0, 0.0, 0.0, 1.710387577182521E9, 0.0, 2024-03-13 20:39:37.182
53.0, -677.8736965185963, 83.71205065818503, -479.1485025230795, -56.373381982091814, 0.01600000075995922, -0.1600000075995922, 1.0400000493973494, 0.0, 0.0, 0.0, 0.0, 0.0, 1.710387577182521E9, 0.0, 2024-03-13 20:39:37.182
54.0, -833.5563819240779, 202.73436674801633, -668.3294718316756, 56.739892177749425, 0.01600000075995922, -0.1600000075995922, 1.0400000493973494, 0.0, 0.0, 0.0, 0.0, 0.0, 1.7103875771982715E9, 0.0, 2024-03-13 20:39:37.198
54.0, -732.089156226255, 165.1371524934657, -522.320037661586, -31.19637548038736, 0.01600000075995922, -0.1600000075995922, 1.0400000493973494, 0.0, 0.0, 0.0, 0.0, 0.0, 1.7103875771982715E9, 0.0, 2024-03-13 20:39:37.198
55.0, -637.714650794398, 80.166625500191, -411.6320886230096, -78.9436782146804, 0.01600000075995922, -0.1600000075995922, 1.0400000493973494, 0.0, 0.0, 0.0, 0.0, 0.0, 1.7103875771990385E9, 0.0, 2024-03-13 20:39:37.199
55.0, -506.35440475074574, -19.900007664225996, -319.1181834191084, -143.8066330961883, 0.01600000075995922, -0.1600000075995922, 1.0400000493973494, 0.0, 0.0, 0.0, 0.0, 0.0, 1.7103875771990385E9, 0.0, 2024-03-13 20:39:37.199
56.0, -696.2309954511002, -166.7677488741465, -471.9174059587531, -351.8815769809298, 0.01600000075995922, -0.1600000075995922, 1.0400000493973494, 0.0, 0.0, 0.0, 0.0, 0.0, 1.7103875772125323E9, 0.0, 2024-03-13 20:39:37.212
56.0, -531.6847471506335, -266.4510422931053, -276.8086952203885, -441.0707111242227, 0.01600000075995922, -0.1600000075995922, 1.0400000493973494, 0.0, 0.0, 0.0, 0.0, 0.0, 1.7103875772125323E9, 0.0, 2024-03-13 20:39:37.212
57.0, -631.854227563832, -248.2078103092499, -433.5441624633968, -369.47032647253945, 0.01600000075995922, -0.1600000075995922, 1.0400000493973494, 0.0, 0.0, 0.0, 0.0, 0.0, 1.710387577228254E9, 0.0, 2024-03-13 20:39:37.228
57.0, -715.566278222017, -142.18912636535242, -514.1595759582706, -305.0542896357365, 0.01600000075995922, -0.1600000075995922, 1.0400000493973494, 0.0, 0.0, 0.0, 0.0, 0.0, 1.710387577228254E9, 0.0, 2024-03-13 20:39:37.228
58.0, -881.1054699607193, -50.537268101237714, -631.8018689644523, -250.29280453454703, 0.01600000075995922, -0.1600000075995922, 1.0400000493973494, 0.0, 0.0, 0.0, 0.0, 0.0, 1.710387577229129E9, 0.0, 2024-03-13 20:39:37.229
58.0, -684.5007992400788, 94.84573282627389, -462.0384602257982, -40.48628697032109, 0.01600000075995922, -0.1600000075995922, 1.0400000493973494, 0.0, 0.0, 0.0, 0.0, 0.0, 1.710387577229129E9, 0.0, 2024-03-13 20:39:37.229
59.0, -820.5116108786315, 214.50757180852816, -643.7658089227043, 76.30704874591902, 0.01600000075995922, -0.1600000075995922, 1.0400000493973494, 0.0, 0.0, 0.0, 0.0, 0.0, 1.7103875772425008E9, 0.0, 2024-03-13 20:39:37.242
59.0, -726.4493870930746, 165.96741028362885, -513.8454243619926, -22.30663328571245, 0.01600000075995922, -0.1600000075995922, 1.0400000493973494, 0.0, 0.0, 0.0, 0.0, 0.0, 1.7103875772425008E9, 0.0, 2024-03-13 20:39:37.242
60.0, -613.1397681855597, 91.71917646331713, -399.5559516660869, -62.11412841407582, 0.01600000075995922, -0.1600000075995922, 1.0400000493973494, 0.0, 0.0, 0.0, 0.0, 0.0, 1.710387577258238E9, 0.0, 2024-03-13 20:39:37.258
60.0, -490.26535514136776, -21.964432439766824, -320.1990145063028, -146.74619446136057, 0.01600000075995922, -0.1600000075995922, 1.0400000493973494, 0.0, 0.0, 0.0, 0.0, 0.0, 1.710387577258238E9, 0.0, 2024-03-13 20:39:37.258
61.0, -678.2906953636557, -175.33211977267638, -475.7283640136011, -357.0463788197376, 0.01600000075995922, -0.17600000835955143, 1.0400000493973494, 0.0, 0.0, 0.0, 0.0, 0.0, 1.7103875772591054E9, 0.0, 2024-03-13 20:39:37.259
61.0, -512.4018229790963, -271.39519003452733, -278.11766020487994, -449.6463017226197, 0.01600000075995922, -0.17600000835955143, 1.0400000493973494, 0.0, 0.0, 0.0, 0.0, 0.0, 1.7103875772591054E9, 0.0, 2024-03-13 20:39:37.259
62.0, -629.4906107918359, -259.83141937153414, -433.2412305669859, -376.46767928963527, 0.01600000075995922, -0.17600000835955143, 1.0400000493973494, 0.0, 0.0, 0.0, 0.0, 0.0, 1.7103875772725544E9, 0.0, 2024-03-13 20:39:37.272
62.0, -704.724308250472, -151.10878775967285, -523.9207148426212, -314.29184252629057, 0.01600000075995922, -0.17600000835955143, 1.0400000493973494, 0.0, 0.0, 0.0, 0.0, 0.0, 1.7103875772725544E9, 0.0, 2024-03-13 20:39:37.272
63.0, -867.0397062273696, -61.09500567615032, -641.948217544239, -255.88769486825913, 0.01600000075995922, -0.17600000835955143, 1.0400000493973494, 0.0, 0.0, 0.0, 0.0, 0.0, 1.7103875772884867E9, 0.0, 2024-03-13 20:39:37.288
63.0, -667.8844237369485, 98.67539038090035, -459.97029555030167, -39.33813768392429, 0.01600000075995922, -0.17600000835955143, 1.0400000493973494, 0.0, 0.0, 0.0, 0.0, 0.0, 1.7103875772884867E9, 0.0, 2024-03-13 20:39:37.288
64.0, -821.2708105696365, 220.31563643971458, -648.8520728624426, 76.52396294334903, 0.01600000075995922, -0.17600000835955143, 1.0400000493973494, 0.0, 0.0, 0.0, 0.0, 0.0, 1.710387577288994E9, 0.0, 2024-03-13 20:39:37.288
64.0, -733.921707204543, 177.6919966447167, -514.2119345576502, -21.278160797897726, 0.01600000075995922, -0.17600000835955143, 1.0400000493973494, 0.0, 0.0, 0.0, 0.0, 0.0, 1.710387577288994E9, 0.0, 2024-03-13 20:39:37.288
65.0, -637.7520497939549, 93.78360123885795, -392.2556669525802, -60.65930733131245, 0.01600000075995922, -0.17600000835955143, 1.0400000493973494, 0.0, 0.0, 0.0, 0.0, 0.0, 1.7103875773030856E9, 0.0, 2024-03-13 20:39:37.303
65.0, -467.26123051391914, -2.210280873812735, -311.13349701371044, -128.70865697506815, 0.01600000075995922, -0.17600000835955143, 1.0400000493973494, 0.0, 0.0, 0.0, 0.0, 0.0, 1.7103875773030856E9, 0.0, 2024-03-13 20:39:37.303
66.0, -673.0697950255126, -173.3200535965152, -484.0309419152327, -359.50723299058154, 0.01600000075995922, -0.17600000835955143, 1.0400000493973494, 0.0, 0.0, 0.0, 0.0, 0.0, 1.7103875773188925E9, 0.0, 2024-03-13 20:39:37.318
66.0, -509.82877180958167, -270.42655594600365, -283.8322273371741, -446.80023785633966, 0.01600000075995922, -0.17600000835955143, 1.0400000493973494, 0.0, 0.0, 0.0, 0.0, 0.0, 1.7103875773188925E9, 0.0, 2024-03-13 20:39:37.318
67.0, -611.1127424095757, -245.52256214106455, -425.533296758309, -364.9637470259331, 0.01600000075995922, -0.17600000835955143, 1.0400000493973494, 0.0, 0.0, 0.0, 0.0, 0.0, 1.7103875773192031E9, 0.0, 2024-03-13 20:39:37.319
67.0, -701.5827922876924, -144.03663694346324, -516.7849857271649, -305.2338048336096, 0.01600000075995922, -0.17600000835955143, 1.0400000493973494, 0.0, 0.0, 0.0, 0.0, 0.0, 1.7103875773192031E9, 0.0, 2024-03-13 20:39:37.319
68.0, -856.2463549552485, -40.005709826014936, -610.4171210178174, -225.19433593191206, 0.01600000075995922, -0.17600000835955143, 1.0400000493973494, 0.0, 0.0, 0.0, 0.0, 0.0, 1.7103875773325422E9, 0.0, 2024-03-13 20:39:37.332
68.0, -688.8577826884575, 79.38124650949612, -476.43707505520433, -50.36710265325382, 0.01600000075995922, -0.17600000835955143, 1.0400000493973494, 0.0, 0.0, 0.0, 0.0, 0.0, 1.7103875773325422E9, 0.0, 2024-03-13 20:39:37.332
69.0, -844.675104492344, 207.79819128802046, -656.4440697724931, 69.54530962603167, 0.01600000075995922, -0.17600000835955143, 1.0400000493973494, 0.0, 0.0, 0.0, 0.0, 0.0, 1.7103875773482623E9, 0.0, 2024-03-13 20:39:37.348
69.0, -745.4630384678021, 172.83012670231983, -509.1481100176461, -20.537660606671125, 0.01600000075995922, -0.17600000835955143, 1.0400000493973494, 0.0, 0.0, 0.0, 0.0, 0.0, 1.7103875773482623E9, 0.0, 2024-03-13 20:39:37.348
70.0, -638.6571055832319, 86.01582903089002, -407.4508804725483, -67.11063475487754, 0.01600000075995922, -0.17600000835955143, 1.0400000493973494, 0.0, 0.0, 0.0, 0.0, 0.0, 1.710387577348987E9, 0.0, 2024-03-13 20:39:37.348
70.0, -489.56225394969806, -8.568110798485577, -313.1941818892956, -133.6902037160471, 0.01600000075995922, -0.17600000835955143, 1.0400000493973494, 0.0, 0.0, 0.0, 0.0, 0.0, 1.710387577348987E9, 0.0, 2024-03-13 20:39:37.348
71.0, -658.0877558030188, -154.36624062107876, -461.8383755781688, -340.50106141576543, 0.01600000075995922, -0.1600000075995922, 1.0400000493973494, 0.0, 0.0, 0.0, 0.0, 0.0, 1.710387577362645E9, 0.0, 2024-03-13 20:39:37.362
71.0, -520.0947971879505, -273.9607614041306, -278.2747360030189, -441.5531582185067, 0.01600000075995922, -0.1600000075995922, 1.0400000493973494, 0.0, 0.0, 0.0, 0.0, 0.0, 1.710387577362645E9, 0.0, 2024-03-13 20:39:37.362
72.0, -641.0282021551393, -261.20396265527233, -435.70208473782986, -373.0494107301347, 0.01600000075995922, -0.1600000075995922, 1.0400000493973494, 0.0, 0.0, 0.0, 0.0, 0.0, 1.7103875773782847E9, 0.0, 2024-03-13 20:39:37.378
72.0, -713.1166437510401, -158.6820851699449, -525.9215613189153, -318.8769598719664, 0.01600000075995922, -0.1600000075995922, 1.0400000493973494, 0.0, 0.0, 0.0, 0.0, 0.0, 1.7103875773782847E9, 0.0, 2024-03-13 20:39:37.378
73.0, -868.3598909117281, -44.68058477062732, -616.247625048738, -231.61200425587595, 0.01600000075995922, -0.1600000075995922, 1.0400000493973494, 0.0, 0.0, 0.0, 0.0, 0.0, 1.7103875773789644E9, 0.0, 2024-03-13 20:39:37.378
73.0, -673.8196449666284, 94.24360893340781, -460.56493964325637, -36.230280820745975, 0.01600000075995922, -0.1600000075995922, 1.0400000493973494, 0.0, 0.0, 0.0, 0.0, 0.0, 1.7103875773789644E9, 0.0, 2024-03-13 20:39:37.378
74.0, -805.0620841616765, 226.28451676899567, -639.2405299763195, 88.34952660324052, 0.01600000075995922, -0.1600000075995922, 1.0400000493973494, 0.0, 0.0, 0.0, 0.0, 0.0, 1.710387577392701E9, 0.0, 2024-03-13 20:39:37.392
74.0, -744.1765128830448, 163.577614211943, -519.3655166965909, -30.40725658973679, 0.01600000075995922, -0.1600000075995922, 1.0400000493973494, 0.0, 0.0, 0.0, 0.0, 0.0, 1.710387577392701E9, 0.0, 2024-03-13 20:39:37.392
75.0, -642.5653010369278, 74.93076556222513, -414.1153821935877, -83.95888405526057, 0.01600000075995922, -0.1600000075995922, 1.0400000493973494, 0.0, 0.0, 0.0, 0.0, 0.0, 1.7103875774082344E9, 0.0, 2024-03-13 20:39:37.408
75.0, -480.4256783579476, -12.46882645227015, -319.5220926143229, -140.1452710395679, 0.01600000075995922, -0.1600000075995922, 1.0400000493973494, 0.0, 0.0, 0.0, 0.0, 0.0, 1.7103875774082344E9, 0.0, 2024-03-13 20:39:37.408
76.0, -673.0099566262215, -179.4347900240682, -490.8824386340566, -369.76203866908327, 0.01600000075995922, -0.1600000075995922, 1.0400000493973494, 0.0, 0.0, 0.0, 0.0, 0.0, 1.7103875774089377E9, 0.0, 2024-03-13 20:39:37.408
76.0, -531.5089718527161, -292.57798338355497, -310.9539818158373, -478.9783370750956, 0.01600000075995922, -0.1600000075995922, 1.0400000493973494, 0.0, 0.0, 0.0, 0.0, 0.0, 1.7103875774089377E9, 0.0, 2024-03-13 20:39:37.408
77.0, -619.310603112448, -252.59471295727417, -442.59472035616636, -382.52257731789723, 0.01600000075995922, -0.1600000075995922, 1.0400000493973494, 0.0, 0.0, 0.0, 0.0, 0.0, 1.7103875774230974E9, 0.0, 2024-03-13 20:39:37.423
77.0, -701.2424613917246, -146.89018060965464, -529.8895951719023, -322.40742543013766, 0.01600000075995922, -0.1600000075995922, 1.0400000493973494, 0.0, 0.0, 0.0, 0.0, 0.0, 1.7103875774230974E9, 0.0, 2024-03-13 20:39:37.423
78.0, -854.49234187603, -57.0259945243597, -626.9250394222327, -251.90470141544938, 0.01600000075995922, -0.1600000075995922, 1.0400000493973494, 0.0, 0.0, 0.0, 0.0, 0.0, 1.7103875774382615E9, 0.0, 2024-03-13 20:39:37.438
78.0, -665.6741428631358, 94.78589442698285, -463.4745818087831, -43.859676730353385, 0.01600000075995922, -0.1600000075995922, 1.0400000493973494, 0.0, 0.0, 0.0, 0.0, 0.0, 1.7103875774382615E9, 0.0, 2024-03-13 20:39:37.438
79.0, -797.6234231498092, 221.74053832283244, -644.7681021108292, 75.00556356133893, 0.01600000075995922, -0.1600000075995922, 1.0400000493973494, 0.0, 0.0, 0.0, 0.0, 0.0, 1.7103875774390204E9, 0.0, 2024-03-13 20:39:37.439
79.0, -735.3428691877052, 170.55626752926037, -514.9486948489211, -26.065232741180807, 0.01600000075995922, -0.1600000075995922, 1.0400000493973494, 0.0, 0.0, 0.0, 0.0, 0.0, 1.7103875774390204E9, 0.0, 2024-03-13 20:39:37.439
80.0, -648.7735349633731, 73.32260858127847, -416.99136525951326, -81.82340118056163, 0.01600000075995922, -0.1600000075995922, 1.0400000493973494, 0.0, 0.0, 0.0, 0.0, 0.0, 1.71038757745259E9, 0.0, 2024-03-13 20:39:37.452
80.0, -491.3948049279861, -14.07698343321681, -311.1073177140206, -134.11655231099576, 0.01600000075995922, -0.1600000075995922, 1.0400000493973494, 0.0, 0.0, 0.0, 0.0, 0.0, 1.71038757745259E9, 0.0, 2024-03-13 20:39:37.452
81.0, -657.8334426060319, -165.9449708838947, -469.70712508494034, -350.082685102243, 0.01600000075995922, -0.17600000835955143, 1.0400000493973494, 0.0, 0.0, 0.0, 0.0, 0.0, 1.710387577468505E9, 0.0, 2024-03-13 20:39:37.468
81.0, -532.0923962458037, -275.16126928990707, -274.7928891442716, -449.76971842115745, 0.01600000075995922, -0.17600000835955143, 1.0400000493973494, 0.0, 0.0, 0.0, 0.0, 0.0, 1.710387577468505E9, 0.0, 2024-03-13 20:39:37.468
82.0, -609.8486562245525, -237.25738323898986, -423.70448567997664, -360.95457427343354, 0.01600000075995922, -0.17600000835955143, 1.0400000493973494, 0.0, 0.0, 0.0, 0.0, 0.0, 1.710387577468986E9, 0.0, 2024-03-13 20:39:37.468
82.0, -717.555904998444, -159.1645322642289, -535.1628541094251, -325.8443934894167, 0.01600000075995922, -0.17600000835955143, 1.0400000493973494, 0.0, 0.0, 0.0, 0.0, 0.0, 1.710387577468986E9, 0.0, 2024-03-13 20:39:37.468
83.0, -865.4128497466445, -64.41603683680296, -650.800560739357, -266.1948591461405, 0.01600000075995922, -0.17600000835955143, 1.0400000493973494, 0.0, 0.0, 0.0, 0.0, 0.0, 1.7103875774825792E9, 0.0, 2024-03-13 20:39:37.482
83.0, -670.9586215005256, 88.22237000474706, -474.559645277448, -52.756898724939674, 0.01600000075995922, -0.17600000835955143, 1.0400000493973494, 0.0, 0.0, 0.0, 0.0, 0.0, 1.7103875774825792E9, 0.0, 2024-03-13 20:39:37.482
84.0, -797.8889560466632, 232.41047289641574, -645.8227538983338, 78.88383981538936, 0.01600000075995922, -0.17600000835955143, 1.0400000493973494, 0.0, 0.0, 0.0, 0.0, 0.0, 1.710387577498284E9, 0.0, 2024-03-13 20:39:37.498
84.0, -744.6963589768857, 168.9181913486682, -516.9196221255697, -35.16814923333004, 0.01600000075995922, -0.17600000835955143, 1.0400000493973494, 0.0, 0.0, 0.0, 0.0, 0.0, 1.710387577498284E9, 0.0, 2024-03-13 20:39:37.498
85.0, -638.2157973884605, 82.50780287245288, -423.96627867687494, -83.44651776133105, 0.01600000075995922, -0.17600000835955143, 1.0400000493973494, 0.0, 0.0, 0.0, 0.0, 0.0, 1.7103875774989643E9, 0.0, 2024-03-13 20:39:37.498
85.0, -457.0849627344869, 18.50502498075366, -301.04324693325907, -117.38050000928342, 0.01600000075995922, -0.17600000835955143, 1.0400000493973494, 0.0, 0.0, 0.0, 0.0, 0.0, 1.7103875774989643E9, 0.0, 2024-03-13 20:39:37.498
86.0, -669.4121728688478, -160.33512095035985, -473.15531284408644, -351.20465508894995, 0.01600000075995922, -0.17600000835955143, 1.0400000493973494, 0.0, 0.0, 0.0, 0.0, 0.0, 1.7103875775125625E9, 0.0, 2024-03-13 20:39:37.512
86.0, -507.5848318361677, -268.1152977733873, -285.64233891572803, -452.06227709399536, 0.01600000075995922, -0.17600000835955143, 1.0400000493973494, 0.0, 0.0, 0.0, 0.0, 0.0, 1.7103875775125625E9, 0.0, 2024-03-13 20:39:37.512
87.0, -646.3164206924848, -250.63874528044835, -437.44861801713705, -373.202746628318, 0.01600000075995922, -0.17600000835955143, 1.0400000493973494, 0.0, 0.0, 0.0, 0.0, 0.0, 1.7103875775279872E9, 0.0, 2024-03-13 20:39:37.527
87.0, -730.8849084405228, -144.20867234142497, -518.7110342043452, -308.52491679461673, 0.01600000075995922, -0.17600000835955143, 1.0400000493973494, 0.0, 0.0, 0.0, 0.0, 0.0, 1.7103875775279872E9, 0.0, 2024-03-13 20:39:37.527
88.0, -866.8078324301168, -53.79472096264362, -635.8185215168633, -245.2626390941441, 0.01600000075995922, -0.17600000835955143, 1.0400000493973494, 0.0, 0.0, 0.0, 0.0, 0.0, 1.7103875775434372E9, 0.0, 2024-03-13 20:39:37.543
88.0, -650.9277173378505, 106.54787978762761, -452.2174829421565, -30.126764093060046, 0.01600000075995922, -0.17600000835955143, 1.0400000493973494, 0.0, 0.0, 0.0, 0.0, 0.0, 1.7103875775434372E9, 0.0, 2024-03-13 20:39:37.543
89.0, -816.898867521435, 225.8693878739141, -636.9517112034373, 86.47209682548419, 0.01600000075995922, -0.17600000835955143, 1.0400000493973494, 0.0, 0.0, 0.0, 0.0, 0.0, 1.7103875775441453E9, 0.0, 2024-03-13 20:39:37.544
89.0, -726.8046775888652, 175.93424366554245, -507.521253536921, -18.74250862793997, 0.01600000075995922, -0.17600000835955143, 1.0400000493973494, 0.0, 0.0, 0.0, 0.0, 0.0, 1.7103875775441453E9, 0.0, 2024-03-13 20:39:37.544
90.0, -639.3377673751675, 82.35072707431391, -406.0484179891646, -67.48836465040222, 0.01600000075995922, -0.17600000835955143, 1.0560000501573086, 0.0, 0.0, 0.0, 0.0, 0.0, 1.7103875775582528E9, 0.0, 2024-03-13 20:39:37.558
90.0, -473.2413305430673, 9.66764138545841, -296.85829888284206, -115.27119643427432, 0.01600000075995922, -0.17600000835955143, 1.0560000501573086, 0.0, 0.0, 0.0, 0.0, 0.0, 1.7103875775582528E9, 0.0, 2024-03-13 20:39:37.558
91.0, -666.9251393983141, -158.89525946741924, -454.58670956408605, -337.75971474824473, 0.01600000075995922, -0.17600000835955143, 1.0560000501573086, 0.0, 0.0, 0.0, 0.0, 0.0, 1.710387577558984E9, 0.0, 2024-03-13 20:39:37.558
91.0, -518.9952666009776, -265.87509769992903, -271.4942973833531, -437.62252336507663, 0.01600000075995922, -0.17600000835955143, 1.0560000501573086, 0.0, 0.0, 0.0, 0.0, 0.0, 1.710387577558984E9, 0.0, 2024-03-13 20:39:37.558
92.0, -610.7798913135193, -238.27089612698182, -412.6418616110459, -350.83440499333665, 0.01600000075995922, -0.17600000835955143, 1.0560000501573086, 0.0, 0.0, 0.0, 0.0, 0.0, 1.710387577572601E9, 0.0, 2024-03-13 20:39:37.572
92.0, -727.1300488850102, -142.47335876198485, -521.8226309674792, -310.40234657237306, 0.01600000075995922, -0.17600000835955143, 1.0560000501573086, 0.0, 0.0, 0.0, 0.0, 0.0, 1.710387577572601E9, 0.0, 2024-03-13 20:39:37.572
93.0, -868.7376208072528, -48.96651011984795, -631.8243083641864, -247.38316236902028, 0.01600000075995922, -0.17600000835955143, 1.0560000501573086, 0.0, 0.0, 0.0, 0.0, 0.0, 1.7103875775886793E9, 0.0, 2024-03-13 20:39:37.588
93.0, -691.3635156587698, 85.41370513802394, -473.42271569091827, -49.125455867964774, 0.01600000075995922, -0.17600000835955143, 1.0560000501573086, 0.0, 0.0, 0.0, 0.0, 0.0, 1.7103875775886793E9, 0.0, 2024-03-13 20:39:37.588
94.0, -817.1270014187321, 221.14963412983343, -647.5356280780397, 70.91785290976986, 0.01600000075995922, -0.17600000835955143, 1.0560000501573086, 0.0, 0.0, 0.0, 0.0, 0.0, 1.7103875775890112E9, 0.0, 2024-03-13 20:39:37.589
94.0, -719.9831000696868, 176.67100395681337, -517.7872789152898, -29.341385102365166, 0.01600000075995922, -0.17600000835955143, 1.0560000501573086, 0.0, 0.0, 0.0, 0.0, 0.0, 1.7103875775890112E9, 0.0, 2024-03-13 20:39:37.589
95.0, -630.1376134841703, 91.79397446243092, -406.2279331870377, -69.96417842106894, 0.01600000075995922, -0.17600000835955143, 1.0560000501573086, 0.0, 0.0, 0.0, 0.0, 0.0, 1.710387577602537E9, 0.0, 2024-03-13 20:39:37.602
95.0, -474.9168057232164, 0.14211619831621647, -303.9192299991846, -128.4281644783914, 0.01600000075995922, -0.17600000835955143, 1.0560000501573086, 0.0, 0.0, 0.0, 0.0, 0.0, 1.710387577602537E9, 0.0, 2024-03-13 20:39:37.602
96.0, -674.1319266129285, -165.71683698659763, -483.5036160214804, -357.87289670994505, 0.01600000075995922, -0.17600000835955143, 1.0560000501573086, 0.0, 0.0, 0.0, 0.0, 0.0, 1.7103875776184478E9, 0.0, 2024-03-13 20:39:37.618
96.0, -499.19623623555526, -255.97932241717353, -269.26157710980624, -436.16770228231326, 0.01600000075995922, -0.17600000835955143, 1.0560000501573086, 0.0, 0.0, 0.0, 0.0, 0.0, 1.7103875776184478E9, 0.0, 2024-03-13 20:39:37.618
97.0, -612.9864322873764, -227.42892615543678, -417.8590220492333, -347.3263788348995, 0.01600000075995922, -0.17600000835955143, 1.0560000501573086, 0.0, 0.0, 0.0, 0.0, 0.0, 1.7103875776191137E9, 0.0, 2024-03-13 20:39:37.619
97.0, -690.793180915527, -135.29275084706023, -515.4760207426734, -302.29050356848165, 0.01600000075995922, -0.17600000835955143, 1.0560000501573086, 0.0, 0.0, 0.0, 0.0, 0.0, 1.7103875776191137E9, 0.0, 2024-03-13 20:39:37.619
98.0, -858.9802218228579, -46.842246945016086, -638.0026230909862, -249.09977644868195, 0.01600000075995922, -0.17600000835955143, 1.0560000501573086, 0.0, 0.0, 0.0, 0.0, 0.0, 1.7103875776325395E9, 0.0, 2024-03-13 20:39:37.632
98.0, -674.1038773632608, 100.52290095901117, -457.7749742763117, -26.446702536661178, 0.01600000075995922, -0.17600000835955143, 1.0560000501573086, 0.0, 0.0, 0.0, 0.0, 0.0, 1.7103875776325395E9, 0.0, 2024-03-13 20:39:37.632
99.0, -802.8144042883068, 240.2081643040292, -631.8317881640978, 92.31382055627182, 0.01600000075995922, -0.17600000835955143, 1.0560000501573086, 0.0, 0.0, 0.0, 0.0, 0.0, 1.7103875776483157E9, 0.0, 2024-03-13 20:39:37.648
99.0, -707.1664629215375, 200.16505547845736, -488.11491266684607, 0.5665948432870209, 0.01600000075995922, -0.17600000835955143, 1.0560000501573086, 0.0, 0.0, 0.0, 0.0, 0.0, 1.7103875776483157E9, 0.0, 2024-03-13 20:39:37.648
100.0, -617.2536581368186, 109.16954965656623, -390.01920677907765, -48.332597077358514, 0.01600000075995922, -0.17600000835955143, 1.0560000501573086, 0.0, 0.0, 0.0, 0.0, 0.0, 1.7103875776489496E9, 0.0, 2024-03-13 20:39:37.648
100.0, -477.6170134912245, 20.195459760725498, -290.2050168616697, -105.92518644500524, 0.01600000075995922, -0.17600000835955143, 1.0560000501573086, 0.0, 0.0, 0.0, 0.0, 0.0, 1.7103875776489496E9, 0.0, 2024-03-13 20:39:37.648
0.0, -176.25400511175394, 340.7404150129296, 28.84023850830272, 156.22871079901233, 0.01600000075995922, -0.17600000835955143, 1.0560000501573086, 0.0, 0.0, 0.0, 0.0, 0.0, 1.7103875776632142E9, 0.0, 2024-03-13 20:39:37.663
1.0, 0.3347210460342467, 240.88134629605338, 221.76484767254442, 60.67426693113521, 0.01600000075995922, -0.17600000835955143, 1.0560000501573086, 0.0, 0.0, 0.0, 0.0, 0.0, 1.710387577663965E9, 0.0, 2024-03-13 20:39:37.663
1.0, -119.88436302961782, 265.5796456034295, 71.42834925372154, 144.76591743482277, 0.01600000075995922, -0.17600000835955143, 1.0560000501573086, 0.0, 0.0, 0.0, 0.0, 0.0, 1.710387577663965E9, 0.0, 2024-03-13 20:39:37.663
2.0, -197.23484386317432, 369.24219257524237, -10.604486324358732, 201.4067022637464, 0.01600000075995922, -0.17600000835955143, 1.0560000501573086, 0.0, 0.0, 0.0, 0.0, 0.0, 1.7103875776775515E9, 0.0, 2024-03-13 20:39:37.677
2.0, -346.3857939960435, 459.83191925194114, -122.0759444036521, 264.4258864670992, 0.01600000075995922, -0.17600000835955143, 1.0560000501573086, 0.0, 0.0, 0.0, 0.0, 0.0, 1.7103875776775515E9, 0.0, 2024-03-13 20:39:37.677
3.0, -161.26261613937095, 601.1272095278837, 41.02670251391828, 469.73704428458586, 0.01600000075995922, -0.17600000835955143, 1.0560000501573086, 0.0, 0.0, 0.0, 0.0, 0.0, 1.7103875776932113E9, 0.0, 2024-03-13 20:39:37.693
3.0, -308.82597874104977, 736.1188984285109, -139.3393225991167, 590.7602068507113, 0.01600000075995922, -0.17600000835955143, 1.0560000501573086, 0.0, 0.0, 0.0, 0.0, 0.0, 1.7103875776932113E9, 0.0, 2024-03-13 20:39:37.693
4.0, -227.43079610541463, 674.500306758564, -16.068480159621686, 476.0612151096575, 0.01600000075995922, -0.17600000835955143, 1.0560000501573086, 0.0, 0.0, 0.0, 0.0, 0.0, 1.7103875776940095E9, 0.0, 2024-03-13 20:39:37.694
4.0, -149.07054228382185, 584.6529502230696, 100.44249310996383, 440.17687503481284, 0.01600000075995922, -0.17600000835955143, 1.0560000501573086, 0.0, 0.0, 0.0, 0.0, 0.0, 1.7103875776940095E9, 0.0, 2024-03-13 20:39:37.694
5.0, -5.641639083158225, 497.21595920901746, 196.1278334762901, 375.8375061471015, 0.01600000075995922, -0.17600000835955143, 1.0560000501573086, 0.0, 0.0, 0.0, 0.0, 0.0, 1.7103875777075584E9, 0.0, 2024-03-13 20:39:37.707
5.0, -190.2412309460342, 328.22670976119116, 32.84193146089092, 147.4549055029638, 0.01600000075995922, -0.17600000835955143, 1.0560000501573086, 0.0, 0.0, 0.0, 0.0, 0.0, 1.7103875777075584E9, 0.0, 2024-03-13 20:39:37.707
6.0, -31.263693679589778, 212.7909577288665, 202.9905498949811, 38.287225796375424, 0.01600000075995922, -0.17600000835955143, 1.0560000501573086, 0.0, 0.0, 0.0, 0.0, 0.0, 1.7103875777232404E9, 0.0, 2024-03-13 20:39:37.723
6.0, -104.41613681288436, 266.2266482957639, 76.69412839133292, 147.52596360212192, 0.01600000075995922, -0.17600000835955143, 1.0560000501573086, 0.0, 0.0, 0.0, 0.0, 0.0, 1.7103875777232404E9, 0.0, 2024-03-13 20:39:37.723
7.0, -187.5335433781147, 357.8654169100337, -16.846379350405186, 189.16974960872903, 0.01600000075995922, -0.17600000835955143, 1.0560000501573086, 0.0, 0.0, 0.0, 0.0, 0.0, 1.7103875777239487E9, 0.0, 2024-03-13 20:39:37.723
7.0, -355.3952129893005, 436.6482794266194, -136.58675623172894, 244.6343359015882, 0.01600000075995922, -0.17600000835955143, 1.0560000501573086, 0.0, 0.0, 0.0, 0.0, 0.0, 1.7103875777239487E9, 0.0, 2024-03-13 20:39:37.723
8.0, -175.45179657125846, 585.3897105143405, 31.80410922318697, 457.17472033342347, 0.01600000075995922, -0.17600000835955143, 1.0560000501573086, 0.0, 0.0, 0.0, 0.0, 0.0, 1.7103875777375588E9, 0.0, 2024-03-13 20:39:37.737
8.0, -323.17223497107625, 722.778675286565, -146.68822601204738, 581.2047624639235, 0.01600000075995922, -0.17600000835955143, 1.0560000501573086, 0.0, 0.0, 0.0, 0.0, 0.0, 1.7103875777375588E9, 0.0, 2024-03-13 20:39:37.737
9.0, -249.99735243804753, 660.9207300194539, -24.629111158195883, 461.44942598277703, 0.01600000075995922, -0.17600000835955143, 1.0560000501573086, 0.0, 0.0, 0.0, 0.0, 0.0, 1.7103875777537203E9, 0.0, 2024-03-13 20:39:37.753
9.0, -135.98837223881856, 587.929102584254, 92.23341270722449, 428.5083871730603, 0.01600000075995922, -0.17600000835955143, 1.0560000501573086, 0.0, 0.0, 0.0, 0.0, 0.0, 1.7103875777537203E9, 0.0, 2024-03-13 20:39:37.753
10.0, 18.039407436270267, 496.70359291508794, 188.7901497632265, 368.8887720294297, 0.01600000075995922, -0.17600000835955143, 1.0400000493973494, 0.0, 0.0, 0.0, 0.0, 0.0, 1.710387577754158E9, 0.0, 2024-03-13 20:39:37.754
10.0, -169.91113478690386, 337.4754823516123, 40.17587527399883, 146.80042301071808, 0.01600000075995922, -0.17600000835955143, 1.0400000493973494, 0.0, 0.0, 0.0, 0.0, 0.0, 1.710387577754158E9, 0.0, 2024-03-13 20:39:37.754
11.0, -33.21592145645991, 218.76731785805896, 210.8742590015754, 37.63274330412969, 0.01600000075995922, -0.17600000835955143, 1.0400000493973494, 0.0, 0.0, 0.0, 0.0, 0.0, 1.7103875777680302E9, 0.0, 2024-03-13 20:39:37.768
11.0, -115.98738727578893, 264.151003820356, 77.23267398495227, 144.02915714355186, 0.01600000075995922, -0.17600000835955143, 1.0400000493973494, 0.0, 0.0, 0.0, 0.0, 0.0, 1.7103875777680302E9, 0.0, 2024-03-13 20:39:37.768
12.0, -185.63741410057992, 366.57564390683547, -8.27452865196392, 201.57499776175246, 0.01600000075995922, -0.17600000835955143, 1.0400000493973494, 0.0, 0.0, 0.0, 0.0, 0.0, 1.7103875777833264E9, 0.0, 2024-03-13 20:39:37.783
12.0, -367.1646781498566, 447.16113820206374, -126.10381665593013, 256.1868868647143, 0.01600000075995922, -0.17600000835955143, 1.0400000493973494, 0.0, 0.0, 0.0, 0.0, 0.0, 1.7103875777833264E9, 0.0, 2024-03-13 20:39:37.783
13.0, -190.64327019127086, 588.194635481108, 34.24252399429679, 464.6545202448033, 0.01600000075995922, -0.17600000835955143, 1.0400000493973494, 0.0, 0.0, 0.0, 0.0, 0.0, 1.7103875777842076E9, 0.0, 2024-03-13 20:39:37.784
13.0, -330.2331660874188, 719.7306568226777, -144.9416927327402, 578.9982214900665, 0.01600000075995922, -0.17600000835955143, 1.0400000493973494, 0.0, 0.0, 0.0, 0.0, 0.0, 1.7103875777842076E9, 0.0, 2024-03-13 20:39:37.784
14.0, -241.8518503345549, 666.2089485567994, -9.822847233619541, 471.6443932619877, 0.01600000075995922, -0.17600000835955143, 1.0400000493973494, 0.0, 0.0, 0.0, 0.0, 0.0, 1.710387577797562E9, 0.0, 2024-03-13 20:39:37.797
14.0, -137.31229682313278, 584.1031849295832, 95.46094636898488, 433.3777369153686, 0.01600000075995922, -0.17600000835955143, 1.0400000493973494, 0.0, 0.0, 0.0, 0.0, 0.0, 1.710387577797562E9, 0.0, 2024-03-13 20:39:37.797
15.0, 23.18924967525527, 499.06346978712827, 196.9805306661874, 374.59959926176816, 0.01600000075995922, -0.17600000835955143, 1.0400000493973494, 0.0, 0.0, 0.0, 0.0, 0.0, 1.7103875778133304E9, 0.0, 2024-03-13 20:39:37.813
15.0, -200.16318552847952, 317.6540125864558, 20.29830700950697, 137.0093649267219, 0.01600000075995922, -0.17600000835955143, 1.0400000493973494, 0.0, 0.0, 0.0, 0.0, 0.0, 1.7103875778133304E9, 0.0, 2024-03-13 20:39:37.813
16.0, -26.865571331698447, 211.40345484530553, 207.6504652397707, 35.54587912885472, 0.01600000075995922, -0.17600000835955143, 1.0400000493973494, 0.0, 0.0, 0.0, 0.0, 0.0, 1.7103875778139532E9, 0.0, 2024-03-13 20:39:37.813
16.0, -131.79220448853448, 238.4317118250765, 56.74550202768296, 123.84865698264912, 0.01600000075995922, -0.17600000835955143, 1.0400000493973494, 0.0, 0.0, 0.0, 0.0, 0.0, 1.7103875778139532E9, 0.0, 2024-03-13 20:39:37.813
17.0, -200.8363675205037, 348.3623311226256, -19.400731020141393, 186.72011513775215, 0.01600000075995922, -0.17600000835955143, 1.0400000493973494, 0.0, 0.0, 0.0, 0.0, 0.0, 1.7103875778280456E9, 0.0, 2024-03-13 20:39:37.828
17.0, -378.72470891289413, 432.878460271284, -130.65901480196044, 243.19821431860328, 0.01600000075995922, -0.17600000835955143, 1.0400000493973494, 0.0, 0.0, 0.0, 0.0, 0.0, 1.7103875778280456E9, 0.0, 2024-03-13 20:39:37.828
18.0, -190.10098469769582, 582.7119421460666, 27.37606767565012, 452.7915575853549, 0.01600000075995922, -0.17600000835955143, 1.0400000493973494, 0.0, 0.0, 0.0, 0.0, 0.0, 1.7103875778432548E9, 0.0, 2024-03-13 20:39:37.843
18.0, -326.5680641308427, 711.3009223225527, -147.645640400704, 576.7692411164753, 0.01600000075995922, -0.17600000835955143, 1.0400000493973494, 0.0, 0.0, 0.0, 0.0, 0.0, 1.7103875778432548E9, 0.0, 2024-03-13 20:39:37.843
19.0, -257.3537356508896, 644.2856550165452, -29.360084602143615, 453.24782537994906, 0.01600000075995922, -0.17600000835955143, 1.0400000493973494, 0.0, 0.0, 0.0, 0.0, 0.0, 1.7103875778439455E9, 0.0, 2024-03-13 20:39:37.843
19.0, -161.3523737383075, 557.9538044393994, 72.9243092359975, 410.4708496867679, 0.01600000075995922, -0.17600000835955143, 1.0400000493973494, 0.0, 0.0, 0.0, 0.0, 0.0, 1.7103875778439455E9, 0.0, 2024-03-13 20:39:37.843
20.0, -6.341000374872237, 480.9773136014119, 179.37308167479932, 357.089387669228, 0.01600000075995922, -0.17600000835955143, 1.0560000501573086, 0.0, 0.0, 0.0, 0.0, 0.0, 1.710387577857577E9, 0.0, 2024-03-13 20:39:37.857
20.0, -206.66313165146858, 304.541923341807, 7.919238156173378, 122.8912425939925, 0.01600000075995922, -0.17600000835955143, 1.0560000501573086, 0.0, 0.0, 0.0, 0.0, 0.0, 1.710387577857577E9, 0.0, 2024-03-13 20:39:37.857
21.0, -51.163701343815774, 196.71312781935558, 196.75239676889032, 22.923716778401285, 0.01600000075995922, -0.1600000075995922, 1.0560000501573086, 0.0, 0.0, 0.0, 0.0, 0.0, 1.7103875778732731E9, 0.0, 2024-03-13 20:39:37.873
21.0, -119.31963813630864, 247.93479761248454, 67.60617149900645, 134.39143495773897, 0.01600000075995922, -0.1600000075995922, 1.0560000501573086, 0.0, 0.0, 0.0, 0.0, 0.0, 1.7103875778732731E9, 0.0, 2024-03-13 20:39:37.873
22.0, -203.44307778961957, 352.12467047804967, -22.179476687218994, 187.52045372826979, 0.01600000075995922, -0.1600000075995922, 1.0560000501573086, 0.0, 0.0, 0.0, 0.0, 0.0, 1.7103875778739684E9, 0.0, 2024-03-13 20:39:37.873
22.0, -397.86925678607076, 424.62076116912067, -142.604255260434, 234.39074992295355, 0.01600000075995922, -0.1600000075995922, 1.0560000501573086, 0.0, 0.0, 0.0, 0.0, 0.0, 1.7103875778739684E9, 0.0, 2024-03-13 20:39:37.873
23.0, -182.69224288547412, 578.2427616990171, 20.48717195726931, 449.8669558200054, 0.01600000075995922, -0.1600000075995922, 1.0560000501573086, 0.0, 0.0, 0.0, 0.0, 0.0, 1.7103875778878782E9, 0.0, 2024-03-13 20:39:37.887
23.0, -319.28647891711444, 713.2942889989354, -155.13666001195088, 570.6058859894983, 0.01600000075995922, -0.1600000075995922, 1.0560000501573086, 0.0, 0.0, 0.0, 0.0, 0.0, 1.7103875778878782E9, 0.0, 2024-03-13 20:39:37.887
24.0, -243.84521701093763, 660.3747046259232, -26.147510540205985, 461.92065337719396, 0.01600000075995922, -0.1600000075995922, 1.0560000501573086, 0.0, 0.0, 0.0, 0.0, 0.0, 1.7103875779035575E9, 0.0, 2024-03-13 20:39:37.903
24.0, -145.0464099314995, 577.1619306118228, 78.39952277112752, 416.8025003117509, 0.01600000075995922, -0.1600000075995922, 1.0560000501573086, 0.0, 0.0, 0.0, 0.0, 0.0, 1.7103875779035575E9, 0.0, 2024-03-13 20:39:37.903
25.0, 7.582647160161287, 490.9778060829267, 183.02696393150836, 363.85486668907106, 0.01600000075995922, -0.1600000075995922, 1.0560000501573086, 0.0, 0.0, 0.0, 0.0, 0.0, 1.7103875779041016E9, 0.0, 2024-03-13 20:39:37.904
25.0, -187.7915964750573, 323.15166552131996, 15.597252765204757, 134.76916485326365, 0.01600000075995922, -0.1600000075995922, 1.0560000501573086, 0.0, 0.0, 0.0, 0.0, 0.0, 1.7103875779041016E9, 0.0, 2024-03-13 20:39:37.904
26.0, -49.27131196623668, 203.21307394234464, 204.6136664757505, 35.09335123421624, 0.01600000075995922, -0.1600000075995922, 1.0560000501573086, 0.0, 0.0, 0.0, 0.0, 0.0, 1.7103875779175563E9, 0.0, 2024-03-13 20:39:37.917
26.0, -136.1604076367803, 246.4350977302529, 64.10188524052501, 126.38804905256256, 0.01600000075995922, -0.1600000075995922, 1.0560000501573086, 0.0, 0.0, 0.0, 0.0, 0.0, 1.7103875779175563E9, 0.0, 2024-03-13 20:39:37.917
27.0, -207.7626622384414, 348.0070406268351, -22.916236978489906, 185.74400124931708, 0.01600000075995922, -0.1600000075995922, 1.0560000501573086, 0.0, 0.0, 0.0, 0.0, 0.0, 1.710387577933288E9, 0.0, 2024-03-13 20:39:37.933
27.0, -372.0340278921649, 424.1009150752798, -149.21265848213807, 233.12666373793036, 0.01600000075995922, -0.1600000075995922, 1.0560000501573086, 0.0, 0.0, 0.0, 0.0, 0.0, 1.710387577933288E9, 0.0, 2024-03-13 20:39:37.933
28.0, -180.956929306034, 590.8163053500466, 27.140453978441656, 458.88759451312944, 0.01600000075995922, -0.1600000075995922, 1.0560000501573086, 0.0, 0.0, 0.0, 0.0, 0.0, 1.7103875779340014E9, 0.0, 2024-03-13 20:39:37.934
28.0, -337.3127967035398, 697.2351585892029, -161.85726023232564, 560.1977444128133, 0.01600000075995922, -0.1600000075995922, 1.0560000501573086, 0.0, 0.0, 0.0, 0.0, 0.0, 1.7103875779340014E9, 0.0, 2024-03-13 20:39:37.934
29.0, -246.99795267358422, 658.085885853041, -15.271881469059736, 466.77878341963515, 0.01600000075995922, -0.1600000075995922, 1.0560000501573086, 0.0, 0.0, 0.0, 0.0, 0.0, 1.7103875779475477E9, 0.0, 2024-03-13 20:39:37.947
29.0, -159.6507192584686, 556.0314958621748, 68.2531741913408, 407.6659247200005, 0.01600000075995922, -0.1600000075995922, 1.0560000501573086, 0.0, 0.0, 0.0, 0.0, 0.0, 1.7103875779475477E9, 0.0, 2024-03-13 20:39:37.947
30.0, -2.055075025651604, 485.7456860449165, 174.66080773063004, 358.5442087519914, 0.01600000075995922, -0.1600000075995922, 1.0400000493973494, 0.0, 0.0, 0.0, 0.0, 0.0, 1.7103875779633083E9, 0.0, 2024-03-13 20:39:37.963
30.0, -203.70861068647355, 314.29184252629057, 8.816814145538956, 129.39118871698156, 0.01600000075995922, -0.1600000075995922, 1.0400000493973494, 0.0, 0.0, 0.0, 0.0, 0.0, 1.7103875779633083E9, 0.0, 2024-03-13 20:39:37.963
31.0, -39.820584778208286, 202.94006124557927, 197.23858376313, 27.303139626514167, 0.01600000075995922, -0.1600000075995922, 1.0400000493973494, 0.0, 0.0, 0.0, 0.0, 0.0, 1.7103875779640157E9, 0.0, 2024-03-13 20:39:37.964
31.0, -109.93996904743835, 251.56250056950375, 67.30323960259557, 134.97859925078228, 0.01600000075995922, -0.1600000075995922, 1.0400000493973494, 0.0, 0.0, 0.0, 0.0, 0.0, 1.7103875779640157E9, 0.0, 2024-03-13 20:39:37.964
32.0, -209.77472841460258, 342.7076023896225, -26.974028430413455, 174.92447067750618, 0.01600000075995922, -0.1600000075995922, 1.0400000493973494, 0.0, 0.0, 0.0, 0.0, 0.0, 1.710387577977622E9, 0.0, 2024-03-13 20:39:37.977
32.0, -391.6647627595812, 419.87856802530587, -144.77339723473415, 233.08178493846208, 0.01600000075995922, -0.1600000075995922, 1.0400000493973494, 0.0, 0.0, 0.0, 0.0, 0.0, 1.710387577977622E9, 0.0, 2024-03-13 20:39:37.977
33.0, -200.86441677017137, 576.7655012165196, 20.603108855895698, 451.20957990409806, 0.01600000075995922, -0.1600000075995922, 1.0400000493973494, 0.0, 0.0, 0.0, 0.0, 0.0, 1.7103875779932945E9, 0.0, 2024-03-13 20:39:37.993
33.0, -319.94470130931586, 719.5361820249818, -150.6450401651673, 574.7609148402698, 0.01600000075995922, -0.1600000075995922, 1.0400000493973494, 0.0, 0.0, 0.0, 0.0, 0.0, 1.7103875779932945E9, 0.0, 2024-03-13 20:39:37.993
34.0, -240.24369335360825, 659.0657396414317, -26.925409730989486, 459.5981755047105, 0.01600000075995922, -0.1600000075995922, 1.0400000493973494, 0.0, 0.0, 0.0, 0.0, 0.0, 1.7103875779939747E9, 0.0, 2024-03-13 20:39:37.993
34.0, -155.30121561000124, 565.0783138549887, 80.83419764228165, 417.20266960700974, 0.01600000075995922, -0.1600000075995922, 1.0400000493973494, 0.0, 0.0, 0.0, 0.0, 0.0, 1.7103875779939747E9, 0.0, 2024-03-13 20:39:37.993
35.0, 33.369257354643196, 501.8683947538957, 188.2740435693413, 370.1378986146301, 0.01600000075995922, -0.1600000075995922, 1.0400000493973494, 0.0, 0.0, 0.0, 0.0, 0.0, 1.7103875780075595E9, 0.0, 2024-03-13 20:39:38.007
35.0, -181.09343565441668, 312.0479025528766, 10.118299330119044, 613.534327630885, 0.01600000075995922, -0.1600000075995922, 1.0400000493973494, 0.0, 0.0, 0.0, 0.0, 0.0, 1.7103875780075595E9, 0.0, 2024-03-13 20:39:38.007
36.0, -34.633343539666384, 200.99531326862052, 201.34499391447753, 513.0357360215858, 0.01600000075995922, -0.1600000075995922, 1.0400000493973494, 0.0, 0.0, 0.0, 0.0, 0.0, 1.710387578023569E9, 0.0, 2024-03-13 20:39:38.023
36.0, -145.91406672121957, 237.36584033770487, 61.356798673048615, 614.9106108145788, 0.01600000075995922, -0.1600000075995922, 1.0400000493973494, 0.0, 0.0, 0.0, 0.0, 0.0, 1.710387578023569E9, 0.0, 2024-03-13 20:39:38.023
37.0, -230.7443474661559, 320.7656093495898, -47.509819087106735, 646.217313343659, 0.01600000075995922, -0.1600000075995922, 1.0400000493973494, 0.0, 0.0, 0.0, 0.0, 0.0, 1.7103875780240068E9, 0.0, 2024-03-13 20:39:38.024
37.0, -391.5114268613979, 405.7454860927537, -160.09202745324, 706.9289792743511, 0.01600000075995922, -0.1600000075995922, 1.0400000493973494, 0.0, 0.0, 0.0, 0.0, 0.0, 1.7103875780240068E9, 0.0, 2024-03-13 20:39:38.024
38.0, -200.54652527393773, 568.5900799133815, 22.55533663276583, 931.6202986622229, 0.01600000075995922, -0.1600000075995922, 1.0400000493973494, 0.0, 0.0, 0.0, 0.0, 0.0, 1.71038757803762E9, 0.0, 2024-03-13 20:39:38.037
38.0, -351.6814923333004, 694.2955972240306, -165.6869177869521, 1043.1216759411618, 0.01600000075995922, -0.1600000075995922, 1.0400000493973494, 0.0, 0.0, 0.0, 0.0, 0.0, 1.71038757803762E9, 0.0, 2024-03-13 20:39:38.037
39.0, -260.8617618093267, 633.3277481463738, -47.3003846895881, 924.3686326481402, 0.01600000075995922, -0.1600000075995922, 1.0400000493973494, 0.0, 0.0, 0.0, 0.0, 0.0, 1.710387578053578E9, 0.0, 2024-03-13 20:39:38.053
39.0, -162.78849532129243, 559.4123654221185, 69.84263167250901, 896.3231228804216, 0.01600000075995922, -0.1600000075995922, 1.0400000493973494, 0.0, 0.0, 0.0, 0.0, 0.0, 1.710387578053578E9, 0.0, 2024-03-13 20:39:38.053
40.0, 10.002362431492656, 489.62770219892263, 186.65466688852757, 850.8440694692545, 0.01600000075995922, -0.1600000075995922, 1.0400000493973494, 0.0, 0.0, 0.0, 0.0, 0.0, 1.7103875780539916E9, 0.0, 2024-03-13 20:39:38.053
40.0, -200.2753825271502, 314.89396641915664, 8.828033845406026, 614.5927193183452, 0.01600000075995922, -0.1600000075995922, 1.0400000493973494, 0.0, 0.0, 0.0, 0.0, 0.0, 1.7103875780539916E9, 0.0, 2024-03-13 20:39:38.053
41.0, -20.922870302107185, 213.62121551902965, 204.2434163801372, 523.9300645925105, 0.01600000075995922, -0.17600000835955143, 1.0400000493973494, 0.0, 0.0, 0.0, 0.0, 0.0, 1.7103875780679083E9, 0.0, 2024-03-13 20:39:38.067
41.0, -118.31360504822806, 245.2121504447423, 59.722462392412126, 620.2137889517471, 0.01600000075995922, -0.17600000835955143, 1.0400000493973494, 0.0, 0.0, 0.0, 0.0, 0.0, 1.7103875780679083E9, 0.0, 2024-03-13 20:39:38.067
42.0, -199.5722813354805, 348.75502061797306, -26.36068483768031, 672.5162898320705, 0.01600000075995922, -0.17600000835955143, 1.0400000493973494, 0.0, 0.0, 0.0, 0.0, 0.0, 1.710387578083566E9, 0.0, 2024-03-13 20:39:38.083
42.0, -379.3193530058488, 409.4479870488867, -161.8348208325915, 709.5319496435113, 0.01600000075995922, -0.17600000835955143, 1.0400000493973494, 0.0, 0.0, 0.0, 0.0, 0.0, 1.710387578083566E9, 0.0, 2024-03-13 20:39:38.083
43.0, -176.79068075539544, 585.3635312146507, 32.237937618047, 947.6906487718225, 0.01600000075995922, -0.17600000835955143, 1.0400000493973494, 0.0, 0.0, 0.0, 0.0, 0.0, 1.7103875780841343E9, 0.0, 2024-03-13 20:39:38.084
43.0, -315.7036547595635, 718.5077095371671, -145.5737358252518, 1063.2348579028621, 0.01600000075995922, -0.17600000835955143, 1.0400000493973494, 0.0, 0.0, 0.0, 0.0, 0.0, 1.7103875780841343E9, 0.0, 2024-03-13 20:39:38.084
44.0, -257.39487455040216, 640.3400605632924, -38.50787989376113, 936.5270474040881, 0.01600000075995922, -0.17600000835955143, 1.0400000493973494, 0.0, 0.0, 0.0, 0.0, 0.0, 1.7103875780975323E9, 0.0, 2024-03-13 20:39:38.097
44.0, -149.2762367813848, 565.8973519452848, 78.3359444718808, 903.5149504952133, 0.01600000075995922, -0.17600000835955143, 1.0400000493973494, 0.0, 0.0, 0.0, 0.0, 0.0, 1.7103875780975323E9, 0.0, 2024-03-13 20:39:38.097
45.0, 5.503262784797698, 484.6835544575006, 186.08246219530702, 854.1613607299514, 0.01600000075995922, -0.17600000835955143, 1.0400000493973494, 0.0, 0.0, 0.0, 0.0, 0.0, 1.7103875781132977E9, 0.0, 2024-03-13 20:39:38.113
45.0, -193.536082806997, 316.5021234001033, 14.815613674465567, 619.7650009570643, 0.01600000075995922, -0.17600000835955143, 1.0400000493973494, 0.0, 0.0, 0.0, 0.0, 0.0, 1.7103875781132977E9, 0.0, 2024-03-13 20:39:38.113
46.0, -45.59873020974919, 208.05250448500738, 203.56275458820164, 522.1349126137793, 0.01600000075995922, -0.17600000835955143, 1.0400000493973494, 0.0, 0.0, 0.0, 0.0, 0.0, 1.7103875781139631E9, 0.0, 2024-03-13 20:39:38.113
46.0, -134.21939955977723, 253.70920314406976, 66.53656011167914, 625.9769747834653, 0.01600000075995922, -0.17600000835955143, 1.0400000493973494, 0.0, 0.0, 0.0, 0.0, 0.0, 1.7103875781139631E9, 0.0, 2024-03-13 20:39:38.113
47.0, -201.66288541071117, 345.0450398619287, -30.152943392749876, 667.1121343960986, 0.01600000075995922, -0.17600000835955143, 1.0400000493973494, 0.0, 0.0, 0.0, 0.0, 0.0, 1.710387578127592E9, 0.0, 2024-03-13 20:39:38.127
47.0, -395.9207689091563, 428.9066865183413, -145.96642532059923, 723.8819457734935, 0.01600000075995922, -0.17600000835955143, 1.0400000493973494, 0.0, 0.0, 0.0, 0.0, 0.0, 1.710387578127592E9, 0.0, 2024-03-13 20:39:38.127
48.0, -195.83051142981276, 589.8364515616558, 28.296083064749837, 946.3629842875525, 0.01600000075995922, -0.17600000835955143, 1.0400000493973494, 0.0, 0.0, 0.0, 0.0, 0.0, 1.7103875781433086E9, 0.0, 2024-03-13 20:39:38.143
48.0, -332.98573245480657, 718.5974671361037, -152.41027294425294, 1061.9258929183707, 0.01600000075995922, -0.17600000835955143, 1.0400000493973494, 0.0, 0.0, 0.0, 0.0, 0.0, 1.7103875781433086E9, 0.0, 2024-03-13 20:39:38.143
49.0, -230.17588267289102, 660.9394295192324, -20.833112703170627, 952.9863471090794, 0.01600000075995922, -0.17600000835955143, 1.0400000493973494, 0.0, 0.0, 0.0, 0.0, 0.0, 1.7103875781441245E9, 0.0, 2024-03-13 20:39:38.144
49.0, -159.92373195523396, 558.0809610378928, 69.22180827986449, 899.18788624648, 0.01600000075995922, -0.17600000835955143, 1.0400000493973494, 0.0, 0.0, 0.0, 0.0, 0.0, 1.7103875781441245E9, 0.0, 2024-03-13 20:39:38.144
50.0, 17.743955339770764, 502.504177746363, 192.33557492122054, 858.1144349831156, 0.01600000075995922, -0.17600000835955143, 1.0560000501573086, 0.0, 0.0, 0.0, 0.0, 0.0, 1.7103875781575744E9, 0.0, 2024-03-13 20:39:38.157
50.0, -185.3083029044792, 330.3883719355799, 23.383724472951144, 628.8940967489034, 0.01600000075995922, -0.17600000835955143, 1.0560000501573086, 0.0, 0.0, 0.0, 0.0, 0.0, 1.7103875781575744E9, 0.0, 2024-03-13 20:39:38.157
51.0, -25.833358943928033, 215.61458219541237, 210.9864560002461, 530.1195990191773, 0.01600000075995922, -0.17600000835955143, 1.0560000501573086, 0.0, 0.0, 0.0, 0.0, 0.0, 1.7103875781732273E9, 0.0, 2024-03-13 20:39:38.173
51.0, -116.97846076404676, 261.16656365571544, 74.68580211512744, 631.2614534208551, 0.01600000075995922, -0.17600000835955143, 1.0560000501573086, 0.0, 0.0, 0.0, 0.0, 0.0, 1.7103875781732273E9, 0.0, 2024-03-13 20:39:38.173
52.0, -200.66059222258627, 349.71991480654106, -30.78498648526147, 669.3411147696897, 0.01600000075995922, -0.17600000835955143, 1.0560000501573086, 0.0, 0.0, 0.0, 0.0, 0.0, 1.71038757817406E9, 0.0, 2024-03-13 20:39:38.174
52.0, -392.64835644792765, 418.80521673802286, -155.21893781097606, 712.6884252061136, 0.01600000075995922, -0.17600000835955143, 1.0560000501573086, 0.0, 0.0, 0.0, 0.0, 0.0, 1.71038757817406E9, 0.0, 2024-03-13 20:39:38.174
53.0, -206.3022313057445, 571.4885023790412, 9.820977283641696, 928.254388702102, 0.01600000075995922, -0.17600000835955143, 1.0560000501573086, 0.0, 0.0, 0.0, 0.0, 0.0, 1.7103875781875458E9, 0.0, 2024-03-13 20:39:38.187
53.0, -319.86990331020206, 721.2752355043776, -151.25090395798907, 1063.8856004951522, 0.01600000075995922, -0.17600000835955143, 1.0560000501573086, 0.0, 0.0, 0.0, 0.0, 0.0, 1.7103875781875458E9, 0.0, 2024-03-13 20:39:38.187
54.0, -247.82821046374738, 658.9946815422736, -25.728641745168716, 947.5260931737721, 0.01600000075995922, -0.17600000835955143, 1.0560000501573086, 0.0, 0.0, 0.0, 0.0, 0.0, 1.7103875782033143E9, 0.0, 2024-03-13 20:39:38.203
54.0, -171.6969370157458, 567.5728271254338, 66.1438706163317, 897.9275399614125, 0.01600000075995922, -0.17600000835955143, 1.0560000501573086, 0.0, 0.0, 0.0, 0.0, 0.0, 1.7103875782033143E9, 0.0, 2024-03-13 20:39:38.203
55.0, 16.012381660286337, 492.33164986688644, 172.08775656111538, 849.161114489194, 0.01600000075995922, -0.17600000835955143, 1.0560000501573086, 0.0, 0.0, 0.0, 0.0, 0.0, 1.7103875782041528E9, 0.0, 2024-03-13 20:39:38.204
55.0, -186.31807589251548, 303.7490645512007, -2.896552515681833, 1093.9749655886553, 0.01600000075995922, -0.17600000835955143, 1.0560000501573086, 0.0, 0.0, 0.0, 0.0, 0.0, 1.7103875782041528E9, 0.0, 2024-03-13 20:39:38.204
56.0, -39.12870328640565, 194.75342024257407, 192.8741205148399, 1001.4124416853301, 0.01600000075995922, -0.17600000835955143, 1.0560000501573086, 0.0, 0.0, 0.0, 0.0, 0.0, 1.7103875782178674E9, 0.0, 2024-03-13 20:39:38.217
56.0, -122.79026529518887, 249.52425509365276, 53.58902646508068, 1104.0839151688851, 0.01600000075995922, -0.17600000835955143, 1.0560000501573086, 0.0, 0.0, 0.0, 0.0, 0.0, 1.7103875782178674E9, 0.0, 2024-03-13 20:39:38.217
57.0, -211.86907238978893, 332.4827159107663, -35.463601329829544, 1147.6088708532043, 0.01600000075995922, -0.17600000835955143, 1.0560000501573086, 0.0, 0.0, 0.0, 0.0, 0.0, 1.7103875782332644E9, 0.0, 2024-03-13 20:39:38.233
57.0, -393.8189451340586, 408.76358535699546, -155.51812980743125, 1192.224007374607, 0.01600000075995922, -0.17600000835955143, 1.0560000501573086, 0.0, 0.0, 0.0, 0.0, 0.0, 1.7103875782332644E9, 0.0, 2024-03-13 20:39:38.233
58.0, -204.09569033188745, 575.0376674369909, 23.3818545229733, 1424.077235177625, 0.01600000075995922, -0.17600000835955143, 1.0560000501573086, 0.0, 0.0, 0.0, 0.0, 0.0, 1.7103875782339544E9, 0.0, 2024-03-13 20:39:38.233
58.0, -324.309164557606, 716.4545044614933, -152.9787377375178, 1549.2629063944332, 0.01600000075995922, -0.17600000835955143, 1.0560000501573086, 0.0, 0.0, 0.0, 0.0, 0.0, 1.7103875782339544E9, 0.0, 2024-03-13 20:39:38.233
59.0, -247.9366675624624, 647.7301028757356, -29.412443201523274, 1431.9235452846624, 0.01600000075995922, -0.17600000835955143, 1.0560000501573086, 0.0, 0.0, 0.0, 0.0, 0.0, 1.7103875782475672E9, 0.0, 2024-03-13 20:39:38.247
59.0, -154.36998052103445, 567.7486024233513, 77.04941888712347, 1394.3300709300674, 0.01600000075995922, -0.17600000835955143, 1.0560000501573086, 0.0, 0.0, 0.0, 0.0, 0.0, 1.7103875782475672E9, 0.0, 2024-03-13 20:39:38.247
60.0, 19.770981115754694, 483.5615844707936, 182.8324891338125, 1345.802999055013, 0.01600000075995922, -0.17600000835955143, 1.0560000501573086, 0.0, 0.0, 0.0, 0.0, 0.0, 1.7103875782632844E9, 0.0, 2024-03-13 20:39:38.263
60.0, -202.69883769843727, 311.356021061074, 17.53078104229644, 1108.100567721296, 0.01600000075995922, -0.17600000835955143, 1.0560000501573086, 0.0, 0.0, 0.0, 0.0, 0.0, 1.7103875782632844E9, 0.0, 2024-03-13 20:39:38.263
61.0, -33.56373215233907, 209.14455527206883, 205.3242474673316, 1015.9756121127866, 0.01600000075995922, -0.17600000835955143, 1.0560000501573086, 0.0, 0.0, 0.0, 0.0, 0.0, 1.7103875782640333E9, 0.0, 2024-03-13 20:39:38.264
61.0, -103.4736820240505, 262.6326044383459, 76.10696409828961, 1124.937597321812, 0.01600000075995922, -0.17600000835955143, 1.0560000501573086, 0.0, 0.0, 0.0, 0.0, 0.0, 1.7103875782640333E9, 0.0, 2024-03-13 20:39:38.264
62.0, -195.8286414798349, 343.3583449819125, -30.77750668535009, 1155.5449385591783, 0.01600000075995922, -0.17600000835955143, 1.0560000501573086, 0.0, 0.0, 0.0, 0.0, 0.0, 1.7103875782778256E9, 0.0, 2024-03-13 20:39:38.277
62.0, -391.1112575661391, 407.2601455748081, -156.28480929834768, 1202.5423913523555, 0.01600000075995922, -0.17600000835955143, 1.0560000501573086, 0.0, 0.0, 0.0, 0.0, 0.0, 1.7103875782778256E9, 0.0, 2024-03-13 20:39:38.277
63.0, -193.3659173590131, 584.4210764258169, 29.541469749994576, 1440.0952266878448, 0.01600000075995922, -0.17600000835955143, 1.0560000501573086, 0.0, 0.0, 0.0, 0.0, 0.0, 1.7103875782933185E9, 0.0, 2024-03-13 20:39:38.293
63.0, -306.6717963665724, 726.5484944419004, -140.4538127859123, 1569.5817828536965, 0.01600000075995922, -0.17600000835955143, 1.0560000501573086, 0.0, 0.0, 0.0, 0.0, 0.0, 1.7103875782933185E9, 0.0, 2024-03-13 20:39:38.293
64.0, -252.09543631318957, 647.2663552812301, -25.717422045301646, 1437.0434683240019, 0.01600000075995922, -0.17600000835955143, 1.0560000501573086, 0.0, 0.0, 0.0, 0.0, 0.0, 1.7103875782941165E9, 0.0, 2024-03-13 20:39:38.294
64.0, -134.54477085592225, 583.1943892403506, 94.5633703796193, 1418.1719331475906, 0.01600000075995922, -0.17600000835955143, 1.0560000501573086, 0.0, 0.0, 0.0, 0.0, 0.0, 1.7103875782941165E9, 0.0, 2024-03-13 20:39:38.294
65.0, 2.4664640207774937, 490.03535129409283, 195.40603278484195, 1357.2171737197787, 0.01600000075995922, -0.17600000835955143, 1.0560000501573086, 0.0, 0.0, 0.0, 0.0, 0.0, 1.7103875783076317E9, 0.0, 2024-03-13 20:39:38.307
65.0, -189.4259327556938, 315.2043781154789, 35.459861429873854, 1120.5581744736992, 0.01600000075995922, -0.17600000835955143, 1.0560000501573086, 0.0, 0.0, 0.0, 0.0, 0.0, 1.7103875783076317E9, 0.0, 2024-03-13 20:39:38.307
66.0, -29.079592105466872, 207.91038828669116, 214.82359335478395, 1024.66713960981, 0.01600000075995922, -0.17600000835955143, 1.0560000501573086, 0.0, 0.0, 0.0, 0.0, 0.0, 1.710387578323452E9, 0.0, 2024-03-13 20:39:38.323
66.0, -75.83956125145778, 264.83540551224723, 74.3342515192926, 1125.6818374129944, 0.01600000075995922, -0.17600000835955143, 1.0560000501573086, 0.0, 0.0, 0.0, 0.0, 0.0, 1.710387578323452E9, 0.0, 2024-03-13 20:39:38.323
67.0, -206.56215435266495, 349.31974551128224, -25.369611349422485, 1164.8872086484917, 0.01600000075995922, -0.17600000835955143, 1.0560000501573086, 0.0, 0.0, 0.0, 0.0, 0.0, 1.7103875783242712E9, 0.0, 2024-03-13 20:39:38.324
