%OpenBCI Raw EXG Data
%Number of channels = 4
%Sample Rate = 200 Hz
%Board = OpenBCI_GUI$BoardGanglionBLE
Sample Index, EXG Channel 0, EXG Channel 1, EXG Channel 2, EXG Channel 3, Accel Channel 0, Accel Channel 1, Accel Channel 2, Other, Other, Other, Other, Other, Timestamp, Other, Timestamp (Formatted)
0.0, -649.317690406926, -296.0074716429226, -396.696798149962, -326.99067282583565, 0.0, 0.0, 0.0, 0.0, 0.0, 0.0, 0.0, 0.0, 1.710394240069533E9, 0.0, 2024-03-13 22:30:40.069
1.0, -641.1422691037878, -288.50897223176435, -394.21724447933957, -321.02179249655455, 0.0, 0.4640000220388174, 0.0, 0.0, 0.0, 0.0, 0.0, 0.0, 1.7103942400822015E9, 0.0, 2024-03-13 22:30:40.082
1.0, -634.3543506842107, -290.0797302131541, -397.78884893702343, -322.2185604823753, 0.0, 0.4640000220388174, 0.0, 0.0, 0.0, 0.0, 0.0, 0.0, 1.7103942400822015E9, 0.0, 2024-03-13 22:30:40.082
2.0, -638.4233618360013, -290.9660865026526, -391.2440240145661, -325.8574831392616, 0.8160000387579203, 0.4640000220388174, 0.0, 0.0, 0.0, 0.0, 0.0, 0.0, 1.7103942400993404E9, 0.0, 2024-03-13 22:30:40.099
2.0, -650.5406376924366, -302.6794531638734, -400.85556690068915, -334.6125889355317, 0.8160000387579203, 0.4640000220388174, 0.0, 0.0, 0.0, 0.0, 0.0, 0.0, 1.7103942400993404E9, 0.0, 2024-03-13 22:30:40.099
3.0, -649.1718343086541, -309.04102298850194, -419.16237718379125, -343.7566443271935, 0.8160000387579203, 0.4640000220388174, 0.0, 0.0, 0.0, 0.0, 0.0, 0.0, 1.7103942401127791E9, 0.0, 2024-03-13 22:30:40.112
3.0, -648.9212610116228, -304.6129814409651, -408.1446319143288, -337.7428851984441, 0.8160000387579203, 0.4640000220388174, 0.0, 0.0, 0.0, 0.0, 0.0, 0.0, 1.7103942401127791E9, 0.0, 2024-03-13 22:30:40.112
4.0, -661.4686253629625, -309.07842198805884, -398.11048033321276, -337.93735999614, 0.8160000387579203, 0.4640000220388174, 0.0, 0.0, 0.0, 0.0, 0.0, 0.0, 1.7103942401133296E9, 0.0, 2024-03-13 22:30:40.113
4.0, -654.1870401492342, -303.8986605494283, -408.56724060932174, -338.1168751940131, 0.8160000387579203, 0.4640000220388174, 0.0, 0.0, 0.0, 0.0, 0.0, 0.0, 1.7103942401133296E9, 0.0, 2024-03-13 22:30:40.113
5.0, -639.6650086212903, -299.26118460437283, -403.4360978701152, -330.83902988024056, 0.8160000387579203, 0.4640000220388174, 0.0, 0.0, 0.0, 0.0, 0.0, 0.0, 1.710394240128136E9, 0.0, 2024-03-13 22:30:40.128
5.0, -658.9067938933149, -298.3897879146971, -390.85133451921865, -332.8922349559143, 0.8160000387579203, 0.4640000220388174, 0.0, 0.0, 0.0, 0.0, 0.0, 0.0, 1.710394240128136E9, 0.0, 2024-03-13 22:30:40.128
6.0, -656.7862706184387, -304.5007844422944, -411.4020847757347, -336.98742540739477, 0.8160000387579203, 0.4640000220388174, 0.0, 0.0, 0.0, 0.0, 0.0, 0.0, 1.7103942401285212E9, 0.0, 2024-03-13 22:30:40.128
6.0, -645.035504957661, -300.36071519134566, -418.46301589207724, -339.7175523750484, 0.8160000387579203, 0.4640000220388174, 0.0, 0.0, 0.0, 0.0, 0.0, 0.0, 1.7103942401285212E9, 0.0, 2024-03-13 22:30:40.128
7.0, -645.940560746938, -296.84146933304146, -392.2837162022479, -327.10660972446203, 0.8160000387579203, 0.4640000220388174, 0.0, 0.0, 0.0, 0.0, 0.0, 0.0, 1.7103942401424396E9, 0.0, 2024-03-13 22:30:40.142
7.0, -660.3279558764771, -308.65955319302157, -399.6961979144253, -330.40146158542484, 0.8160000387579203, 0.4640000220388174, 0.0, 0.0, 0.0, 0.0, 0.0, 0.0, 1.7103942401424396E9, 0.0, 2024-03-13 22:30:40.142
8.0, -651.0679635861889, -301.0226774835028, -415.27662112982944, -335.0090183308348, 0.8160000387579203, 0.4640000220388174, 0.0, 0.0, 0.0, 0.0, 0.0, 0.0, 1.7103942401581237E9, 0.0, 2024-03-13 22:30:40.158
8.0, -655.7839774303138, -309.4598917835392, -411.12159227905795, -337.24547850433737, 0.8160000387579203, 0.4640000220388174, 0.0, 0.0, 0.0, 0.0, 0.0, 0.0, 1.7103942401581237E9, 0.0, 2024-03-13 22:30:40.158
9.0, -670.2274710591882, -314.7518502208404, -403.028448774945, -338.83867588546127, 0.8160000387579203, 0.4640000220388174, 0.0, 0.0, 0.0, 0.0, 0.0, 0.0, 1.710394240158703E9, 0.0, 2024-03-13 22:30:40.158
9.0, -669.3934733690694, -317.2164442916401, -420.8079331642948, -346.9355592895299, 0.8160000387579203, 0.4640000220388174, 0.0, 0.0, 0.0, 0.0, 0.0, 0.0, 1.710394240158703E9, 0.0, 2024-03-13 22:30:40.158
10.0, -656.4833387220278, -313.67475903360173, -414.8390528350137, -344.7925966149196, 0.8160000387579203, 0.4640000220388174, 0.4640000220388174, 0.0, 0.0, 0.0, 0.0, 0.0, 1.7103942401719449E9, 0.0, 2024-03-13 22:30:40.171
10.0, -669.9245391627774, -314.4563981243409, -408.6233391086571, -347.0851552877575, 0.8160000387579203, 0.4640000220388174, 0.4640000220388174, 0.0, 0.0, 0.0, 0.0, 0.0, 1.7103942401719449E9, 0.0, 2024-03-13 22:30:40.171
11.0, -656.5431771213189, -311.58789485832676, -412.6998300603591, -343.0161441359669, 0.8160000387579203, 0.4640000220388174, 0.4640000220388174, 0.0, 0.0, 0.0, 0.0, 0.0, 1.710394240187736E9, 0.0, 2024-03-13 22:30:40.187
11.0, -653.670933955349, -310.6865789690055, -433.8901032092981, -351.1279871398583, 0.8160000387579203, 0.4640000220388174, 0.4640000220388174, 0.0, 0.0, 0.0, 0.0, 0.0, 1.710394240187736E9, 0.0, 2024-03-13 22:30:40.187
12.0, -652.8780751647428, -316.40862590121105, -408.20073041366413, -347.84435497876257, 0.8160000387579203, 0.4640000220388174, 0.4640000220388174, 0.0, 0.0, 0.0, 0.0, 0.0, 1.7103942401883216E9, 0.0, 2024-03-13 22:30:40.188
12.0, -661.1432540668175, -317.8410075842403, -406.96656342828646, -342.5037778420374, 0.8160000387579203, 0.4640000220388174, 0.4640000220388174, 0.0, 0.0, 0.0, 0.0, 0.0, 1.7103942401883216E9, 0.0, 2024-03-13 22:30:40.188
13.0, -656.8348893178627, -310.18543237494305, -426.0325734023936, -343.3489952320233, 0.8160000387579203, 0.4640000220388174, 0.4640000220388174, 0.0, 0.0, 0.0, 0.0, 0.0, 1.7103942402019577E9, 0.0, 2024-03-13 22:30:40.201
13.0, -657.0405838154256, -317.470757488627, -412.1425849669613, -342.3803611434996, 0.8160000387579203, 0.4640000220388174, 0.4640000220388174, 0.0, 0.0, 0.0, 0.0, 0.0, 1.7103942402019577E9, 0.0, 2024-03-13 22:30:40.201
14.0, -662.2652240535244, -317.7923888848163, -395.5374291636981, -343.2293184334412, 0.8160000387579203, 0.4640000220388174, 0.4640000220388174, 0.0, 0.0, 0.0, 0.0, 0.0, 1.710394240217739E9, 0.0, 2024-03-13 22:30:40.217
14.0, -658.1849932018667, -313.7981757321395, -414.0387142444961, -345.8360287025571, 0.8160000387579203, 0.4640000220388174, 0.4640000220388174, 0.0, 0.0, 0.0, 0.0, 0.0, 1.710394240217739E9, 0.0, 2024-03-13 22:30:40.217
15.0, -653.3530424591154, -316.10943390475586, -410.57182698557153, -343.92493982519954, 0.8160000387579203, 0.4640000220388174, 0.4640000220388174, 0.0, 0.0, 0.0, 0.0, 0.0, 1.7103942402183363E9, 0.0, 2024-03-13 22:30:40.218
15.0, -659.66599358432, -309.41127308411524, -402.41510518221185, -344.33632882032543, 0.8160000387579203, 0.4640000220388174, 0.4640000220388174, 0.0, 0.0, 0.0, 0.0, 0.0, 1.7103942402183363E9, 0.0, 2024-03-13 22:30:40.218
16.0, -659.2284252895042, -318.93679827125743, -411.7685949713923, -344.70283901598305, 0.8160000387579203, 0.4640000220388174, 0.4640000220388174, 0.0, 0.0, 0.0, 0.0, 0.0, 1.7103942402319603E9, 0.0, 2024-03-13 22:30:40.231
16.0, -651.7448854781687, -305.74243122758344, -420.3666249695234, -338.6516808876768, 0.8160000387579203, 0.4640000220388174, 0.4640000220388174, 0.0, 0.0, 0.0, 0.0, 0.0, 1.7103942402319603E9, 0.0, 2024-03-13 22:30:40.231
17.0, -652.2385522723198, -306.9354593134485, -402.52356228092685, -335.5999225238338, 0.8160000387579203, 0.4640000220388174, 0.4640000220388174, 0.0, 0.0, 0.0, 0.0, 0.0, 1.7103942402479873E9, 0.0, 2024-03-13 22:30:40.247
17.0, -669.6178673664108, -317.4969367883168, -406.730949731078, -343.0161441359669, 0.8160000387579203, 0.4640000220388174, 0.4640000220388174, 0.0, 0.0, 0.0, 0.0, 0.0, 1.7103942402479873E9, 0.0, 2024-03-13 22:30:40.247
18.0, -658.2336119012907, -314.5461557232775, -424.110264825169, -343.47615183051676, 0.8160000387579203, 0.4640000220388174, 0.4640000220388174, 0.0, 0.0, 0.0, 0.0, 0.0, 1.7103942402483976E9, 0.0, 2024-03-13 22:30:40.248
18.0, -658.5776826972142, -313.4690645360388, -415.7254091245122, -346.96921838913113, 0.8160000387579203, 0.4640000220388174, 0.4640000220388174, 0.0, 0.0, 0.0, 0.0, 0.0, 1.7103942402483976E9, 0.0, 2024-03-13 22:30:40.248
19.0, -668.0695487847552, -315.6943050096743, -407.4639701223932, -345.9370060013607, 0.8160000387579203, 0.4640000220388174, 0.4640000220388174, 0.0, 0.0, 0.0, 0.0, 0.0, 1.710394240262228E9, 0.0, 2024-03-13 22:30:40.262
19.0, -661.113334867172, -318.41695217741653, -428.8524579689838, -350.59318144619465, 0.8160000387579203, 0.4640000220388174, 0.4640000220388174, 0.0, 0.0, 0.0, 0.0, 0.0, 1.710394240262228E9, 0.0, 2024-03-13 22:30:40.262
20.0, -657.4183137109503, -318.14767938060686, -425.3967904099263, -352.1228005280718, 0.8160000387579203, 0.4640000220388174, 0.4640000220388174, 0.0, 0.0, 0.0, 0.0, 0.0, 1.7103942402775187E9, 0.0, 2024-03-13 22:30:40.277
20.0, -668.8025691760704, -316.89107299549505, -408.5560209094547, -340.13268127013, 0.8160000387579203, 0.4640000220388174, 0.4640000220388174, 0.0, 0.0, 0.0, 0.0, 0.0, 1.7103942402775187E9, 0.0, 2024-03-13 22:30:40.277
21.0, -661.4761051628739, -311.6851322571747, -411.2076099780388, -342.47011874243617, 0.8160000387579203, 0.4640000220388174, 0.4640000220388174, 0.0, 0.0, 0.0, 0.0, 0.0, 1.710394240292984E9, 0.0, 2024-03-13 22:30:40.292
21.0, -659.075089391321, -315.96357780648395, -422.2515345471911, -349.4338124599308, 0.8160000387579203, 0.4640000220388174, 0.4640000220388174, 0.0, 0.0, 0.0, 0.0, 0.0, 1.710394240292984E9, 0.0, 2024-03-13 22:30:40.292
22.0, -657.6240082085133, -313.1586528397165, -409.9921424924396, -343.88006102573127, 0.8160000387579203, 0.4640000220388174, 0.4640000220388174, 0.0, 0.0, 0.0, 0.0, 0.0, 1.71039424029357E9, 0.0, 2024-03-13 22:30:40.293
22.0, -665.9041467104107, -310.06949547631666, -405.9605303402059, -338.6068020882085, 0.8160000387579203, 0.4640000220388174, 0.4640000220388174, 0.0, 0.0, 0.0, 0.0, 0.0, 1.71039424029357E9, 0.0, 2024-03-13 22:30:40.293
23.0, -651.5504106804729, -306.96537851309404, -424.1738431244157, -344.84495521429926, 0.8160000387579203, 0.4640000220388174, 0.4640000220388174, 0.0, 0.0, 0.0, 0.0, 0.0, 1.710394240308011E9, 0.0, 2024-03-13 22:30:40.308
23.0, -651.8196834772825, -305.66389332851395, -410.9532967810519, -339.3809613790363, 0.8160000387579203, 0.4640000220388174, 0.4640000220388174, 0.0, 0.0, 0.0, 0.0, 0.0, 1.710394240308011E9, 0.0, 2024-03-13 22:30:40.308
24.0, -663.5218304386362, -306.96537851309404, -398.1403995328583, -340.3832545671612, 0.8160000387579203, 0.4640000220388174, 0.4640000220388174, 0.0, 0.0, 0.0, 0.0, 0.0, 1.7103942403085287E9, 0.0, 2024-03-13 22:30:40.308
24.0, -655.4586061341688, -311.4981372593902, -421.4362363568507, -341.1274946583435, 0.8160000387579203, 0.4640000220388174, 0.4640000220388174, 0.0, 0.0, 0.0, 0.0, 0.0, 1.7103942403085287E9, 0.0, 2024-03-13 22:30:40.308
25.0, -647.5711571276188, -301.116174982395, -414.0611536442302, -336.6732738111168, 0.8160000387579203, 0.4640000220388174, 0.4640000220388174, 0.0, 0.0, 0.0, 0.0, 0.0, 1.710394240322053E9, 0.0, 2024-03-13 22:30:40.322
25.0, -658.0316573036835, -303.3788144555874, -401.364193294663, -336.21700601652265, 0.8160000387579203, 0.4640000220388174, 0.4640000220388174, 0.0, 0.0, 0.0, 0.0, 0.0, 1.710394240322053E9, 0.0, 2024-03-13 22:30:40.322
26.0, -655.6942198313773, -305.2674639332108, -419.49896817980334, -335.69715992268175, 0.8160000387579203, 0.4640000220388174, 0.4640000220388174, 0.0, 0.0, 0.0, 0.0, 0.0, 1.7103942403377552E9, 0.0, 2024-03-13 22:30:40.337
26.0, -649.2952510071918, -299.28362400410697, -414.89515133434907, -333.9356670435518, 0.8160000387579203, 0.4640000220388174, 0.4640000220388174, 0.0, 0.0, 0.0, 0.0, 0.0, 1.7103942403377552E9, 0.0, 2024-03-13 22:30:40.337
27.0, -657.7997835064307, -308.74557089200243, -403.9821232636459, -332.9707728549838, 0.8160000387579203, 0.4640000220388174, 0.4640000220388174, 0.0, 0.0, 0.0, 0.0, 0.0, 1.710394240338406E9, 0.0, 2024-03-13 22:30:40.338
27.0, -661.5097642624751, -308.8315885909833, -406.5925734327175, -335.61488212365657, 0.8160000387579203, 0.4640000220388174, 0.4640000220388174, 0.0, 0.0, 0.0, 0.0, 0.0, 1.710394240338406E9, 0.0, 2024-03-13 22:30:40.338
28.0, -653.3193833595142, -303.0833623590879, -428.5831851721741, -341.5052245538682, 0.8160000387579203, 0.4640000220388174, 0.4640000220388174, 0.0, 0.0, 0.0, 0.0, 0.0, 1.7103942403522751E9, 0.0, 2024-03-13 22:30:40.352
28.0, -652.1076557738706, -309.7665635799058, -421.97104205051437, -338.7825773861259, 0.8160000387579203, 0.4640000220388174, 0.4640000220388174, 0.0, 0.0, 0.0, 0.0, 0.0, 1.7103942403522751E9, 0.0, 2024-03-13 22:30:40.352
29.0, -658.8319958942011, -307.9153131018393, -395.0175830698572, -333.9431468434632, 0.8160000387579203, 0.4640000220388174, 0.4640000220388174, 0.0, 0.0, 0.0, 0.0, 0.0, 1.710394240367751E9, 0.0, 2024-03-13 22:30:40.367
29.0, -665.4553587157279, -311.25878366222605, -421.63819095445797, -338.636721287854, 0.8160000387579203, 0.4640000220388174, 0.4640000220388174, 0.0, 0.0, 0.0, 0.0, 0.0, 1.710394240367751E9, 0.0, 2024-03-13 22:30:40.367
30.0, -659.2209454895929, -309.0223234887235, -422.5956053431146, -340.1588605698198, 0.8160000387579203, 0.4640000220388174, 0.4640000220388174, 0.0, 0.0, 0.0, 0.0, 0.0, 1.7103942403683655E9, 0.0, 2024-03-13 22:30:40.368
30.0, -654.9424999402836, -302.55603646533564, -404.63660575589165, -332.7463788576424, 0.8160000387579203, 0.4640000220388174, 0.4640000220388174, 0.0, 0.0, 0.0, 0.0, 0.0, 1.7103942403683655E9, 0.0, 2024-03-13 22:30:40.368
31.0, -657.5978289088234, -307.122454311233, -408.8439932060428, -336.3740818146616, 0.8160000387579203, 0.4640000220388174, 0.4640000220388174, 0.0, 0.0, 0.0, 0.0, 0.0, 1.710394240381976E9, 0.0, 2024-03-13 22:30:40.381
31.0, -642.2081405911595, -296.37024193862453, -412.9878023569472, -332.13303526490927, 0.8160000387579203, 0.4640000220388174, 0.4640000220388174, 0.0, 0.0, 0.0, 0.0, 0.0, 1.710394240381976E9, 0.0, 2024-03-13 22:30:40.381
32.0, -651.8720420766622, -308.0462096002884, -399.75229641376063, -332.9296339554712, 0.8160000387579203, 0.4640000220388174, 0.4640000220388174, 0.0, 0.0, 0.0, 0.0, 0.0, 1.7103942403981004E9, 0.0, 2024-03-13 22:30:40.398
32.0, -658.1401144023985, -315.974797506351, -403.7652090662159, -337.671827099286, 0.8160000387579203, 0.4640000220388174, 0.4640000220388174, 0.0, 0.0, 0.0, 0.0, 0.0, 1.7103942403981004E9, 0.0, 2024-03-13 22:30:40.398
33.0, -648.6557281147689, -307.69465900445357, -411.4020847757347, -338.0906958943233, 0.8160000387579203, 0.4640000220388174, 0.4640000220388174, 0.0, 0.0, 0.0, 0.0, 0.0, 1.7103942404127035E9, 0.0, 2024-03-13 22:30:40.412
33.0, -658.1176750026643, -319.2546897674911, -411.48810247471556, -341.92035344894975, 0.8160000387579203, 0.4640000220388174, 0.4640000220388174, 0.0, 0.0, 0.0, 0.0, 0.0, 1.7103942404127035E9, 0.0, 2024-03-13 22:30:40.412
34.0, -663.910780034028, -319.9129121596925, -398.5704880277626, -335.416667426005, 0.8160000387579203, 0.4640000220388174, 0.4640000220388174, 0.0, 0.0, 0.0, 0.0, 0.0, 1.710394240413354E9, 0.0, 2024-03-13 22:30:40.413
34.0, -660.8291024705395, -312.1264404519461, -414.5548204383813, -338.13557469379157, 0.8160000387579203, 0.4640000220388174, 0.4640000220388174, 0.0, 0.0, 0.0, 0.0, 0.0, 1.710394240413354E9, 0.0, 2024-03-13 22:30:40.413
35.0, -650.9707261873409, -298.6029622121714, -412.26600166549906, -334.73600563406944, 0.8160000387579203, 0.4640000220388174, 0.4640000220388174, 0.0, 0.0, 0.0, 0.0, 0.0, 1.7103942404280214E9, 0.0, 2024-03-13 22:30:40.428
35.0, -645.1738812560216, -298.73759861057624, -402.71803707862273, -335.18479362875223, 0.8160000387579203, 0.4640000220388174, 0.4640000220388174, 0.0, 0.0, 0.0, 0.0, 0.0, 1.7103942404280214E9, 0.0, 2024-03-13 22:30:40.428
36.0, -649.8973749000579, -304.88973403768614, -404.1055399621837, -334.13388174120337, 0.8160000387579203, 0.4640000220388174, 0.4640000220388174, 0.0, 0.0, 0.0, 0.0, 0.0, 1.7103942404284284E9, 0.0, 2024-03-13 22:30:40.428
36.0, -648.3079174188897, -297.99709841934964, -417.72251570085064, -337.06222340650856, 0.8160000387579203, 0.4640000220388174, 0.4640000220388174, 0.0, 0.0, 0.0, 0.0, 0.0, 1.7103942404284284E9, 0.0, 2024-03-13 22:30:40.428
37.0, -641.7518727965653, -298.14295451762155, -394.36684047756717, -327.7573523167521, 0.8160000387579203, 0.4640000220388174, 0.4640000220388174, 0.0, 0.0, 0.0, 0.0, 0.0, 1.71039424044237E9, 0.0, 2024-03-13 22:30:40.442
37.0, -648.8315034126863, -300.4130737907253, -395.85906055988744, -329.3430698979646, 0.8160000387579203, 0.4640000220388174, 0.4640000220388174, 0.0, 0.0, 0.0, 0.0, 0.0, 1.71039424044237E9, 0.0, 2024-03-13 22:30:40.442
38.0, -653.3343429593369, -304.74013803945854, -416.4659093157388, -336.46757931355387, 0.8160000387579203, 0.4640000220388174, 0.4640000220388174, 0.0, 0.0, 0.0, 0.0, 0.0, 1.7103942404579575E9, 0.0, 2024-03-13 22:30:40.457
38.0, -641.6134964982048, -296.87886833259836, -404.97693665185943, -326.95327382627875, 0.8160000387579203, 0.4640000220388174, 0.4640000220388174, 0.0, 0.0, 0.0, 0.0, 0.0, 1.7103942404579575E9, 0.0, 2024-03-13 22:30:40.457
39.0, -653.8654087530449, -307.73579790396616, -398.09552073339, -334.7509652338922, 0.8160000387579203, 0.4640000220388174, 0.4640000220388174, 0.0, 0.0, 0.0, 0.0, 0.0, 1.7103942404584825E9, 0.0, 2024-03-13 22:30:40.458
39.0, -654.418913946487, -309.22053818637505, -419.61116517847404, -343.77160392701626, 0.8160000387579203, 0.4640000220388174, 0.4640000220388174, 0.0, 0.0, 0.0, 0.0, 0.0, 1.7103942404584825E9, 0.0, 2024-03-13 22:30:40.458
40.0, -649.9721728991717, -311.1204073638655, -414.90263113426045, -336.8677486088127, 0.8160000387579203, 0.4640000220388174, 0.4640000220388174, 0.0, 0.0, 0.0, 0.0, 0.0, 1.7103942404720998E9, 0.0, 2024-03-13 22:30:40.472
40.0, -651.5990293798968, -303.9846782484092, -390.2379909264855, -328.9055016031489, 0.8160000387579203, 0.4640000220388174, 0.4640000220388174, 0.0, 0.0, 0.0, 0.0, 0.0, 1.7103942404720998E9, 0.0, 2024-03-13 22:30:40.472
41.0, -646.3893487416208, -291.0184451020323, -390.1033545280807, -315.1052707666531, 0.8160000387579203, 0.4640000220388174, 0.4640000220388174, 0.0, 0.0, 0.0, 0.0, 0.0, 1.710394240487948E9, 0.0, 2024-03-13 22:30:40.487
41.0, -647.7431925255805, -297.57822962431237, -408.33536681206897, -327.8919887151569, 0.8160000387579203, 0.4640000220388174, 0.4640000220388174, 0.0, 0.0, 0.0, 0.0, 0.0, 1.710394240487948E9, 0.0, 2024-03-13 22:30:40.487
42.0, -665.6049547139555, -317.70637118583545, -402.7928350777365, -343.9772984245792, 0.8160000387579203, 0.4640000220388174, 0.4640000220388174, 0.0, 0.0, 0.0, 0.0, 0.0, 1.7103942404884796E9, 0.0, 2024-03-13 22:30:40.488
42.0, -669.5131501676515, -321.4275716417469, -408.3241471122019, -342.99744463618845, 0.8160000387579203, 0.4640000220388174, 0.4640000220388174, 0.0, 0.0, 0.0, 0.0, 0.0, 1.7103942404884796E9, 0.0, 2024-03-13 22:30:40.488
43.0, -666.4090332044289, -319.85307376040146, -424.05790622578934, -350.52212334703654, 0.8160000387579203, 0.4640000220388174, 0.4640000220388174, 0.0, 0.0, 0.0, 0.0, 0.0, 1.7103942405020695E9, 0.0, 2024-03-13 22:30:40.502
43.0, -664.4231463279575, -319.1237932690419, -414.1770905428566, -341.1237547583878, 0.8160000387579203, 0.4640000220388174, 0.4640000220388174, 0.0, 0.0, 0.0, 0.0, 0.0, 1.7103942405020695E9, 0.0, 2024-03-13 22:30:40.502
44.0, -666.3865938046947, -320.92268514772877, -397.40363924158737, -338.7563980864361, 0.8160000387579203, 0.4640000220388174, 0.4640000220388174, 0.0, 0.0, 0.0, 0.0, 0.0, 1.710394240517733E9, 0.0, 2024-03-13 22:30:40.517
44.0, -669.8235618639737, -320.1260864571668, -422.4759285445325, -344.9421926131472, 0.8160000387579203, 0.4640000220388174, 0.4640000220388174, 0.0, 0.0, 0.0, 0.0, 0.0, 1.710394240517733E9, 0.0, 2024-03-13 22:30:40.517
45.0, -666.3155357055366, -326.8354669776745, -426.522500296589, -347.3432083847001, 0.8160000387579203, 0.4640000220388174, 0.4640000220388174, 0.0, 0.0, 0.0, 0.0, 0.0, 1.7103942405183253E9, 0.0, 2024-03-13 22:30:40.518
45.0, -659.66599358432, -312.29847584990785, -407.2582756248303, -340.55528996512294, 0.8160000387579203, 0.4640000220388174, 0.4640000220388174, 0.0, 0.0, 0.0, 0.0, 0.0, 1.7103942405183253E9, 0.0, 2024-03-13 22:30:40.518
46.0, -666.4576519038528, -317.51563628809527, -415.1045857318677, -344.92723301332444, 0.8160000387579203, 0.4640000220388174, 0.4640000220388174, 0.0, 0.0, 0.0, 0.0, 0.0, 1.7103942405319536E9, 0.0, 2024-03-13 22:30:40.531
46.0, -656.0644699269906, -312.6201072460972, -434.892396397423, -345.1329275108874, 0.8160000387579203, 0.4640000220388174, 0.4640000220388174, 0.0, 0.0, 0.0, 0.0, 0.0, 1.7103942405319536E9, 0.0, 2024-03-13 22:30:40.531
47.0, -656.0607300270349, -308.5623157941736, -407.7033237195574, -342.5972753409296, 0.8160000387579203, 0.4640000220388174, 0.4640000220388174, 0.0, 0.0, 0.0, 0.0, 0.0, 1.7103942405481186E9, 0.0, 2024-03-13 22:30:40.548
47.0, -667.890033586882, -322.4672638294287, -406.8506265296601, -346.18009949848056, 0.8160000387579203, 0.4640000220388174, 0.4640000220388174, 0.0, 0.0, 0.0, 0.0, 0.0, 1.7103942405481186E9, 0.0, 2024-03-13 22:30:40.548
48.0, -653.1249085618183, -313.8430545316078, -424.2636007233523, -342.13726764637977, 0.8160000387579203, 0.4640000220388174, 0.4640000220388174, 0.0, 0.0, 0.0, 0.0, 0.0, 1.710394240548518E9, 0.0, 2024-03-13 22:30:40.548
48.0, -656.7376519190148, -306.40813341969624, -411.30110747693107, -341.7109190514311, 0.8160000387579203, 0.4640000220388174, 0.4640000220388174, 0.0, 0.0, 0.0, 0.0, 0.0, 1.710394240548518E9, 0.0, 2024-03-13 22:30:40.548
49.0, -668.0620689848438, -315.6419464102946, -407.78186161862686, -345.73879130370915, 0.8160000387579203, 0.4640000220388174, 0.4640000220388174, 0.0, 0.0, 0.0, 0.0, 0.0, 1.7103942405619476E9, 0.0, 2024-03-13 22:30:40.561
49.0, -665.4478789158165, -322.9422311238013, -426.6346972952597, -352.8707805192098, 0.8160000387579203, 0.4640000220388174, 0.4640000220388174, 0.0, 0.0, 0.0, 0.0, 0.0, 1.7103942405619476E9, 0.0, 2024-03-13 22:30:40.561
50.0, -661.4125268636271, -318.40947237750515, -433.69188851164654, -352.37711372505873, 0.8160000387579203, 0.4640000220388174, 0.4480000212788582, 0.0, 0.0, 0.0, 0.0, 0.0, 1.7103942405778768E9, 0.0, 2024-03-13 22:30:40.577
50.0, -667.456205192022, -320.00640965858474, -412.9952821568586, -349.418852860108, 0.8160000387579203, 0.4640000220388174, 0.4480000212788582, 0.0, 0.0, 0.0, 0.0, 0.0, 1.7103942405778768E9, 0.0, 2024-03-13 22:30:40.577
51.0, -671.6860320419073, -327.6657247678377, -418.4742355919443, -354.677152197808, 0.8160000387579203, 0.4640000220388174, 0.4480000212788582, 0.0, 0.0, 0.0, 0.0, 0.0, 1.7103942405783603E9, 0.0, 2024-03-13 22:30:40.578
51.0, -666.9849777976051, -324.93185790022835, -434.3463710038923, -357.0519886696711, 0.8160000387579203, 0.4640000220388174, 0.4480000212788582, 0.0, 0.0, 0.0, 0.0, 0.0, 1.7103942405783603E9, 0.0, 2024-03-13 22:30:40.578
52.0, -676.9817303791642, -329.6665712441318, -423.0743125374429, -363.12184629775584, 0.8320000395178795, 0.4640000220388174, 0.4480000212788582, 0.0, 0.0, 0.0, 0.0, 0.0, 1.7103942405921843E9, 0.0, 2024-03-13 22:30:40.592
52.0, -673.2268708236516, -329.30754084838554, -426.896490292158, -363.4397377939895, 0.8320000395178795, 0.4640000220388174, 0.4480000212788582, 0.0, 0.0, 0.0, 0.0, 0.0, 1.7103942405921843E9, 0.0, 2024-03-13 22:30:40.592
53.0, -667.3701874930412, -325.7733353902586, -441.27266572183, -359.66617873869836, 0.8320000395178795, 0.4640000220388174, 0.4480000212788582, 0.0, 0.0, 0.0, 0.0, 0.0, 1.7103942406082191E9, 0.0, 2024-03-13 22:30:40.608
53.0, -662.2016457542777, -319.1275331689976, -418.1488642957993, -351.15416643954813, 0.8320000395178795, 0.4640000220388174, 0.4480000212788582, 0.0, 0.0, 0.0, 0.0, 0.0, 1.7103942406082191E9, 0.0, 2024-03-13 22:30:40.608
54.0, -664.0416765324771, -316.2141511035152, -404.4645703579299, -347.14125378709286, 0.8320000395178795, 0.4640000220388174, 0.4480000212788582, 0.0, 0.0, 0.0, 0.0, 0.0, 1.7103942406086292E9, 0.0, 2024-03-13 22:30:40.608
54.0, -662.0969285555184, -321.5771676399745, -423.470741932746, -350.44358544796705, 0.8320000395178795, 0.4640000220388174, 0.4480000212788582, 0.0, 0.0, 0.0, 0.0, 0.0, 1.7103942406086292E9, 0.0, 2024-03-13 22:30:40.608
55.0, -665.683492613025, -321.01244274666533, -438.21342755807564, -354.3929198011756, 0.8320000395178795, 0.4640000220388174, 0.4480000212788582, 0.0, 0.0, 0.0, 0.0, 0.0, 1.7103942406385012E9, 0.0, 2024-03-13 22:30:40.638
55.0, -666.2781367059797, -323.79118841374293, -411.7311959718354, -350.7539971442893, 0.8320000395178795, 0.4640000220388174, 0.4480000212788582, 0.0, 0.0, 0.0, 0.0, 0.0, 1.7103942406385012E9, 0.0, 2024-03-13 22:30:40.638
56.0, -672.015143238008, -328.1369521622546, -423.57919903146103, -356.14693288039416, 0.8320000395178795, 0.4640000220388174, 0.4480000212788582, 0.0, 0.0, 0.0, 0.0, 0.0, 1.710394240639155E9, 0.0, 2024-03-13 22:30:40.639
56.0, -662.7925499472767, -315.9523581066169, -426.5598992961459, -346.2735969973728, 0.8320000395178795, 0.4640000220388174, 0.4480000212788582, 0.0, 0.0, 0.0, 0.0, 0.0, 1.710394240639155E9, 0.0, 2024-03-13 22:30:40.639
57.0, -662.6466938490048, -311.8721272549592, -409.6667711962946, -341.32944925595075, 0.8320000395178795, 0.4640000220388174, 0.4480000212788582, 0.0, 0.0, 0.0, 0.0, 0.0, 1.7103942406399264E9, 0.0, 2024-03-13 22:30:40.639
57.0, -653.4801990576088, -302.0100110718049, -394.9540047706105, -326.2576524345204, 0.8320000395178795, 0.4640000220388174, 0.4480000212788582, 0.0, 0.0, 0.0, 0.0, 0.0, 1.7103942406399264E9, 0.0, 2024-03-13 22:30:40.639
58.0, -652.7284791665152, -301.21715228119865, -417.0044549093582, -333.28492445126176, 0.8320000395178795, 0.4640000220388174, 0.4480000212788582, 0.0, 0.0, 0.0, 0.0, 0.0, 1.7103942406519716E9, 0.0, 2024-03-13 22:30:40.651
58.0, -656.4534195223823, -308.32670209696516, -417.3634853051044, -338.33004949148744, 0.8320000395178795, 0.4640000220388174, 0.4480000212788582, 0.0, 0.0, 0.0, 0.0, 0.0, 1.7103942406519716E9, 0.0, 2024-03-13 22:30:40.651
59.0, -651.9617996755987, -310.174212675076, -400.0963672096841, -336.8976678084582, 0.8320000395178795, 0.4640000220388174, 0.4480000212788582, 0.0, 0.0, 0.0, 0.0, 0.0, 1.7103942406836355E9, 0.0, 2024-03-13 22:30:40.683
59.0, -659.8417688822374, -311.3148821615614, -414.68197703687474, -339.1266481820494, 0.8320000395178795, 0.4640000220388174, 0.4480000212788582, 0.0, 0.0, 0.0, 0.0, 0.0, 1.7103942406836355E9, 0.0, 2024-03-13 22:30:40.683
60.0, -654.5909493444487, -312.15261975163594, -417.4008843046613, -336.9836855074391, 0.8320000395178795, 0.4640000220388174, 0.4640000220388174, 0.0, 0.0, 0.0, 0.0, 0.0, 1.7103942406840708E9, 0.0, 2024-03-13 22:30:40.684
60.0, -650.9557665875182, -300.9067405848764, -402.6619385792874, -334.32835653889924, 0.8320000395178795, 0.4640000220388174, 0.4640000220388174, 0.0, 0.0, 0.0, 0.0, 0.0, 1.7103942406840708E9, 0.0, 2024-03-13 22:30:40.684
61.0, -663.319875841029, -320.59357395162806, -416.0283410209231, -343.59582862909883, 0.8320000395178795, 0.4640000220388174, 0.4640000220388174, 0.0, 0.0, 0.0, 0.0, 0.0, 1.7103942406847932E9, 0.0, 2024-03-13 22:30:40.684
61.0, -647.7918112250045, -302.96368556050584, -422.64048414258286, -339.3061633799225, 0.8320000395178795, 0.4640000220388174, 0.4640000220388174, 0.0, 0.0, 0.0, 0.0, 0.0, 1.7103942406847932E9, 0.0, 2024-03-13 22:30:40.684
62.0, -649.2167131081223, -303.91736004920676, -409.67799089616165, -338.03459739498794, 0.8320000395178795, 0.4640000220388174, 0.4640000220388174, 0.0, 0.0, 0.0, 0.0, 0.0, 1.7103942406977456E9, 0.0, 2024-03-13 22:30:40.697
62.0, -654.8153433417901, -314.0861480287276, -412.206163266208, -344.2652707211673, 0.8320000395178795, 0.4640000220388174, 0.4640000220388174, 0.0, 0.0, 0.0, 0.0, 0.0, 1.7103942406977456E9, 0.0, 2024-03-13 22:30:40.697
63.0, -652.3096103714779, -307.5263635064475, -426.4776214971207, -344.9384527131915, 0.8320000395178795, 0.4640000220388174, 0.4640000220388174, 0.0, 0.0, 0.0, 0.0, 0.0, 1.710394240698322E9, 0.0, 2024-03-13 22:30:40.698
63.0, -657.9493795046583, -313.07263514073566, -420.45264266850427, -343.1545204343274, 0.8320000395178795, 0.4640000220388174, 0.4640000220388174, 0.0, 0.0, 0.0, 0.0, 0.0, 1.710394240698322E9, 0.0, 2024-03-13 22:30:40.698
64.0, -665.0215303208679, -311.681392357219, -412.74844875978306, -348.15476667508483, 0.8320000395178795, 0.4640000220388174, 0.4640000220388174, 0.0, 0.0, 0.0, 0.0, 0.0, 1.7103942407124188E9, 0.0, 2024-03-13 22:30:40.712
64.0, -658.4804452983662, -310.55194257060066, -424.37953762197867, -345.99310450069606, 0.8320000395178795, 0.4640000220388174, 0.4640000220388174, 0.0, 0.0, 0.0, 0.0, 0.0, 1.7103942407124188E9, 0.0, 2024-03-13 22:30:40.712
65.0, -643.793858172372, -299.4967983015813, -412.56519366195425, -332.51450506038964, 0.8320000395178795, 0.4640000220388174, 0.4640000220388174, 0.0, 0.0, 0.0, 0.0, 0.0, 1.7103942407278333E9, 0.0, 2024-03-13 22:30:40.727
65.0, -641.0861706044525, -294.39557476202026, -384.58326219348237, -324.76169245224446, 0.8320000395178795, 0.4640000220388174, 0.4640000220388174, 0.0, 0.0, 0.0, 0.0, 0.0, 1.7103942407278333E9, 0.0, 2024-03-13 22:30:40.727
66.0, -648.2331194197759, -305.43575943121687, -402.9050320764072, -332.0844165654853, 0.8320000395178795, 0.4640000220388174, 0.4640000220388174, 0.0, 0.0, 0.0, 0.0, 0.0, 1.710394240728344E9, 0.0, 2024-03-13 22:30:40.728
66.0, -636.9760205531493, -297.32017652736977, -412.57267346186563, -331.7478255694732, 0.8320000395178795, 0.4640000220388174, 0.4640000220388174, 0.0, 0.0, 0.0, 0.0, 0.0, 1.710394240728344E9, 0.0, 2024-03-13 22:30:40.728
67.0, -641.7930116960779, -289.39158862130716, -406.1811844375916, -332.9782526548952, 0.8320000395178795, 0.4640000220388174, 0.4640000220388174, 0.0, 0.0, 0.0, 0.0, 0.0, 1.7103942407424576E9, 0.0, 2024-03-13 22:30:40.742
67.0, -660.1334810787812, -309.9834777773358, -410.78874118300155, -342.1971060456708, 0.8320000395178795, 0.4640000220388174, 0.4640000220388174, 0.0, 0.0, 0.0, 0.0, 0.0, 1.7103942407424576E9, 0.0, 2024-03-13 22:30:40.742
68.0, -658.5103644980118, -306.7896032151766, -426.90397009206936, -348.1921656746417, 0.8320000395178795, 0.4640000220388174, 0.4640000220388174, 0.0, 0.0, 0.0, 0.0, 0.0, 1.7103942407580009E9, 0.0, 2024-03-13 22:30:40.758
68.0, -649.7552587017417, -299.2424851045944, -414.56604013824835, -342.1896262457594, 0.8320000395178795, 0.4640000220388174, 0.4640000220388174, 0.0, 0.0, 0.0, 0.0, 0.0, 1.7103942407580009E9, 0.0, 2024-03-13 22:30:40.758
69.0, -659.7033925838768, -313.5064635355957, -405.4631236460991, -342.8628082377836, 0.8320000395178795, 0.4640000220388174, 0.4640000220388174, 0.0, 0.0, 0.0, 0.0, 0.0, 1.710394240758479E9, 0.0, 2024-03-13 22:30:40.758
69.0, -661.330249064602, -311.4270791602321, -411.57412017369643, -341.47530535422266, 0.8320000395178795, 0.4640000220388174, 0.4640000220388174, 0.0, 0.0, 0.0, 0.0, 0.0, 1.710394240758479E9, 0.0, 2024-03-13 22:30:40.758
70.0, -651.5803298801184, -311.9843242536299, -416.57436641445383, -340.55528996512294, 0.8320000395178795, 0.4640000220388174, 0.4480000212788582, 0.0, 0.0, 0.0, 0.0, 0.0, 1.710394240772426E9, 0.0, 2024-03-13 22:30:40.772
70.0, -653.3006838597357, -314.7555901207961, -404.26635566027835, -341.03025725949556, 0.8320000395178795, 0.4640000220388174, 0.4480000212788582, 0.0, 0.0, 0.0, 0.0, 0.0, 1.710394240772426E9, 0.0, 2024-03-13 22:30:40.772
71.0, -656.7937504183501, -315.0884412168525, -409.46107669873163, -340.80586326215416, 0.8320000395178795, 0.4640000220388174, 0.4480000212788582, 0.0, 0.0, 0.0, 0.0, 0.0, 1.710394240787742E9, 0.0, 2024-03-13 22:30:40.787
71.0, -672.9912571264431, -329.0233084517531, -432.2969058281742, -346.96547848917544, 0.8320000395178795, 0.4640000220388174, 0.4480000212788582, 0.0, 0.0, 0.0, 0.0, 0.0, 1.710394240787742E9, 0.0, 2024-03-13 22:30:40.787
72.0, -651.0679635861889, -312.3059556498192, -401.49508979311213, -330.28178478684276, 0.8320000395178795, 0.4640000220388174, 0.4480000212788582, 0.0, 0.0, 0.0, 0.0, 0.0, 1.7103942407882917E9, 0.0, 2024-03-13 22:30:40.788
72.0, -650.4434002935886, -313.80939543200657, -406.30834103608504, -336.9350668080151, 0.8320000395178795, 0.4640000220388174, 0.4480000212788582, 0.0, 0.0, 0.0, 0.0, 0.0, 1.7103942407882917E9, 0.0, 2024-03-13 22:30:40.788
73.0, -649.8263168008998, -308.81662899116054, -429.1778292651288, -342.8628082377836, 0.8320000395178795, 0.4640000220388174, 0.4480000212788582, 0.0, 0.0, 0.0, 0.0, 0.0, 1.7103942408020198E9, 0.0, 2024-03-13 22:30:40.802
73.0, -641.6546353977174, -298.2775909160264, -401.0238623986952, -330.1247089887038, 0.8320000395178795, 0.4640000220388174, 0.4480000212788582, 0.0, 0.0, 0.0, 0.0, 0.0, 1.7103942408020198E9, 0.0, 2024-03-13 22:30:40.802
74.0, -645.5403914516792, -308.1621464989148, -394.89416637131944, -323.7033007647842, 0.8320000395178795, 0.4640000220388174, 0.4480000212788582, 0.0, 0.0, 0.0, 0.0, 0.0, 1.7103942408177571E9, 0.0, 2024-03-13 22:30:40.817
74.0, -651.0717034861445, -316.21789100347087, -414.27058804174885, -334.66494753491133, 0.8320000395178795, 0.4640000220388174, 0.4480000212788582, 0.0, 0.0, 0.0, 0.0, 0.0, 1.7103942408177571E9, 0.0, 2024-03-13 22:30:40.817
75.0, -641.4863398997113, -303.80890295049176, -410.56060728570446, -331.1943203760311, 0.8320000395178795, 0.4640000220388174, 0.4480000212788582, 0.0, 0.0, 0.0, 0.0, 0.0, 1.7103942408183584E9, 0.0, 2024-03-13 22:30:40.818
75.0, -649.0484176101163, -304.9682719367556, -399.0566750220023, -330.50991868413985, 0.8320000395178795, 0.4640000220388174, 0.4480000212788582, 0.0, 0.0, 0.0, 0.0, 0.0, 1.7103942408183584E9, 0.0, 2024-03-13 22:30:40.818
76.0, -638.4719805354252, -299.9081872967072, -408.129672314506, -334.51161163672805, 0.8320000395178795, 0.4640000220388174, 0.4480000212788582, 0.0, 0.0, 0.0, 0.0, 0.0, 1.7103942408485427E9, 0.0, 2024-03-13 22:30:40.848
76.0, -642.4362744884565, -299.3546821032651, -428.5532659725286, -339.0855092825368, 0.8320000395178795, 0.4640000220388174, 0.4480000212788582, 0.0, 0.0, 0.0, 0.0, 0.0, 1.7103942408485427E9, 0.0, 2024-03-13 22:30:40.848
77.0, -638.6365361334756, -301.24707148084417, -411.0991528793238, -334.17876054067165, 0.8320000395178795, 0.4640000220388174, 0.4480000212788582, 0.0, 0.0, 0.0, 0.0, 0.0, 1.71039424084909E9, 0.0, 2024-03-13 22:30:40.849
77.0, -638.1204299395904, -295.7531584459357, -402.2019308847375, -329.21965319942683, 0.8320000395178795, 0.4640000220388174, 0.4480000212788582, 0.0, 0.0, 0.0, 0.0, 0.0, 1.71039424084909E9, 0.0, 2024-03-13 22:30:40.849
78.0, -633.3408377962187, -294.5937894596718, -416.596805814188, -327.6301957182586, 0.8320000395178795, 0.4640000220388174, 0.4480000212788582, 0.0, 0.0, 0.0, 0.0, 0.0, 1.710394240849856E9, 0.0, 2024-03-13 22:30:40.849
78.0, -631.7065015155822, -290.442500508856, -400.8368674009107, -326.99067282583565, 0.8320000395178795, 0.4640000220388174, 0.4480000212788582, 0.0, 0.0, 0.0, 0.0, 0.0, 1.710394240849856E9, 0.0, 2024-03-13 22:30:40.849
79.0, -636.3290178608149, -289.3055709223263, -383.7978832027875, -322.3457170808688, 0.8320000395178795, 0.4640000220388174, 0.4480000212788582, 0.0, 0.0, 0.0, 0.0, 0.0, 1.7103942408621523E9, 0.0, 2024-03-13 22:30:40.862
79.0, -639.6650086212903, -284.75785257620737, -405.1003533503972, -320.24015340581536, 0.8320000395178795, 0.4640000220388174, 0.4480000212788582, 0.0, 0.0, 0.0, 0.0, 0.0, 1.7103942408621523E9, 0.0, 2024-03-13 22:30:40.862
80.0, -627.7160282628611, -283.5236855908297, -401.5100493929349, -315.1127505665645, 0.8320000395178795, 0.4640000220388174, 0.4480000212788582, 0.0, 0.0, 0.0, 0.0, 0.0, 1.710394240877733E9, 0.0, 2024-03-13 22:30:40.877
80.0, -622.5998451234773, -276.8217848702334, -387.7285180562176, -312.3975831987336, 0.8320000395178795, 0.4640000220388174, 0.4480000212788582, 0.0, 0.0, 0.0, 0.0, 0.0, 1.710394240877733E9, 0.0, 2024-03-13 22:30:40.877
81.0, -636.7366669559851, -282.4129353039898, -390.4287258242257, -316.1935816537589, 0.8320000395178795, 0.4640000220388174, 0.4480000212788582, 0.0, 0.0, 0.0, 0.0, 0.0, 1.7103942408784325E9, 0.0, 2024-03-13 22:30:40.878
81.0, -641.3891025008634, -286.58666365453973, -408.27178851282224, -325.73032654076815, 0.8320000395178795, 0.4640000220388174, 0.4480000212788582, 0.0, 0.0, 0.0, 0.0, 0.0, 1.7103942408784325E9, 0.0, 2024-03-13 22:30:40.878
82.0, -643.8910955712199, -299.5977756003849, -396.45370465284213, -324.95242734998465, 0.8320000395178795, 0.4640000220388174, 0.4480000212788582, 0.0, 0.0, 0.0, 0.0, 0.0, 1.7103942408921506E9, 0.0, 2024-03-13 22:30:40.892
82.0, -652.4031078703701, -306.2360980217345, -396.52476275200024, -328.711026805453, 0.8320000395178795, 0.4640000220388174, 0.4480000212788582, 0.0, 0.0, 0.0, 0.0, 0.0, 1.7103942408921506E9, 0.0, 2024-03-13 22:30:40.892
83.0, -647.013912034221, -299.81094989785925, -411.60777927329764, -329.3094107983634, 0.8320000395178795, 0.4640000220388174, 0.4480000212788582, 0.0, 0.0, 0.0, 0.0, 0.0, 1.7103942409082732E9, 0.0, 2024-03-13 22:30:40.908
83.0, -649.1082560094073, -302.7093723635189, -396.1245934567414, -327.21132692322135, 0.8320000395178795, 0.4640000220388174, 0.4480000212788582, 0.0, 0.0, 0.0, 0.0, 0.0, 1.7103942409082732E9, 0.0, 2024-03-13 22:30:40.908
84.0, -643.154335279949, -291.6654477943666, -390.6830390212126, -322.1101033836603, 0.8320000395178795, 0.4640000220388174, 0.4480000212788582, 0.0, 0.0, 0.0, 0.0, 0.0, 1.7103942409087317E9, 0.0, 2024-03-13 22:30:40.908
84.0, -650.3125037951395, -300.76836428651586, -400.6835315027274, -328.7521657049656, 0.8320000395178795, 0.4640000220388174, 0.4480000212788582, 0.0, 0.0, 0.0, 0.0, 0.0, 1.7103942409087317E9, 0.0, 2024-03-13 22:30:40.908
85.0, -643.105716580525, -301.72951857512817, -395.731903961394, -320.2289337059483, 0.8320000395178795, 0.4640000220388174, 0.4480000212788582, 0.0, 0.0, 0.0, 0.0, 0.0, 1.7103942409224029E9, 0.0, 2024-03-13 22:30:40.922
85.0, -646.3332502422854, -296.99106533126906, -383.28925680881366, -321.0479717962444, 0.8320000395178795, 0.4640000220388174, 0.4480000212788582, 0.0, 0.0, 0.0, 0.0, 0.0, 1.7103942409224029E9, 0.0, 2024-03-13 22:30:40.922
86.0, -642.080983992666, -293.3521426743828, -392.3472945014946, -323.9987528612837, 0.8320000395178795, 0.4640000220388174, 0.4480000212788582, 0.0, 0.0, 0.0, 0.0, 0.0, 1.710394240937848E9, 0.0, 2024-03-13 22:30:40.937
86.0, -636.231780461967, -301.8230160740204, -410.16417789040133, -327.7872715163976, 0.8320000395178795, 0.4640000220388174, 0.4480000212788582, 0.0, 0.0, 0.0, 0.0, 0.0, 1.710394240937848E9, 0.0, 2024-03-13 22:30:40.937
87.0, -651.8309031771496, -302.5747359651141, -396.08345455722883, -324.72429345268756, 0.8320000395178795, 0.4640000220388174, 0.4480000212788582, 0.0, 0.0, 0.0, 0.0, 0.0, 1.710394240938491E9, 0.0, 2024-03-13 22:30:40.938
87.0, -647.9339274233207, -296.1159287416376, -390.18563232710585, -323.76313916407526, 0.8320000395178795, 0.4640000220388174, 0.4480000212788582, 0.0, 0.0, 0.0, 0.0, 0.0, 1.710394240938491E9, 0.0, 2024-03-13 22:30:40.938
88.0, -645.62640915066, -298.54686371283606, -418.6574906897731, -331.72912606969476, 0.8320000395178795, 0.4640000220388174, 0.4480000212788582, 0.0, 0.0, 0.0, 0.0, 0.0, 1.7103942409521513E9, 0.0, 2024-03-13 22:30:40.952
88.0, -639.9978597173467, -295.8541357447393, -399.48676351690665, -325.5283719431609, 0.8320000395178795, 0.4640000220388174, 0.4480000212788582, 0.0, 0.0, 0.0, 0.0, 0.0, 1.7103942409521513E9, 0.0, 2024-03-13 22:30:40.952
89.0, -643.4385676765814, -292.3012307868339, -395.00636336999014, -327.39832192100585, 0.8320000395178795, 0.4640000220388174, 0.4480000212788582, 0.0, 0.0, 0.0, 0.0, 0.0, 1.710394240967722E9, 0.0, 2024-03-13 22:30:40.967
89.0, -647.556197527796, -300.2298186928965, -418.2498415946029, -330.9400071790442, 0.8320000395178795, 0.4640000220388174, 0.4480000212788582, 0.0, 0.0, 0.0, 0.0, 0.0, 1.710394240967722E9, 0.0, 2024-03-13 22:30:40.967
90.0, -645.2486792551354, -300.0129044954665, -408.8140740063973, -329.9077947912738, 0.8320000395178795, 0.4640000220388174, 0.4480000212788582, 0.0, 0.0, 0.0, 0.0, 0.0, 1.7103942409684272E9, 0.0, 2024-03-13 22:30:40.968
90.0, -640.1848547151312, -295.6110422476195, -394.3892798773013, -329.675920994021, 0.8320000395178795, 0.4640000220388174, 0.4480000212788582, 0.0, 0.0, 0.0, 0.0, 0.0, 1.7103942409684272E9, 0.0, 2024-03-13 22:30:40.968
91.0, -646.796997836791, -298.2738510160707, -404.3935122587718, -334.61632883548737, 0.8320000395178795, 0.4640000220388174, 0.4480000212788582, 0.0, 0.0, 0.0, 0.0, 0.0, 1.7103942409819891E9, 0.0, 2024-03-13 22:30:40.981
91.0, -652.5901028681546, -306.88684061402455, -420.516220967751, -338.1318347938359, 0.8320000395178795, 0.4640000220388174, 0.4480000212788582, 0.0, 0.0, 0.0, 0.0, 0.0, 1.7103942409819891E9, 0.0, 2024-03-13 22:30:40.981
92.0, -645.0878635570407, -304.384847543668, -402.8040547776036, -332.99321225471795, 0.8320000395178795, 0.4640000220388174, 0.4480000212788582, 0.0, 0.0, 0.0, 0.0, 0.0, 1.7103942409977837E9, 0.0, 2024-03-13 22:30:40.997
92.0, -652.6125422678888, -311.3148821615614, -404.74880275456235, -335.28203102760017, 0.8320000395178795, 0.4640000220388174, 0.4480000212788582, 0.0, 0.0, 0.0, 0.0, 0.0, 1.7103942409977837E9, 0.0, 2024-03-13 22:30:40.997
93.0, -660.6047084731981, -318.3084950787015, -420.8116730642505, -340.4543126663193, 0.8320000395178795, 0.4640000220388174, 0.4480000212788582, 0.0, 0.0, 0.0, 0.0, 0.0, 1.71039424099839E9, 0.0, 2024-03-13 22:30:40.998
93.0, -652.911734264344, -312.163839451503, -410.1417384906672, -335.69342002272606, 0.8320000395178795, 0.4640000220388174, 0.4480000212788582, 0.0, 0.0, 0.0, 0.0, 0.0, 1.71039424099839E9, 0.0, 2024-03-13 22:30:40.998
94.0, -655.0920959385112, -305.07298913551494, -392.96063809422776, -328.976559702307, 0.8320000395178795, 0.4640000220388174, 0.4480000212788582, 0.0, 0.0, 0.0, 0.0, 0.0, 1.7103942410121489E9, 0.0, 2024-03-13 22:30:41.012
94.0, -660.5149508742616, -312.4630314479582, -415.26914132991806, -339.99056507181376, 0.8320000395178795, 0.4640000220388174, 0.4480000212788582, 0.0, 0.0, 0.0, 0.0, 0.0, 1.7103942410121489E9, 0.0, 2024-03-13 22:30:41.012
95.0, -644.9046084592119, -297.1219618297182, -415.5458939266391, -335.2782911276445, 0.8320000395178795, 0.4640000220388174, 0.4480000212788582, 0.0, 0.0, 0.0, 0.0, 0.0, 1.710394241027738E9, 0.0, 2024-03-13 22:30:41.027
95.0, -648.4462937172502, -309.80770247941837, -400.15994550893083, -335.151134529151, 0.8320000395178795, 0.4640000220388174, 0.4480000212788582, 0.0, 0.0, 0.0, 0.0, 0.0, 1.710394241027738E9, 0.0, 2024-03-13 22:30:41.027
96.0, -658.0914957029745, -308.59223499381915, -406.85810632957146, -340.192519669421, 0.8320000395178795, 0.4640000220388174, 0.4480000212788582, 0.0, 0.0, 0.0, 0.0, 0.0, 1.7103942410283847E9, 0.0, 2024-03-13 22:30:41.028
96.0, -670.6425999542698, -325.4778832937591, -436.8895029737614, -350.8998532425612, 0.8320000395178795, 0.4640000220388174, 0.4480000212788582, 0.0, 0.0, 0.0, 0.0, 0.0, 1.7103942410283847E9, 0.0, 2024-03-13 22:30:41.028
97.0, -664.5690024262294, -324.41201180638745, -418.08902589650825, -348.77932996768504, 0.8320000395178795, 0.4640000220388174, 0.4480000212788582, 0.0, 0.0, 0.0, 0.0, 0.0, 1.7103942410419815E9, 0.0, 2024-03-13 22:30:41.041
97.0, -663.3909339401871, -313.15491293976083, -407.19843722553924, -345.47325840685517, 0.8320000395178795, 0.4640000220388174, 0.4480000212788582, 0.0, 0.0, 0.0, 0.0, 0.0, 1.7103942410419815E9, 0.0, 2024-03-13 22:30:41.041
98.0, -663.4358127396554, -324.6251861038618, -431.75836023455486, -353.6561595099047, 0.8320000395178795, 0.4640000220388174, 0.4480000212788582, 0.0, 0.0, 0.0, 0.0, 0.0, 1.7103942410577755E9, 0.0, 2024-03-13 22:30:41.057
98.0, -651.6626076791435, -315.757883308921, -422.38243104564026, -344.6056016171351, 0.8320000395178795, 0.4640000220388174, 0.4480000212788582, 0.0, 0.0, 0.0, 0.0, 0.0, 1.7103942410577755E9, 0.0, 2024-03-13 22:30:41.057
99.0, -650.8360897889361, -307.59742160560563, -405.1302725500427, -341.77449735067785, 0.8320000395178795, 0.4640000220388174, 0.4480000212788582, 0.0, 0.0, 0.0, 0.0, 0.0, 1.7103942410584235E9, 0.0, 2024-03-13 22:30:41.058
99.0, -657.7698643067852, -309.15321998717263, -418.76220788853243, -341.26213105674833, 0.8320000395178795, 0.4640000220388174, 0.4480000212788582, 0.0, 0.0, 0.0, 0.0, 0.0, 1.7103942410584235E9, 0.0, 2024-03-13 22:30:41.058
100.0, -653.2146661607549, -313.2035316391848, -417.27372770616785, -337.69426649902016, 0.8320000395178795, 0.4640000220388174, 0.4480000212788582, 0.0, 0.0, 0.0, 0.0, 0.0, 1.7103942410728643E9, 0.0, 2024-03-13 22:30:41.072
100.0, -657.4519728105515, -304.650380440522, -403.2191836726852, -336.8714885087684, 0.8320000395178795, 0.4640000220388174, 0.4480000212788582, 0.0, 0.0, 0.0, 0.0, 0.0, 1.7103942410728643E9, 0.0, 2024-03-13 22:30:41.072
0.0, -657.0499335653149, -307.3300187587738, -417.30738680576906, -338.9639625339769, 0.8320000395178795, 0.4640000220388174, 0.4480000212788582, 0.0, 0.0, 0.0, 0.0, 0.0, 1.71039424107332E9, 0.0, 2024-03-13 22:30:41.073
1.0, -649.3457396565937, -304.52883369196206, -427.01616709074005, -333.5822464977391, 0.8320000395178795, 0.4640000220388174, 0.4480000212788582, 0.0, 0.0, 0.0, 0.0, 0.0, 1.7103942411033845E9, 0.0, 2024-03-13 22:30:41.103
1.0, -651.2792679336853, -307.43099605757743, -397.8711267360486, -329.9246243410744, 0.8320000395178795, 0.4640000220388174, 0.4480000212788582, 0.0, 0.0, 0.0, 0.0, 0.0, 1.7103942411033845E9, 0.0, 2024-03-13 22:30:41.103
2.0, -652.3600990208797, -309.60761783178896, -398.19275813223794, -338.30574014177546, 0.8320000395178795, 0.4640000220388174, 0.4480000212788582, 0.0, 0.0, 0.0, 0.0, 0.0, 1.7103942411041176E9, 0.0, 2024-03-13 22:30:41.104
2.0, -654.8059935919009, -314.2675331765786, -427.5547126843594, -344.6972291660495, 0.8320000395178795, 0.4640000220388174, 0.4480000212788582, 0.0, 0.0, 0.0, 0.0, 0.0, 1.7103942411041176E9, 0.0, 2024-03-13 22:30:41.104
3.0, -661.2947200150229, -315.95422805659473, -416.3948512165807, -342.6702033900656, 0.8320000395178795, 0.4640000220388174, 0.4480000212788582, 0.0, 0.0, 0.0, 0.0, 0.0, 1.7103942411048863E9, 0.0, 2024-03-13 22:30:41.104
3.0, -663.1310108932666, -317.6708421362564, -406.2859016363509, -344.4728351687081, 0.8320000395178795, 0.4640000220388174, 0.4480000212788582, 0.0, 0.0, 0.0, 0.0, 0.0, 1.7103942411048863E9, 0.0, 2024-03-13 22:30:41.104
4.0, -671.5794448931701, -325.1506420476362, -425.0414999141358, -351.90775628061965, 0.8320000395178795, 0.4640000220388174, 0.4480000212788582, 0.0, 0.0, 0.0, 0.0, 0.0, 1.71039424111694E9, 0.0, 2024-03-13 22:30:41.116
4.0, -670.3490178077482, -325.16934154741466, -426.67957609472796, -354.858537345659, 0.8320000395178795, 0.4640000220388174, 0.4480000212788582, 0.0, 0.0, 0.0, 0.0, 0.0, 1.71039424111694E9, 0.0, 2024-03-13 22:30:41.116
5.0, -661.0179674183019, -325.13568244781345, -413.7993606473319, -354.39478975115344, 0.8320000395178795, 0.4640000220388174, 0.4480000212788582, 0.0, 0.0, 0.0, 0.0, 0.0, 1.7103942411334653E9, 0.0, 2024-03-13 22:30:41.133
5.0, -661.908063607756, -320.5206459024921, -421.806486452464, -351.5150667852722, 0.8320000395178795, 0.4640000220388174, 0.4480000212788582, 0.0, 0.0, 0.0, 0.0, 0.0, 1.7103942411334653E9, 0.0, 2024-03-13 22:30:41.133
6.0, -656.1710570757277, -313.8075254820287, -433.65822941204533, -350.28089979989454, 0.8320000395178795, 0.4640000220388174, 0.4480000212788582, 0.0, 0.0, 0.0, 0.0, 0.0, 1.7103942411340551E9, 0.0, 2024-03-13 22:30:41.134
6.0, -655.2547815865837, -319.05834501981735, -415.4710959275253, -351.4514884860255, 0.8320000395178795, 0.4640000220388174, 0.4480000212788582, 0.0, 0.0, 0.0, 0.0, 0.0, 1.7103942411340551E9, 0.0, 2024-03-13 22:30:41.134
7.0, -660.1802298282273, -318.23930692952126, -415.90118442242965, -349.49926070915535, 0.8320000395178795, 0.4640000220388174, 0.4480000212788582, 0.0, 0.0, 0.0, 0.0, 0.0, 1.7103942411471844E9, 0.0, 2024-03-13 22:30:41.147
7.0, -661.6574903107248, -318.87508992198855, -427.61455108365044, -350.28463969985023, 0.8320000395178795, 0.4640000220388174, 0.4480000212788582, 0.0, 0.0, 0.0, 0.0, 0.0, 1.7103942411471844E9, 0.0, 2024-03-13 22:30:41.147
8.0, -643.5563745251857, -303.42556320503354, -409.00854880409315, -337.08653275622055, 0.8320000395178795, 0.4640000220388174, 0.4480000212788582, 0.0, 0.0, 0.0, 0.0, 0.0, 1.710394241162716E9, 0.0, 2024-03-13 22:30:41.162
8.0, -649.6337119531818, -303.8893107995391, -407.31063422420993, -337.67369704926386, 0.8320000395178795, 0.4640000220388174, 0.4480000212788582, 0.0, 0.0, 0.0, 0.0, 0.0, 1.710394241162716E9, 0.0, 2024-03-13 22:30:41.162
9.0, -646.4921959904023, -300.3700649412349, -418.24236179469153, -339.04250043304637, 0.8320000395178795, 0.4640000220388174, 0.4480000212788582, 0.0, 0.0, 0.0, 0.0, 0.0, 1.710394241163424E9, 0.0, 2024-03-13 22:30:41.163
9.0, -649.4691563551314, -300.8525120355189, -415.2429620302282, -332.6173523091711, 0.8320000395178795, 0.4640000220388174, 0.4480000212788582, 0.0, 0.0, 0.0, 0.0, 0.0, 1.710394241163424E9, 0.0, 2024-03-13 22:30:41.163
10.0, -641.6452856478281, -298.4103573644534, -391.5058170114644, -327.5722272689454, 0.8320000395178795, 0.4640000220388174, 0.4480000212788582, 0.0, 0.0, 0.0, 0.0, 0.0, 1.7103942411773503E9, 0.0, 2024-03-13 22:30:41.177
10.0, -660.7935734209605, -313.0819848906249, -408.53358150972053, -339.0985989323817, 0.8320000395178795, 0.4640000220388174, 0.4480000212788582, 0.0, 0.0, 0.0, 0.0, 0.0, 1.7103942411773503E9, 0.0, 2024-03-13 22:30:41.177
11.0, -651.7579751280136, -311.95253510400653, -420.1010920726694, -339.15469743171707, 0.8320000395178795, 0.4640000220388174, 0.4480000212788582, 0.0, 0.0, 0.0, 0.0, 0.0, 1.7103942411929498E9, 0.0, 2024-03-13 22:30:41.192
11.0, -654.0804530004971, -313.8972830809653, -406.9628235283308, -342.0755592971109, 0.8320000395178795, 0.4640000220388174, 0.4480000212788582, 0.0, 0.0, 0.0, 0.0, 0.0, 1.7103942411929498E9, 0.0, 2024-03-13 22:30:41.192
12.0, -667.7684868383221, -328.976559702307, -415.9498031218536, -350.6399301956408, 0.8320000395178795, 0.4640000220388174, 0.4480000212788582, 0.0, 0.0, 0.0, 0.0, 0.0, 1.7103942411935651E9, 0.0, 2024-03-13 22:30:41.193
12.0, -662.9589754953049, -321.040491996333, -428.0708188782446, -347.24036113591865, 0.8320000395178795, 0.4640000220388174, 0.4480000212788582, 0.0, 0.0, 0.0, 0.0, 0.0, 1.7103942411935651E9, 0.0, 2024-03-13 22:30:41.193
13.0, -655.9279635786079, -316.79944544658065, -412.34079966461286, -338.20102294301614, 0.8320000395178795, 0.4640000220388174, 0.4480000212788582, 0.0, 0.0, 0.0, 0.0, 0.0, 1.7103942412070005E9, 0.0, 2024-03-13 22:30:41.207
13.0, -661.0366669180803, -316.69472824782133, -404.2513960604556, -338.5226543392055, 0.8320000395178795, 0.4640000220388174, 0.4480000212788582, 0.0, 0.0, 0.0, 0.0, 0.0, 1.7103942412070005E9, 0.0, 2024-03-13 22:30:41.207
14.0, -662.0464399061166, -313.044585891068, -412.15380466682836, -337.16133075533435, 0.8320000395178795, 0.4640000220388174, 0.4480000212788582, 0.0, 0.0, 0.0, 0.0, 0.0, 1.7103942412229848E9, 0.0, 2024-03-13 22:30:41.222
14.0, -656.5338273714297, -304.2109421957284, -414.78295433567837, -335.12682517943904, 0.8320000395178795, 0.4640000220388174, 0.4480000212788582, 0.0, 0.0, 0.0, 0.0, 0.0, 1.7103942412229848E9, 0.0, 2024-03-13 22:30:41.222
15.0, -649.0054087606259, -308.1527967490256, -392.48567079985514, -327.89011876517907, 0.8320000395178795, 0.4640000220388174, 0.4480000212788582, 0.0, 0.0, 0.0, 0.0, 0.0, 1.7103942412235906E9, 0.0, 2024-03-13 22:30:41.223
15.0, -657.8764514555223, -308.8072792412713, -399.5316423163749, -334.958529681433, 0.8320000395178795, 0.4640000220388174, 0.4480000212788582, 0.0, 0.0, 0.0, 0.0, 0.0, 1.7103942412235906E9, 0.0, 2024-03-13 22:30:41.223
16.0, -652.8163668154739, -307.2926197592169, -414.24066884210333, -336.08423956809565, 0.8320000395178795, 0.4640000220388174, 0.4480000212788582, 0.0, 0.0, 0.0, 0.0, 0.0, 1.7103942412369664E9, 0.0, 2024-03-13 22:30:41.236
16.0, -652.3227000213228, -301.4022773290053, -396.7977754487656, -332.83052660664544, 0.8320000395178795, 0.4640000220388174, 0.4480000212788582, 0.0, 0.0, 0.0, 0.0, 0.0, 1.7103942412369664E9, 0.0, 2024-03-13 22:30:41.236
17.0, -659.9558358308859, -314.49566707387567, -399.15017252089456, -336.5853861621581, 0.8320000395178795, 0.4640000220388174, 0.4480000212788582, 0.0, 0.0, 0.0, 0.0, 0.0, 1.7103942412531943E9, 0.0, 2024-03-13 22:30:41.253
17.0, -668.8418381256051, -316.0327659556642, -424.42441642144695, -349.8246320053004, 0.8320000395178795, 0.4640000220388174, 0.4480000212788582, 0.0, 0.0, 0.0, 0.0, 0.0, 1.7103942412531943E9, 0.0, 2024-03-13 22:30:41.253
18.0, -659.3387523381971, -307.49083445686847, -416.12183851981536, -340.7030160133727, 0.8320000395178795, 0.4640000220388174, 0.4480000212788582, 0.0, 0.0, 0.0, 0.0, 0.0, 1.710394241267727E9, 0.0, 2024-03-13 22:30:41.267
18.0, -657.603438758757, -304.2857401948422, -396.322808154393, -334.97722918121144, 0.8320000395178795, 0.4640000220388174, 0.4480000212788582, 0.0, 0.0, 0.0, 0.0, 0.0, 1.710394241267727E9, 0.0, 2024-03-13 22:30:41.267
19.0, -661.1862629163079, -307.5955516556278, -414.0686334441416, -341.19294290756807, 0.8320000395178795, 0.4640000220388174, 0.4480000212788582, 0.0, 0.0, 0.0, 0.0, 0.0, 1.7103942412684276E9, 0.0, 2024-03-13 22:30:41.268
19.0, -655.9092640788294, -305.7667405772954, -417.6290182019584, -336.1739971670322, 0.8320000395178795, 0.4640000220388174, 0.4480000212788582, 0.0, 0.0, 0.0, 0.0, 0.0, 1.7103942412684276E9, 0.0, 2024-03-13 22:30:41.268
20.0, -644.999975908082, -298.077506268397, -393.55902208713815, -323.0282488227822, 0.8320000395178795, 0.4640000220388174, 0.4480000212788582, 0.0, 0.0, 0.0, 0.0, 0.0, 1.710394241282715E9, 0.0, 2024-03-13 22:30:41.282
20.0, -651.6719574290328, -302.2512346189469, -403.86244646506384, -329.4384373468347, 0.8320000395178795, 0.4640000220388174, 0.4480000212788582, 0.0, 0.0, 0.0, 0.0, 0.0, 1.710394241282715E9, 0.0, 2024-03-13 22:30:41.282
21.0, -652.838806215208, -312.53969939704984, -411.0692336796783, -330.94187712902203, 0.8320000395178795, 0.4640000220388174, 0.4480000212788582, 0.0, 0.0, 0.0, 0.0, 0.0, 1.7103942412833881E9, 0.0, 2024-03-13 22:30:41.283
21.0, -647.688963976223, -303.8444320000708, -390.7241779207252, -329.40851814718917, 0.8320000395178795, 0.4640000220388174, 0.4480000212788582, 0.0, 0.0, 0.0, 0.0, 0.0, 1.7103942412833881E9, 0.0, 2024-03-13 22:30:41.283
22.0, -653.5194680071436, -305.807879476808, -404.7974214539863, -331.48790252255276, 0.8320000395178795, 0.4640000220388174, 0.4480000212788582, 0.0, 0.0, 0.0, 0.0, 0.0, 1.7103942412969484E9, 0.0, 2024-03-13 22:30:41.296
22.0, -654.226309098769, -303.09271210897714, -406.6898108315654, -332.4041780116968, 0.8320000395178795, 0.4640000220388174, 0.4480000212788582, 0.0, 0.0, 0.0, 0.0, 0.0, 1.7103942412969484E9, 0.0, 2024-03-13 22:30:41.296
23.0, -647.5281482781284, -297.83067287132144, -403.2378831724636, -328.7652553548105, 0.8320000395178795, 0.4640000220388174, 0.4480000212788582, 0.0, 0.0, 0.0, 0.0, 0.0, 1.7103942413131387E9, 0.0, 2024-03-13 22:30:41.313
23.0, -645.6806377000175, -300.89739083498716, -385.9109266777523, -327.9910960639827, 0.8320000395178795, 0.4640000220388174, 0.4480000212788582, 0.0, 0.0, 0.0, 0.0, 0.0, 1.7103942413131387E9, 0.0, 2024-03-13 22:30:41.313
24.0, -652.0758666242473, -301.37983792927116, -409.2479024012573, -336.5105881630443, 0.8320000395178795, 0.4640000220388174, 0.4480000212788582, 0.0, 0.0, 0.0, 0.0, 0.0, 1.7103942413134542E9, 0.0, 2024-03-13 22:30:41.313
24.0, -648.7660551634617, -300.8001534361392, -409.0609074034728, -328.34264665981755, 0.8320000395178795, 0.4640000220388174, 0.4480000212788582, 0.0, 0.0, 0.0, 0.0, 0.0, 1.7103942413134542E9, 0.0, 2024-03-13 22:30:41.313
25.0, -633.7129578418098, -284.6886644270271, -379.9383064485155, -313.1399533399381, 0.8320000395178795, 0.4640000220388174, 0.4480000212788582, 0.0, 0.0, 0.0, 0.0, 0.0, 1.7103942413273065E9, 0.0, 2024-03-13 22:30:41.327
25.0, -647.8236003746279, -292.4003381356597, -400.67979160277173, -324.8869791007601, 0.8320000395178795, 0.4640000220388174, 0.4480000212788582, 0.0, 0.0, 0.0, 0.0, 0.0, 1.7103942413273065E9, 0.0, 2024-03-13 22:30:41.327
26.0, -665.9920343593694, -309.01297373883426, -423.844731928315, -339.8764981231652, 0.8320000395178795, 0.4640000220388174, 0.4480000212788582, 0.0, 0.0, 0.0, 0.0, 0.0, 1.710394241342995E9, 0.0, 2024-03-13 22:30:41.342
26.0, -651.1483714352362, -304.1847628960386, -404.1653783614747, -331.96660971688107, 0.8320000395178795, 0.4640000220388174, 0.4480000212788582, 0.0, 0.0, 0.0, 0.0, 0.0, 1.710394241342995E9, 0.0, 2024-03-13 22:30:41.342
27.0, -661.0291871181689, -309.5216001328081, -411.45070347515866, -344.1736431722529, 0.8320000395178795, 0.4640000220388174, 0.4480000212788582, 0.0, 0.0, 0.0, 0.0, 0.0, 1.7103942413436658E9, 0.0, 2024-03-13 22:30:41.343
27.0, -655.6025922824629, -308.83719844091684, -424.8956438158639, -344.4354361691512, 0.8320000395178795, 0.4640000220388174, 0.4480000212788582, 0.0, 0.0, 0.0, 0.0, 0.0, 1.7103942413436658E9, 0.0, 2024-03-13 22:30:41.343
28.0, -651.2418689341284, -308.3023927472532, -416.45094971591607, -346.3764442461543, 0.8320000395178795, 0.4640000220388174, 0.4480000212788582, 0.0, 0.0, 0.0, 0.0, 0.0, 1.7103942413570323E9, 0.0, 2024-03-13 22:30:41.357
28.0, -653.1230386118405, -306.8213923648, -405.15271194977686, -344.7308882656507, 0.8320000395178795, 0.4640000220388174, 0.4480000212788582, 0.0, 0.0, 0.0, 0.0, 0.0, 1.7103942413570323E9, 0.0, 2024-03-13 22:30:41.357
29.0, -660.6514572226442, -315.0080333678052, -429.7724733580835, -351.79555928194895, 0.8320000395178795, 0.4640000220388174, 0.4480000212788582, 0.0, 0.0, 0.0, 0.0, 0.0, 1.7103942413727217E9, 0.0, 2024-03-13 22:30:41.372
29.0, -651.705616528634, -305.7330814776942, -425.026540314313, -347.079545437824, 0.8320000395178795, 0.4640000220388174, 0.4480000212788582, 0.0, 0.0, 0.0, 0.0, 0.0, 1.7103942413727217E9, 0.0, 2024-03-13 22:30:41.372
30.0, -648.0330347721465, -307.3748975582421, -400.2459632079117, -341.5519733033143, 0.8320000395178795, 0.4640000220388174, 0.4480000212788582, 0.0, 0.0, 0.0, 0.0, 0.0, 1.7103942413734195E9, 0.0, 2024-03-13 22:30:41.373
30.0, -659.967055530753, -316.71716764755547, -410.6129658850841, -345.4003303577192, 0.8320000395178795, 0.4640000220388174, 0.4480000212788582, 0.0, 0.0, 0.0, 0.0, 0.0, 1.7103942413734195E9, 0.0, 2024-03-13 22:30:41.373
31.0, -660.5280405241065, -314.61534387245774, -425.13125751307234, -347.3263788348995, 0.8320000395178795, 0.4640000220388174, 0.4480000212788582, 0.0, 0.0, 0.0, 0.0, 0.0, 1.710394241387047E9, 0.0, 2024-03-13 22:30:41.387
31.0, -661.1413841168396, -317.0350591437891, -412.6175522613339, -344.9515423630364, 0.8320000395178795, 0.4640000220388174, 0.4480000212788582, 0.0, 0.0, 0.0, 0.0, 0.0, 1.710394241387047E9, 0.0, 2024-03-13 22:30:41.387
32.0, -662.1511571048759, -308.61280444357544, -401.9176984881051, -337.53158085094765, 0.8320000395178795, 0.4640000220388174, 0.4480000212788582, 0.0, 0.0, 0.0, 0.0, 0.0, 1.7103942414027212E9, 0.0, 2024-03-13 22:30:41.402
32.0, -650.1572979469784, -301.4321965286508, -417.37844490492716, -333.52614799840376, 0.8320000395178795, 0.4640000220388174, 0.4480000212788582, 0.0, 0.0, 0.0, 0.0, 0.0, 1.7103942414027212E9, 0.0, 2024-03-13 22:30:41.402
33.0, -647.1616380824707, -309.0690722381696, -402.4412844819017, -330.33601333620027, 0.8320000395178795, 0.4640000220388174, 0.4480000212788582, 0.0, 0.0, 0.0, 0.0, 0.0, 1.7103942414034288E9, 0.0, 2024-03-13 22:30:41.403
33.0, -650.5612071421929, -304.78688678890467, -392.6913652974181, -328.5483411573805, 0.8320000395178795, 0.4640000220388174, 0.4480000212788582, 0.0, 0.0, 0.0, 0.0, 0.0, 1.7103942414034288E9, 0.0, 2024-03-13 22:30:41.403
34.0, -655.2622613864951, -309.8432315289974, -416.26769461808726, -341.20416260743514, 0.8320000395178795, 0.4640000220388174, 0.4480000212788582, 0.0, 0.0, 0.0, 0.0, 0.0, 1.71039424141701E9, 0.0, 2024-03-13 22:30:41.417
34.0, -653.6840236051939, -308.8222388410941, -421.9224233510904, -342.71882208948955, 0.8320000395178795, 0.4640000220388174, 0.4480000212788582, 0.0, 0.0, 0.0, 0.0, 0.0, 1.71039424141701E9, 0.0, 2024-03-13 22:30:41.417
35.0, -659.2265553395264, -312.8089721938595, -403.0583679745905, -341.68660970171914, 0.8320000395178795, 0.4640000220388174, 0.4480000212788582, 0.0, 0.0, 0.0, 0.0, 0.0, 1.7103942414327314E9, 0.0, 2024-03-13 22:30:41.432
35.0, -666.624077451881, -313.83744468167424, -415.6954899248667, -349.1439702133648, 0.8320000395178795, 0.4640000220388174, 0.4480000212788582, 0.0, 0.0, 0.0, 0.0, 0.0, 1.7103942414327314E9, 0.0, 2024-03-13 22:30:41.432
36.0, -651.5709801302291, -310.5912115201354, -426.75063419388607, -344.8580448641442, 0.8320000395178795, 0.4640000220388174, 0.4480000212788582, 0.0, 0.0, 0.0, 0.0, 0.0, 1.710394241433422E9, 0.0, 2024-03-13 22:30:41.433
36.0, -643.878005921375, -303.79955320060253, -399.00431642262265, -333.4812691989355, 0.8320000395178795, 0.4640000220388174, 0.4480000212788582, 0.0, 0.0, 0.0, 0.0, 0.0, 1.710394241433422E9, 0.0, 2024-03-13 22:30:41.433
37.0, -646.6455318885855, -303.72101530153304, -390.9897108175792, -328.3987451591529, 0.8320000395178795, 0.4640000220388174, 0.4480000212788582, 0.0, 0.0, 0.0, 0.0, 0.0, 1.7103942414471817E9, 0.0, 2024-03-13 22:30:41.447
37.0, -651.2269093343057, -301.30503993015736, -424.5066942204721, -336.75742156011984, 0.8320000395178795, 0.4640000220388174, 0.4480000212788582, 0.0, 0.0, 0.0, 0.0, 0.0, 1.7103942414471817E9, 0.0, 2024-03-13 22:30:41.447
38.0, -639.0385753787123, -289.7599687669426, -404.5057092574425, -331.8095339187421, 0.8320000395178795, 0.4640000220388174, 0.4480000212788582, 0.0, 0.0, 0.0, 0.0, 0.0, 1.7103942414627016E9, 0.0, 2024-03-13 22:30:41.462
38.0, -639.7678558700718, -291.4017848474905, -394.1648858799599, -331.01293522818014, 0.8320000395178795, 0.4640000220388174, 0.4480000212788582, 0.0, 0.0, 0.0, 0.0, 0.0, 1.7103942414627016E9, 0.0, 2024-03-13 22:30:41.462
39.0, -659.0993987410329, -310.1162442257628, -422.4422694449313, -347.0384065383114, 0.8320000395178795, 0.4640000220388174, 0.4480000212788582, 0.0, 0.0, 0.0, 0.0, 0.0, 1.7103942414634328E9, 0.0, 2024-03-13 22:30:41.463
39.0, -655.3071401859634, -306.0696724737063, -419.2147357831709, -340.72171551315114, 0.8320000395178795, 0.4640000220388174, 0.4480000212788582, 0.0, 0.0, 0.0, 0.0, 0.0, 1.7103942414634328E9, 0.0, 2024-03-13 22:30:41.463
40.0, -661.3433387144469, -313.4896339857951, -404.71514365496114, -343.485501580406, 0.8320000395178795, 0.4640000220388174, 0.4480000212788582, 0.0, 0.0, 0.0, 0.0, 0.0, 1.710394241477038E9, 0.0, 2024-03-13 22:30:41.477
40.0, -662.0576596059836, -311.7094416068867, -407.7407227191143, -342.01572089781985, 0.8320000395178795, 0.4640000220388174, 0.4480000212788582, 0.0, 0.0, 0.0, 0.0, 0.0, 1.710394241477038E9, 0.0, 2024-03-13 22:30:41.477
41.0, -664.477374877315, -314.9631545683369, -421.93364305095747, -342.72630188940093, 0.8320000395178795, 0.4640000220388174, 0.4480000212788582, 0.0, 0.0, 0.0, 0.0, 0.0, 1.7103942415093348E9, 0.0, 2024-03-13 22:30:41.509
41.0, -658.4075172492303, -305.9948744745925, -403.30146147171035, -332.81930690677837, 0.8320000395178795, 0.4640000220388174, 0.4480000212788582, 0.0, 0.0, 0.0, 0.0, 0.0, 1.7103942415093348E9, 0.0, 2024-03-13 22:30:41.509
42.0, -657.6296180584468, -312.2592069003731, -401.5474483924918, -339.9176370226778, 0.8320000395178795, 0.4640000220388174, 0.4480000212788582, 0.0, 0.0, 0.0, 0.0, 0.0, 1.7103942415100846E9, 0.0, 2024-03-13 22:30:41.510
42.0, -651.4737427313812, -304.20346239581704, -421.68680965388194, -339.2220156309195, 0.8320000395178795, 0.4640000220388174, 0.4480000212788582, 0.0, 0.0, 0.0, 0.0, 0.0, 1.7103942415100846E9, 0.0, 2024-03-13 22:30:41.510
43.0, -652.079606524203, -295.26510150171816, -401.1024002977647, -329.9134046412073, 0.8320000395178795, 0.4640000220388174, 0.4480000212788582, 0.0, 0.0, 0.0, 0.0, 0.0, 1.7103942415108545E9, 0.0, 2024-03-13 22:30:41.510
43.0, -648.1527115707286, -299.89883754681796, -391.88728680694476, -326.30066128401086, 0.8320000395178795, 0.4640000220388174, 0.4480000212788582, 0.0, 0.0, 0.0, 0.0, 0.0, 1.7103942415108545E9, 0.0, 2024-03-13 22:30:41.510
44.0, -652.4685561195947, -298.8516655592248, -418.1002455963753, -335.23154237819836, 0.8320000395178795, 0.4640000220388174, 0.4480000212788582, 0.0, 0.0, 0.0, 0.0, 0.0, 1.710394241511336E9, 0.0, 2024-03-13 22:30:41.511
44.0, -637.5276557966135, -288.48840278200805, -406.0689874389209, -328.19679056154564, 0.8320000395178795, 0.4640000220388174, 0.4480000212788582, 0.0, 0.0, 0.0, 0.0, 0.0, 1.710394241511336E9, 0.0, 2024-03-13 22:30:41.511
45.0, -640.2278635646217, -285.2496494203806, -386.89078046614304, -323.1703650210984, 0.8320000395178795, 0.4640000220388174, 0.4480000212788582, 0.0, 0.0, 0.0, 0.0, 0.0, 1.71039424152232E9, 0.0, 2024-03-13 22:30:41.522
45.0, -637.6361128953286, -288.2153900852427, -399.04545532213524, -321.4649706413038, 0.8320000395178795, 0.4640000220388174, 0.4480000212788582, 0.0, 0.0, 0.0, 0.0, 0.0, 1.71039424152232E9, 0.0, 2024-03-13 22:30:41.522
46.0, -634.0196296381764, -281.9772369591519, -403.8400070653297, -318.8470406723209, 0.8320000395178795, 0.4640000220388174, 0.4480000212788582, 0.0, 0.0, 0.0, 0.0, 0.0, 1.710394241537065E9, 0.0, 2024-03-13 22:30:41.537
46.0, -630.201191783417, -273.3231084616855, -383.7904034028761, -315.08096141694114, 0.8320000395178795, 0.4640000220388174, 0.4480000212788582, 0.0, 0.0, 0.0, 0.0, 0.0, 1.710394241537065E9, 0.0, 2024-03-13 22:30:41.537
47.0, -640.1979443649761, -286.3865790069103, -392.83722139569, -320.9787836470641, 0.8320000395178795, 0.4640000220388174, 0.4480000212788582, 0.0, 0.0, 0.0, 0.0, 0.0, 1.7103942415527816E9, 0.0, 2024-03-13 22:30:41.552
47.0, -641.5069093494676, -285.3207075195387, -404.66652495553717, -320.66463205078617, 0.8320000395178795, 0.4640000220388174, 0.4480000212788582, 0.0, 0.0, 0.0, 0.0, 0.0, 1.7103942415527816E9, 0.0, 2024-03-13 22:30:41.552
48.0, -643.9565438204445, -293.5073485225439, -399.060414921958, -321.5809075399302, 0.8320000395178795, 0.4640000220388174, 0.4480000212788582, 0.0, 0.0, 0.0, 0.0, 0.0, 1.7103942415533583E9, 0.0, 2024-03-13 22:30:41.553
48.0, -641.1665784534998, -296.74610188417137, -387.6537200571038, -320.6534123509191, 0.8320000395178795, 0.4640000220388174, 0.4480000212788582, 0.0, 0.0, 0.0, 0.0, 0.0, 1.7103942415533583E9, 0.0, 2024-03-13 22:30:41.553
49.0, -647.0307415840216, -293.4736894229427, -399.22497052000836, -320.5786143518053, 0.8320000395178795, 0.4640000220388174, 0.4480000212788582, 0.0, 0.0, 0.0, 0.0, 0.0, 1.7103942415669975E9, 0.0, 2024-03-13 22:30:41.566
49.0, -646.6492717885412, -296.48804878722876, -407.7369828191586, -327.1757978736423, 0.8320000395178795, 0.4640000220388174, 0.4480000212788582, 0.0, 0.0, 0.0, 0.0, 0.0, 1.7103942415669975E9, 0.0, 2024-03-13 22:30:41.566
50.0, -644.8728193095885, -290.7772215548903, -388.89162694243714, -321.9511576355435, 0.8320000395178795, 0.4640000220388174, 0.4480000212788582, 0.0, 0.0, 0.0, 0.0, 0.0, 1.7103942415827796E9, 0.0, 2024-03-13 22:30:41.582
50.0, -653.6728039053269, -300.78893373627216, -402.8751128767617, -328.08459356287494, 0.8320000395178795, 0.4640000220388174, 0.4480000212788582, 0.0, 0.0, 0.0, 0.0, 0.0, 1.7103942415827796E9, 0.0, 2024-03-13 22:30:41.582
51.0, -643.6760513237678, -300.4299033405259, -409.42367769917473, -324.4344512061216, 0.8320000395178795, 0.4640000220388174, 0.4480000212788582, 0.0, 0.0, 0.0, 0.0, 0.0, 1.7103942415833948E9, 0.0, 2024-03-13 22:30:41.583
51.0, -649.7421690518968, -298.00644816923887, -390.92613251833245, -320.52625575242564, 0.8320000395178795, 0.4640000220388174, 0.4480000212788582, 0.0, 0.0, 0.0, 0.0, 0.0, 1.7103942415833948E9, 0.0, 2024-03-13 22:30:41.583
52.0, -648.8071940629743, -300.79267363622785, -389.5049705351703, -325.2759286961518, 0.8320000395178795, 0.4640000220388174, 0.4480000212788582, 0.0, 0.0, 0.0, 0.0, 0.0, 1.7103942415969856E9, 0.0, 2024-03-13 22:30:41.596
52.0, -662.5288870004006, -306.7839933652431, -424.86946451617405, -335.657890973147, 0.8320000395178795, 0.4640000220388174, 0.4480000212788582, 0.0, 0.0, 0.0, 0.0, 0.0, 1.7103942415969856E9, 0.0, 2024-03-13 22:30:41.596
53.0, -649.7459089518525, -305.3216924825683, -402.2505495841615, -330.71748313168064, 0.8320000395178795, 0.4640000220388174, 0.4480000212788582, 0.0, 0.0, 0.0, 0.0, 0.0, 1.710394241629052E9, 0.0, 2024-03-13 22:30:41.629
53.0, -650.209656546358, -301.8922042232007, -385.48083818284795, -328.96720995241776, 0.8320000395178795, 0.4640000220388174, 0.4480000212788582, 0.0, 0.0, 0.0, 0.0, 0.0, 1.710394241629052E9, 0.0, 2024-03-13 22:30:41.629
54.0, -662.8953971960582, -302.8795378115028, -408.75049570715055, -331.6225389209576, 0.8320000395178795, 0.4640000220388174, 0.4480000212788582, 0.0, 0.0, 0.0, 0.0, 0.0, 1.710394241629796E9, 0.0, 2024-03-13 22:30:41.629
54.0, -656.2234156751074, -308.2575139477849, -409.59945299709216, -332.8417463065125, 0.8320000395178795, 0.4640000220388174, 0.4480000212788582, 0.0, 0.0, 0.0, 0.0, 0.0, 1.710394241629796E9, 0.0, 2024-03-13 22:30:41.629
55.0, -650.6360051413067, -302.27741391863674, -386.74118446791545, -330.134058738593, 0.8320000395178795, 0.4640000220388174, 0.4480000212788582, 0.0, 0.0, 0.0, 0.0, 0.0, 1.7103942416305172E9, 0.0, 2024-03-13 22:30:41.630
55.0, -659.3798912377097, -304.84298528824, -406.3943587350659, -335.52699447469786, 0.8320000395178795, 0.4640000220388174, 0.4480000212788582, 0.0, 0.0, 0.0, 0.0, 0.0, 1.7103942416305172E9, 0.0, 2024-03-13 22:30:41.630
56.0, -653.9794757016934, -312.42002259846777, -420.2245087712072, -339.52868742728606, 0.8320000395178795, 0.4640000220388174, 0.4480000212788582, 0.0, 0.0, 0.0, 0.0, 0.0, 1.7103942416316504E9, 0.0, 2024-03-13 22:30:41.631
56.0, -638.6870247828774, -298.11864516790956, -400.36937990644947, -327.33661357173696, 0.8320000395178795, 0.4640000220388174, 0.4480000212788582, 0.0, 0.0, 0.0, 0.0, 0.0, 1.7103942416316504E9, 0.0, 2024-03-13 22:30:41.631
57.0, -653.2314957105555, -308.31361244712025, -409.07586700329557, -331.147571626585, 0.8320000395178795, 0.4640000220388174, 0.4480000212788582, 0.0, 0.0, 0.0, 0.0, 0.0, 1.7103942416423643E9, 0.0, 2024-03-13 22:30:41.642
57.0, -651.5186215308495, -303.3208460062742, -422.1430774484761, -333.354112600442, 0.8320000395178795, 0.4640000220388174, 0.4480000212788582, 0.0, 0.0, 0.0, 0.0, 0.0, 1.7103942416423643E9, 0.0, 2024-03-13 22:30:41.642
58.0, -633.7914957408793, -293.82150011882186, -405.11157305026427, -327.07856047479436, 0.8320000395178795, 0.4640000220388174, 0.4480000212788582, 0.0, 0.0, 0.0, 0.0, 0.0, 1.7103942416574328E9, 0.0, 2024-03-13 22:30:41.657
58.0, -642.2848085402511, -293.60084602143615, -384.4299262952991, -320.0662480578758, 0.8320000395178795, 0.4640000220388174, 0.4480000212788582, 0.0, 0.0, 0.0, 0.0, 0.0, 1.7103942416574328E9, 0.0, 2024-03-13 22:30:41.657
59.0, -650.2021767464466, -301.3237394299358, -409.3563594999723, -331.6225389209576, 0.8320000395178795, 0.4640000220388174, 0.4480000212788582, 0.0, 0.0, 0.0, 0.0, 0.0, 1.710394241673154E9, 0.0, 2024-03-13 22:30:41.673
59.0, -647.2588754813187, -302.7374216131866, -416.4696492156945, -331.42058432335034, 0.8320000395178795, 0.4640000220388174, 0.4480000212788582, 0.0, 0.0, 0.0, 0.0, 0.0, 1.710394241673154E9, 0.0, 2024-03-13 22:30:41.673
60.0, -655.9167438787408, -310.16860282514244, -398.31243493082, -332.90158470580354, 0.8320000395178795, 0.4640000220388174, 0.4480000212788582, 0.0, 0.0, 0.0, 0.0, 0.0, 1.71039424167365E9, 0.0, 2024-03-13 22:30:41.673
60.0, -665.7900797617622, -316.8817232456058, -413.3991913520731, -340.01861432148144, 0.8320000395178795, 0.4640000220388174, 0.4480000212788582, 0.0, 0.0, 0.0, 0.0, 0.0, 1.71039424167365E9, 0.0, 2024-03-13 22:30:41.673
61.0, -658.1158050526865, -307.9957209508866, -423.2500878353603, -339.3192530297674, 0.8320000395178795, 0.4640000220388174, 0.4480000212788582, 0.0, 0.0, 0.0, 0.0, 0.0, 1.7103942417034135E9, 0.0, 2024-03-13 22:30:41.703
61.0, -643.7545892228372, -292.11984563898295, -394.26212327880785, -326.9065250768326, 0.8320000395178795, 0.4640000220388174, 0.4480000212788582, 0.0, 0.0, 0.0, 0.0, 0.0, 1.7103942417034135E9, 0.0, 2024-03-13 22:30:41.703
62.0, -647.5655472776853, -300.0409537451342, -396.47988395253196, -326.97010337607935, 0.8320000395178795, 0.4640000220388174, 0.4480000212788582, 0.0, 0.0, 0.0, 0.0, 0.0, 1.710394241704151E9, 0.0, 2024-03-13 22:30:41.704
62.0, -643.8817458213307, -302.0044012218714, -410.1379985907115, -328.30150776030496, 0.8320000395178795, 0.4640000220388174, 0.4480000212788582, 0.0, 0.0, 0.0, 0.0, 0.0, 1.710394241704151E9, 0.0, 2024-03-13 22:30:41.704
63.0, -645.8190139983781, -295.2950207013637, -407.0712806270458, -332.0675870156847, 0.8320000395178795, 0.4640000220388174, 0.4480000212788582, 0.0, 0.0, 0.0, 0.0, 0.0, 1.710394241704883E9, 0.0, 2024-03-13 22:30:41.704
63.0, -645.4450240028091, -294.33760631270707, -392.1602995037101, -323.9894031113945, 0.8320000395178795, 0.4640000220388174, 0.4480000212788582, 0.0, 0.0, 0.0, 0.0, 0.0, 1.710394241704883E9, 0.0, 2024-03-13 22:30:41.704
64.0, -654.6863167933188, -304.3941972935572, -409.1394453025423, -334.2217693901621, 0.8320000395178795, 0.4640000220388174, 0.4480000212788582, 0.0, 0.0, 0.0, 0.0, 0.0, 1.7103942417170117E9, 0.0, 2024-03-13 22:30:41.717
64.0, -643.3768593273126, -300.9684489341453, -411.48436257475987, -330.3584527359344, 0.8320000395178795, 0.4640000220388174, 0.4480000212788582, 0.0, 0.0, 0.0, 0.0, 0.0, 1.7103942417170117E9, 0.0, 2024-03-13 22:30:41.717
65.0, -647.2626153812744, -299.8090799478814, -399.92807171167806, -331.7272561197169, 0.8320000395178795, 0.4640000220388174, 0.4480000212788582, 0.0, 0.0, 0.0, 0.0, 0.0, 1.7103942417331843E9, 0.0, 2024-03-13 22:30:41.733
65.0, -653.8523191032, -309.90680982824415, -411.5890797735192, -337.9878486455418, 0.8320000395178795, 0.4640000220388174, 0.4480000212788582, 0.0, 0.0, 0.0, 0.0, 0.0, 1.7103942417331843E9, 0.0, 2024-03-13 22:30:41.733
66.0, -639.210610776674, -300.0746128447354, -416.79876041179523, -334.5060017867945, 0.8320000395178795, 0.4640000220388174, 0.4480000212788582, 0.0, 0.0, 0.0, 0.0, 0.0, 1.7103942417334476E9, 0.0, 2024-03-13 22:30:41.733
66.0, -648.3135272688232, -310.06014572642744, -406.07646723883227, -332.19848351413384, 0.8320000395178795, 0.4640000220388174, 0.4480000212788582, 0.0, 0.0, 0.0, 0.0, 0.0, 1.7103942417334476E9, 0.0, 2024-03-13 22:30:41.733
67.0, -651.7205761284567, -309.5216001328081, -398.5368289281614, -330.41829113522545, 0.8320000395178795, 0.4640000220388174, 0.4480000212788582, 0.0, 0.0, 0.0, 0.0, 0.0, 1.7103942417633712E9, 0.0, 2024-03-13 22:30:41.763
67.0, -665.0645391703583, -315.43438196275383, -424.3346588225104, -340.23926841886714, 0.8320000395178795, 0.4640000220388174, 0.4480000212788582, 0.0, 0.0, 0.0, 0.0, 0.0, 1.7103942417633712E9, 0.0, 2024-03-13 22:30:41.763
68.0, -650.161037846934, -308.90451664011925, -411.289887777064, -334.210549690295, 0.8320000395178795, 0.4640000220388174, 0.4480000212788582, 0.0, 0.0, 0.0, 0.0, 0.0, 1.7103942417641437E9, 0.0, 2024-03-13 22:30:41.764
68.0, -656.2421151748858, -319.39867591578513, -400.5526350042783, -331.5103419222869, 0.8320000395178795, 0.4640000220388174, 0.4480000212788582, 0.0, 0.0, 0.0, 0.0, 0.0, 1.7103942417641437E9, 0.0, 2024-03-13 22:30:41.764
69.0, -668.9502952243201, -322.72718687634915, -416.813720011618, -339.09111913247034, 0.8320000395178795, 0.4640000220388174, 0.4480000212788582, 0.0, 0.0, 0.0, 0.0, 0.0, 1.7103942417650833E9, 0.0, 2024-03-13 22:30:41.765
69.0, -653.9832156016491, -313.2278409888968, -413.72082274826244, -332.6996301081963, 0.8320000395178795, 0.4640000220388174, 0.4480000212788582, 0.0, 0.0, 0.0, 0.0, 0.0, 1.7103942417650833E9, 0.0, 2024-03-13 22:30:41.765
70.0, -658.6244314466603, -311.657083007507, -400.5002764048986, -335.57187327416614, 0.8320000395178795, 0.4640000220388174, 0.4480000212788582, 0.0, 0.0, 0.0, 0.0, 0.0, 1.7103942417770307E9, 0.0, 2024-03-13 22:30:41.777
70.0, -664.4811147772707, -320.17283520661294, -422.87235793983564, -346.3240856467746, 0.8320000395178795, 0.4640000220388174, 0.4480000212788582, 0.0, 0.0, 0.0, 0.0, 0.0, 1.7103942417770307E9, 0.0, 2024-03-13 22:30:41.777
71.0, -658.904923943337, -316.4030160512775, -426.414043197874, -343.71737537765875, 0.8320000395178795, 0.4640000220388174, 0.4480000212788582, 0.0, 0.0, 0.0, 0.0, 0.0, 1.710394241809985E9, 0.0, 2024-03-13 22:30:41.809
71.0, -659.4172902372666, -315.1127505665645, -411.0355745800771, -341.4360364046879, 0.8320000395178795, 0.4640000220388174, 0.4480000212788582, 0.0, 0.0, 0.0, 0.0, 0.0, 1.710394241809985E9, 0.0, 2024-03-13 22:30:41.809
72.0, -666.4146430543624, -312.4873407976702, -408.79163460666314, -337.42312375223264, 0.8320000395178795, 0.4640000220388174, 0.4480000212788582, 0.0, 0.0, 0.0, 0.0, 0.0, 1.7103942418105662E9, 0.0, 2024-03-13 22:30:41.810
72.0, -659.8847777317278, -310.6734893191606, -425.75582080567256, -338.38801794080064, 0.8320000395178795, 0.4640000220388174, 0.4480000212788582, 0.0, 0.0, 0.0, 0.0, 0.0, 1.7103942418105662E9, 0.0, 2024-03-13 22:30:41.810
73.0, -653.0220613130368, -308.90451664011925, -410.5007688864134, -329.3598994477652, 0.8320000395178795, 0.4640000220388174, 0.4480000212788582, 0.0, 0.0, 0.0, 0.0, 0.0, 1.7103942418112469E9, 0.0, 2024-03-13 22:30:41.811
73.0, -656.215935875196, -304.7794069889933, -398.3573137302883, -334.9660094813444, 0.8320000395178795, 0.4640000220388174, 0.4480000212788582, 0.0, 0.0, 0.0, 0.0, 0.0, 1.7103942418112469E9, 0.0, 2024-03-13 22:30:41.811
74.0, -654.8620920912363, -301.86228502355516, -423.49318133248016, -341.0770060089417, 0.8320000395178795, 0.4640000220388174, 0.4480000212788582, 0.0, 0.0, 0.0, 0.0, 0.0, 1.7103942418122957E9, 0.0, 2024-03-13 22:30:41.812
74.0, -646.881145585794, -300.3999841408804, -420.1758900717832, -336.2113961665891, 0.8320000395178795, 0.4640000220388174, 0.4480000212788582, 0.0, 0.0, 0.0, 0.0, 0.0, 1.7103942418122957E9, 0.0, 2024-03-13 22:30:41.812
75.0, -651.7691948278807, -310.1125043258071, -400.2871021074243, -329.89470514142886, 0.8320000395178795, 0.4640000220388174, 0.4480000212788582, 0.0, 0.0, 0.0, 0.0, 0.0, 1.710394241821964E9, 0.0, 2024-03-13 22:30:41.821
75.0, -655.2547815865837, -309.8507113289088, -408.5934199090116, -334.37510528834537, 0.8320000395178795, 0.4640000220388174, 0.4480000212788582, 0.0, 0.0, 0.0, 0.0, 0.0, 1.710394241821964E9, 0.0, 2024-03-13 22:30:41.821
76.0, -650.8529193387367, -304.34557859413326, -417.296167105902, -331.9853092166595, 0.8320000395178795, 0.4640000220388174, 0.4480000212788582, 0.0, 0.0, 0.0, 0.0, 0.0, 1.7103942418377092E9, 0.0, 2024-03-13 22:30:41.837
76.0, -655.6025922824629, -296.798460483551, -408.0174753158353, -332.67345080850646, 0.8320000395178795, 0.4640000220388174, 0.4480000212788582, 0.0, 0.0, 0.0, 0.0, 0.0, 1.7103942418377092E9, 0.0, 2024-03-13 22:30:41.837
77.0, -655.7110493811779, -309.24110763613135, -400.67979160277173, -334.7341356840916, 0.8320000395178795, 0.4640000220388174, 0.4480000212788582, 0.0, 0.0, 0.0, 0.0, 0.0, 1.7103942418528688E9, 0.0, 2024-03-13 22:30:41.852
77.0, -665.4123498662375, -314.35355087555945, -428.1456168773584, -346.8962903399952, 0.8320000395178795, 0.4640000220388174, 0.4480000212788582, 0.0, 0.0, 0.0, 0.0, 0.0, 1.7103942418528688E9, 0.0, 2024-03-13 22:30:41.852
78.0, -660.3821844258346, -320.0007998086512, -421.7803071527742, -346.1483103488572, 0.8320000395178795, 0.4640000220388174, 0.4480000212788582, 0.0, 0.0, 0.0, 0.0, 0.0, 1.710394241853411E9, 0.0, 2024-03-13 22:30:41.853
78.0, -663.4676018892787, -315.4755208622664, -412.845686158631, -347.94720222754404, 0.8320000395178795, 0.4640000220388174, 0.4480000212788582, 0.0, 0.0, 0.0, 0.0, 0.0, 1.710394241853411E9, 0.0, 2024-03-13 22:30:41.853
79.0, -662.2558743036352, -324.72429345268756, -423.4071636334993, -346.8177524409257, 0.8320000395178795, 0.4640000220388174, 0.4480000212788582, 0.0, 0.0, 0.0, 0.0, 0.0, 1.7103942418670003E9, 0.0, 2024-03-13 22:30:41.867
79.0, -662.1810763045214, -317.072458143346, -424.7310882178135, -347.68540923064575, 0.8320000395178795, 0.4640000220388174, 0.4480000212788582, 0.0, 0.0, 0.0, 0.0, 0.0, 1.7103942418670003E9, 0.0, 2024-03-13 22:30:41.867
80.0, -661.2274018158205, -317.31181174051017, -411.60029947338626, -343.9529890748672, 0.8320000395178795, 0.4640000220388174, 0.4480000212788582, 0.0, 0.0, 0.0, 0.0, 0.0, 1.7103942418827868E9, 0.0, 2024-03-13 22:30:41.882
80.0, -660.7374749216251, -330.57723688334227, -425.64736370695755, -353.0484257671051, 0.8320000395178795, 0.4640000220388174, 0.4480000212788582, 0.0, 0.0, 0.0, 0.0, 0.0, 1.7103942418827868E9, 0.0, 2024-03-13 22:30:41.882
81.0, -652.2292025224306, -313.3400379875675, -431.5601455369033, -349.1065712138079, 0.8320000395178795, 0.4640000220388174, 0.4480000212788582, 0.0, 0.0, 0.0, 0.0, 0.0, 1.710394241883518E9, 0.0, 2024-03-13 22:30:41.883
81.0, -646.3762590917759, -309.75347393006086, -405.9792298399843, -335.67659047292545, 0.8320000395178795, 0.4640000220388174, 0.4480000212788582, 0.0, 0.0, 0.0, 0.0, 0.0, 1.710394241883518E9, 0.0, 2024-03-13 22:30:41.883
82.0, -661.8370055085979, -314.34981097560376, -420.4713421682827, -347.887363828253, 0.8320000395178795, 0.4640000220388174, 0.4480000212788582, 0.0, 0.0, 0.0, 0.0, 0.0, 1.7103942418970108E9, 0.0, 2024-03-13 22:30:41.897
82.0, -652.1618843232282, -316.47033425047994, -430.31101895170286, -347.3263788348995, 0.8320000395178795, 0.4640000220388174, 0.4480000212788582, 0.0, 0.0, 0.0, 0.0, 0.0, 1.7103942418970108E9, 0.0, 2024-03-13 22:30:41.897
83.0, -653.743862004485, -314.5629852730781, -416.6304649137892, -340.83017261186615, 0.8320000395178795, 0.4640000220388174, 0.4480000212788582, 0.0, 0.0, 0.0, 0.0, 0.0, 1.7103942419129517E9, 0.0, 2024-03-13 22:30:41.912
83.0, -656.4852086720057, -314.3685104753822, -411.48436257475987, -342.2513345950283, 0.8320000395178795, 0.4640000220388174, 0.4480000212788582, 0.0, 0.0, 0.0, 0.0, 0.0, 1.7103942419129517E9, 0.0, 2024-03-13 22:30:41.912
84.0, -648.8969516619109, -310.87544391676784, -425.31451261090115, -345.6359440549277, 0.8320000395178795, 0.4640000220388174, 0.4480000212788582, 0.0, 0.0, 0.0, 0.0, 0.0, 1.7103942419134345E9, 0.0, 2024-03-13 22:30:41.913
84.0, -654.6750970934518, -316.1150437546894, -422.505847744178, -346.0361133501865, 0.8320000395178795, 0.4640000220388174, 0.4480000212788582, 0.0, 0.0, 0.0, 0.0, 0.0, 1.7103942419134345E9, 0.0, 2024-03-13 22:30:41.913
85.0, -651.271788133774, -319.61559011321515, -408.6308189085685, -340.3926043170504, 0.8320000395178795, 0.4640000220388174, 0.4480000212788582, 0.0, 0.0, 0.0, 0.0, 0.0, 1.7103942419273825E9, 0.0, 2024-03-13 22:30:41.927
85.0, -647.797421074938, -305.80039967689663, -413.38049185229465, -339.4426697283052, 0.8320000395178795, 0.4640000220388174, 0.4480000212788582, 0.0, 0.0, 0.0, 0.0, 0.0, 1.7103942419273825E9, 0.0, 2024-03-13 22:30:41.927
86.0, -647.3710724799894, -306.3314654706046, -427.35649798670784, -341.8062865003012, 0.8320000395178795, 0.4640000220388174, 0.4480000212788582, 0.0, 0.0, 0.0, 0.0, 0.0, 1.7103942419589136E9, 0.0, 2024-03-13 22:30:41.958
86.0, -648.7398758637719, -293.0585605278611, -409.7228696956299, -334.01233499264345, 0.8320000395178795, 0.4640000220388174, 0.4480000212788582, 0.0, 0.0, 0.0, 0.0, 0.0, 1.7103942419589136E9, 0.0, 2024-03-13 22:30:41.958
87.0, -652.5770132183097, -298.077506268397, -408.26804861286655, -336.52554776286706, 0.8320000395178795, 0.4640000220388174, 0.4480000212788582, 0.0, 0.0, 0.0, 0.0, 0.0, 1.710394241959318E9, 0.0, 2024-03-13 22:30:41.959
87.0, -655.4305568845011, -299.8801380470395, -424.79092661710456, -339.842839023564, 0.8320000395178795, 0.4640000220388174, 0.4480000212788582, 0.0, 0.0, 0.0, 0.0, 0.0, 1.710394241959318E9, 0.0, 2024-03-13 22:30:41.959
88.0, -649.7683483515866, -291.6598379444331, -415.94232332194224, -336.6975831608288, 0.8320000395178795, 0.4640000220388174, 0.4480000212788582, 0.0, 0.0, 0.0, 0.0, 0.0, 1.7103942419601817E9, 0.0, 2024-03-13 22:30:41.960
88.0, -653.7214226047508, -294.5059018107131, -403.5894337682985, -335.16048427904025, 0.8320000395178795, 0.4640000220388174, 0.4480000212788582, 0.0, 0.0, 0.0, 0.0, 0.0, 1.7103942419601817E9, 0.0, 2024-03-13 22:30:41.960
89.0, -647.8497796743177, -298.93768325820565, -422.16177694825456, -335.93090366991237, 0.8320000395178795, 0.4640000220388174, 0.4480000212788582, 0.0, 0.0, 0.0, 0.0, 0.0, 1.710394241973343E9, 0.0, 2024-03-13 22:30:41.973
89.0, -645.9424306969158, -300.4336432404816, -416.09191932016984, -332.9240241055377, 0.8320000395178795, 0.4640000220388174, 0.4480000212788582, 0.0, 0.0, 0.0, 0.0, 0.0, 1.710394241973343E9, 0.0, 2024-03-13 22:30:41.973
90.0, -641.4582906500436, -305.4114500815049, -395.5673483633436, -328.1818309617229, 0.8320000395178795, 0.4640000220388174, 0.4480000212788582, 0.0, 0.0, 0.0, 0.0, 0.0, 1.7103942419877245E9, 0.0, 2024-03-13 22:30:41.987
90.0, -655.4155972846784, -310.86422421690077, -415.4336969279684, -340.22804871900007, 0.8320000395178795, 0.4640000220388174, 0.4480000212788582, 0.0, 0.0, 0.0, 0.0, 0.0, 1.7103942419877245E9, 0.0, 2024-03-13 22:30:41.987
91.0, -649.9665630492382, -306.5521195679903, -424.98540141480044, -334.68177708471194, 0.8320000395178795, 0.4640000220388174, 0.4480000212788582, 0.0, 0.0, 0.0, 0.0, 0.0, 1.7103942419883258E9, 0.0, 2024-03-13 22:30:41.988
91.0, -648.2013302701525, -302.0791992209852, -402.37396628269926, -330.86707912990823, 0.8320000395178795, 0.4640000220388174, 0.4480000212788582, 0.0, 0.0, 0.0, 0.0, 0.0, 1.7103942419883258E9, 0.0, 2024-03-13 22:30:41.988
92.0, -646.6866707880981, -305.68072287831455, -407.23583622509614, -335.5456939744763, 0.8320000395178795, 0.4640000220388174, 0.4480000212788582, 0.0, 0.0, 0.0, 0.0, 0.0, 1.710394242002731E9, 0.0, 2024-03-13 22:30:42.002
92.0, -641.1665784534998, -301.2863404303789, -426.20086890039966, -340.05227342108265, 0.8320000395178795, 0.4640000220388174, 0.4480000212788582, 0.0, 0.0, 0.0, 0.0, 0.0, 1.710394242002731E9, 0.0, 2024-03-13 22:30:42.002
93.0, -631.745770465117, -292.96880292892456, -404.5131890573539, -329.2402226491831, 0.8320000395178795, 0.4640000220388174, 0.4480000212788582, 0.0, 0.0, 0.0, 0.0, 0.0, 1.7103942420034423E9, 0.0, 2024-03-13 22:30:42.003
93.0, -648.111572671216, -307.8199456529692, -411.132811978925, -342.4345896928571, 0.8320000395178795, 0.4640000220388174, 0.4480000212788582, 0.0, 0.0, 0.0, 0.0, 0.0, 1.7103942420034423E9, 0.0, 2024-03-13 22:30:42.003
94.0, -653.3474326091819, -308.8072792412713, -427.4125964860432, -341.0695262090303, 0.8320000395178795, 0.4640000220388174, 0.4480000212788582, 0.0, 0.0, 0.0, 0.0, 0.0, 1.7103942420172448E9, 0.0, 2024-03-13 22:30:42.017
94.0, -647.0756203834899, -298.3579987650737, -415.01482813293114, -328.38378555933014, 0.8320000395178795, 0.4640000220388174, 0.4480000212788582, 0.0, 0.0, 0.0, 0.0, 0.0, 1.7103942420172448E9, 0.0, 2024-03-13 22:30:42.017
95.0, -647.4047315795906, -297.4417232759297, -387.9005534541793, -321.85018033673987, 0.8320000395178795, 0.4640000220388174, 0.4480000212788582, 0.0, 0.0, 0.0, 0.0, 0.0, 1.7103942420334764E9, 0.0, 2024-03-13 22:30:42.033
95.0, -651.2493487340398, -298.2233623666689, -400.30954150715843, -323.9856632114388, 0.8320000395178795, 0.4640000220388174, 0.4480000212788582, 0.0, 0.0, 0.0, 0.0, 0.0, 1.7103942420334764E9, 0.0, 2024-03-13 22:30:42.033
96.0, -646.3538196920417, -303.2834470067173, -423.5118808322586, -330.9194377292879, 0.8320000395178795, 0.4640000220388174, 0.4480000212788582, 0.0, 0.0, 0.0, 0.0, 0.0, 1.7103942420341032E9, 0.0, 2024-03-13 22:30:42.034
96.0, -634.7189909298904, -285.75453591439873, -400.4628774053417, -316.2141511035152, 0.8320000395178795, 0.4640000220388174, 0.4480000212788582, 0.0, 0.0, 0.0, 0.0, 0.0, 1.7103942420341032E9, 0.0, 2024-03-13 22:30:42.034
97.0, -638.8814995805733, -295.9457632936537, -403.2117038727738, -320.29812185512856, 0.8320000395178795, 0.4640000220388174, 0.4480000212788582, 0.0, 0.0, 0.0, 0.0, 0.0, 1.7103942420471396E9, 0.0, 2024-03-13 22:30:42.047
97.0, -638.0961205898784, -297.0265943808481, -415.2467019301839, -321.59586713975295, 0.8320000395178795, 0.4640000220388174, 0.4480000212788582, 0.0, 0.0, 0.0, 0.0, 0.0, 1.7103942420471396E9, 0.0, 2024-03-13 22:30:42.047
98.0, -641.1142198541202, -289.8347667660564, -402.48990318132564, -318.5777678755112, 0.8320000395178795, 0.4640000220388174, 0.4480000212788582, 0.0, 0.0, 0.0, 0.0, 0.0, 1.7103942420627341E9, 0.0, 2024-03-13 22:30:42.062
98.0, -649.7683483515866, -294.4385836115107, -394.19480507960543, -321.03862204635516, 0.8320000395178795, 0.4640000220388174, 0.4480000212788582, 0.0, 0.0, 0.0, 0.0, 0.0, 1.7103942420627341E9, 0.0, 2024-03-13 22:30:42.062
99.0, -646.5520343896933, -299.19199645519257, -407.63600552035496, -326.18846428534016, 0.8320000395178795, 0.4640000220388174, 0.4480000212788582, 0.0, 0.0, 0.0, 0.0, 0.0, 1.71039424206343E9, 0.0, 2024-03-13 22:30:42.063
99.0, -645.4599836026318, -298.5823927624151, -414.8801917345263, -332.1461249147542, 0.8320000395178795, 0.4640000220388174, 0.4480000212788582, 0.0, 0.0, 0.0, 0.0, 0.0, 1.71039424206343E9, 0.0, 2024-03-13 22:30:42.063
100.0, -647.412211379502, -305.38901068177074, -407.05258112726733, -336.41335076419637, 0.8320000395178795, 0.4640000220388174, 0.4480000212788582, 0.0, 0.0, 0.0, 0.0, 0.0, 1.71039424207808E9, 0.0, 2024-03-13 22:30:42.078
100.0, -646.1069862949662, -306.2566674714908, -411.4806226748042, -338.8031468358822, 0.8320000395178795, 0.4640000220388174, 0.4480000212788582, 0.0, 0.0, 0.0, 0.0, 0.0, 1.71039424207808E9, 0.0, 2024-03-13 22:30:42.078
0.0, -646.6436619386077, -301.1517040319741, -425.026540314313, -343.1900494839065, 0.8320000395178795, 0.4640000220388174, 0.4480000212788582, 0.0, 0.0, 0.0, 0.0, 0.0, 1.7103942420784633E9, 0.0, 2024-03-13 22:30:42.078
1.0, -651.4569131815806, -309.4094031341374, -409.3301802002825, -341.09196560876444, 0.8320000395178795, 0.4640000220388174, 0.4480000212788582, 0.0, 0.0, 0.0, 0.0, 0.0, 1.7103942420922008E9, 0.0, 2024-03-13 22:30:42.092
1.0, -656.0270709274337, -317.1958748418838, -418.7696876884438, -348.3772907224484, 0.8320000395178795, 0.4640000220388174, 0.4480000212788582, 0.0, 0.0, 0.0, 0.0, 0.0, 1.7103942420922008E9, 0.0, 2024-03-13 22:30:42.092
2.0, -653.779391054064, -313.69158858340234, -428.8599377688952, -348.6989221186377, 0.8320000395178795, 0.4640000220388174, 0.4480000212788582, 0.0, 0.0, 0.0, 0.0, 0.0, 1.7103942421080625E9, 0.0, 2024-03-13 22:30:42.108
2.0, -647.5748970275745, -309.1176909375936, -414.8427927349694, -337.1463711555116, 0.8320000395178795, 0.4640000220388174, 0.4480000212788582, 0.0, 0.0, 0.0, 0.0, 0.0, 1.7103942421080625E9, 0.0, 2024-03-13 22:30:42.108
3.0, -661.0310570681468, -312.01611340325326, -408.3241471122019, -341.08822570880875, 0.8320000395178795, 0.4640000220388174, 0.4480000212788582, 0.0, 0.0, 0.0, 0.0, 0.0, 1.7103942421085136E9, 0.0, 2024-03-13 22:30:42.108
3.0, -667.7778365882114, -327.2674254225567, -424.918083215598, -350.4155361982994, 0.8320000395178795, 0.4640000220388174, 0.4480000212788582, 0.0, 0.0, 0.0, 0.0, 0.0, 1.7103942421085136E9, 0.0, 2024-03-13 22:30:42.108
4.0, -651.0978827858344, -317.01635964401066, -423.3697646339424, -346.24180784774944, 0.8320000395178795, 0.4640000220388174, 0.4480000212788582, 0.0, 0.0, 0.0, 0.0, 0.0, 1.710394242122052E9, 0.0, 2024-03-13 22:30:42.122
4.0, -659.1311878906563, -309.1737894369289, -407.4677100223489, -340.5571599151008, 0.8320000395178795, 0.4640000220388174, 0.4480000212788582, 0.0, 0.0, 0.0, 0.0, 0.0, 1.710394242122052E9, 0.0, 2024-03-13 22:30:42.122
5.0, -664.0154972327873, -319.701607812196, -416.7277023126371, -342.5617462913506, 0.8320000395178795, 0.4640000220388174, 0.4480000212788582, 0.0, 0.0, 0.0, 0.0, 0.0, 1.7103942421379735E9, 0.0, 2024-03-13 22:30:42.137
5.0, -647.7693718252704, -306.8176524648443, -421.0061478619464, -337.6288182497956, 0.8320000395178795, 0.4640000220388174, 0.4480000212788582, 0.0, 0.0, 0.0, 0.0, 0.0, 1.7103942421379735E9, 0.0, 2024-03-13 22:30:42.137
6.0, -649.3064707070589, -300.86747163534164, -402.37022638274357, -328.9971291520633, 0.8320000395178795, 0.4640000220388174, 0.4480000212788582, 0.0, 0.0, 0.0, 0.0, 0.0, 1.71039424213844E9, 0.0, 2024-03-13 22:30:42.138
6.0, -653.6335349557921, -304.8878640877083, -402.63575927959755, -335.12682517943904, 0.8320000395178795, 0.4640000220388174, 0.4480000212788582, 0.0, 0.0, 0.0, 0.0, 0.0, 1.71039424213844E9, 0.0, 2024-03-13 22:30:42.138
7.0, -649.3027308071032, -303.64247740246356, -415.4411767278798, -334.79023418342695, 0.8320000395178795, 0.4640000220388174, 0.4480000212788582, 0.0, 0.0, 0.0, 0.0, 0.0, 1.710394242152004E9, 0.0, 2024-03-13 22:30:42.152
7.0, -642.9112417828292, -305.7443011775613, -407.0002225278877, -326.29692138405517, 0.8320000395178795, 0.4640000220388174, 0.4480000212788582, 0.0, 0.0, 0.0, 0.0, 0.0, 1.710394242152004E9, 0.0, 2024-03-13 22:30:42.152
8.0, -642.56343108695, -295.4408767996356, -388.51763694686815, -324.5055093052797, 0.8320000395178795, 0.4640000220388174, 0.4480000212788582, 0.0, 0.0, 0.0, 0.0, 0.0, 1.7103942421677248E9, 0.0, 2024-03-13 22:30:42.167
8.0, -646.6698412382975, -304.20346239581704, -405.608979744371, -332.7669483073987, 0.8320000395178795, 0.4640000220388174, 0.4480000212788582, 0.0, 0.0, 0.0, 0.0, 0.0, 1.7103942421677248E9, 0.0, 2024-03-13 22:30:42.167
9.0, -643.5395449753851, -307.8087259531021, -418.04414709703997, -338.7769675361924, 0.8320000395178795, 0.4640000220388174, 0.4480000212788582, 0.0, 0.0, 0.0, 0.0, 0.0, 1.7103942421683917E9, 0.0, 2024-03-13 22:30:42.168
9.0, -655.9634926281869, -324.98982634954154, -416.60054571414366, -348.76624031784013, 0.8320000395178795, 0.4640000220388174, 0.4480000212788582, 0.0, 0.0, 0.0, 0.0, 0.0, 1.7103942421683917E9, 0.0, 2024-03-13 22:30:42.168
10.0, -658.5178442979231, -314.6639625718817, -417.49064190359786, -348.79989941744134, 0.8320000395178795, 0.4640000220388174, 0.4480000212788582, 0.0, 0.0, 0.0, 0.0, 0.0, 1.710394242182062E9, 0.0, 2024-03-13 22:30:42.182
10.0, -651.8832617765293, -312.7416539946571, -426.3766441983171, -343.2648474830203, 0.8320000395178795, 0.4640000220388174, 0.4480000212788582, 0.0, 0.0, 0.0, 0.0, 0.0, 1.710394242182062E9, 0.0, 2024-03-13 22:30:42.182
11.0, -646.3033310426399, -307.0420464621857, -404.85725985327736, -337.4680025517009, 0.8320000395178795, 0.4640000220388174, 0.4480000212788582, 0.0, 0.0, 0.0, 0.0, 0.0, 1.7103942421981137E9, 0.0, 2024-03-13 22:30:42.198
11.0, -656.0270709274337, -311.75806030631065, -407.6621848200448, -340.2243088190444, 0.8320000395178795, 0.4640000220388174, 0.4480000212788582, 0.0, 0.0, 0.0, 0.0, 0.0, 1.7103942421981137E9, 0.0, 2024-03-13 22:30:42.198
12.0, -653.0276711629704, -306.6194377671927, -418.30594009393826, -336.1739971670322, 0.8320000395178795, 0.4640000220388174, 0.4480000212788582, 0.0, 0.0, 0.0, 0.0, 0.0, 1.7103942421986253E9, 0.0, 2024-03-13 22:30:42.198
12.0, -637.9072556421161, -299.9960749456659, -397.89730603573844, -324.7635624022223, 0.8320000395178795, 0.4640000220388174, 0.4480000212788582, 0.0, 0.0, 0.0, 0.0, 0.0, 1.7103942421986253E9, 0.0, 2024-03-13 22:30:42.198
13.0, -653.2558050602674, -303.20116920769215, -388.0651090522297, -327.9798763641156, 0.8320000395178795, 0.4640000220388174, 0.4480000212788582, 0.0, 0.0, 0.0, 0.0, 0.0, 1.7103942422120056E9, 0.0, 2024-03-13 22:30:42.212
13.0, -651.1240620855242, -307.53571325633675, -411.97428946895525, -334.3601456885226, 0.8320000395178795, 0.4640000220388174, 0.4480000212788582, 0.0, 0.0, 0.0, 0.0, 0.0, 1.7103942422120056E9, 0.0, 2024-03-13 22:30:42.212
14.0, -652.4704260695726, -310.5538125205785, -418.12268499610946, -336.5031083631329, 0.8320000395178795, 0.4640000220388174, 0.4480000212788582, 0.0, 0.0, 0.0, 0.0, 0.0, 1.7103942422280293E9, 0.0, 2024-03-13 22:30:42.228
14.0, -652.4031078703701, -308.61280444357544, -399.34090741863474, -336.15903756720945, 0.8320000395178795, 0.4640000220388174, 0.4480000212788582, 0.0, 0.0, 0.0, 0.0, 0.0, 1.7103942422280293E9, 0.0, 2024-03-13 22:30:42.228
15.0, -652.4853856693953, -314.9220156688243, -417.0007150094025, -344.05396637367085, 0.8320000395178795, 0.4640000220388174, 0.4480000212788582, 0.0, 0.0, 0.0, 0.0, 0.0, 1.7103942422284997E9, 0.0, 2024-03-13 22:30:42.228
15.0, -660.4401528751478, -313.75516688264906, -431.2534737405367, -347.7415077299811, 0.8320000395178795, 0.4640000220388174, 0.4480000212788582, 0.0, 0.0, 0.0, 0.0, 0.0, 1.7103942422284997E9, 0.0, 2024-03-13 22:30:42.228
16.0, -653.3867015587166, -320.7076409002766, -413.8404995468445, -340.0709729208611, 0.8320000395178795, 0.4640000220388174, 0.4480000212788582, 0.0, 0.0, 0.0, 0.0, 0.0, 1.7103942422420201E9, 0.0, 2024-03-13 22:30:42.242
16.0, -658.7497180951759, -320.0868175076321, -407.97259651636705, -340.807733212132, 0.8320000395178795, 0.4640000220388174, 0.4480000212788582, 0.0, 0.0, 0.0, 0.0, 0.0, 1.7103942422420201E9, 0.0, 2024-03-13 22:30:42.242
17.0, -656.4384599225596, -316.46285445056856, -425.0302802142687, -341.49587480397895, 0.8320000395178795, 0.4640000220388174, 0.4480000212788582, 0.0, 0.0, 0.0, 0.0, 0.0, 1.7103942422578535E9, 0.0, 2024-03-13 22:30:42.257
17.0, -660.0437234798446, -315.3820233633742, -421.3614383577369, -338.64981093769893, 0.8320000395178795, 0.4640000220388174, 0.4480000212788582, 0.0, 0.0, 0.0, 0.0, 0.0, 1.7103942422578535E9, 0.0, 2024-03-13 22:30:42.257
18.0, -649.1793141085654, -308.545486244373, -397.721530737821, -333.09231960354373, 0.8320000395178795, 0.4640000220388174, 0.4480000212788582, 0.0, 0.0, 0.0, 0.0, 0.0, 1.7103942422586448E9, 0.0, 2024-03-13 22:30:42.258
18.0, -646.0153587460518, -301.0282873334363, -410.5942663853057, -327.0972599745728, 0.8320000395178795, 0.4640000220388174, 0.4480000212788582, 0.0, 0.0, 0.0, 0.0, 0.0, 1.7103942422586448E9, 0.0, 2024-03-13 22:30:42.258
19.0, -636.5721113579348, -295.3959980001673, -410.97573618078604, -326.8504265774973, 0.8320000395178795, 0.4640000220388174, 0.4480000212788582, 0.0, 0.0, 0.0, 0.0, 0.0, 1.710394242272055E9, 0.0, 2024-03-13 22:30:42.272
19.0, -647.1186292329803, -296.05422039236873, -388.3456015489064, -322.9871099232696, 0.8320000395178795, 0.4640000220388174, 0.4480000212788582, 0.0, 0.0, 0.0, 0.0, 0.0, 1.710394242272055E9, 0.0, 2024-03-13 22:30:42.272
20.0, -653.1735272612423, -300.9983681337908, -402.9237315761857, -325.3918655947782, 0.8320000395178795, 0.4640000220388174, 0.4640000220388174, 0.0, 0.0, 0.0, 0.0, 0.0, 1.7103942422882545E9, 0.0, 2024-03-13 22:30:42.288
20.0, -639.1189832277596, -295.85974559467286, -409.63685199664906, -318.2411768794991, 0.8320000395178795, 0.4640000220388174, 0.4640000220388174, 0.0, 0.0, 0.0, 0.0, 0.0, 1.7103942422882545E9, 0.0, 2024-03-13 22:30:42.288
21.0, -633.5502721937373, -291.2521888492629, -393.6113806865178, -314.85282751964405, 0.8320000395178795, 0.4640000220388174, 0.4640000220388174, 0.0, 0.0, 0.0, 0.0, 0.0, 1.7103942423030832E9, 0.0, 2024-03-13 22:30:42.303
21.0, -647.2869247309864, -294.0271946163848, -396.7192375496961, -319.63989946292713, 0.8320000395178795, 0.4640000220388174, 0.4640000220388174, 0.0, 0.0, 0.0, 0.0, 0.0, 1.7103942423030832E9, 0.0, 2024-03-13 22:30:42.303
22.0, -636.074704663828, -290.26111536100507, -410.49328908650205, -319.00411647045985, 0.8160000387579203, 0.4640000220388174, 0.4640000220388174, 0.0, 0.0, 0.0, 0.0, 0.0, 1.7103942423184829E9, 0.0, 2024-03-13 22:30:42.318
22.0, -636.2953587612137, -287.79278139024973, -392.6539662978612, -316.22537080338225, 0.8160000387579203, 0.4640000220388174, 0.4640000220388174, 0.0, 0.0, 0.0, 0.0, 0.0, 1.7103942423184829E9, 0.0, 2024-03-13 22:30:42.318
23.0, -645.3459166539833, -293.4437702232972, -386.10914137540385, -317.6465327865444, 0.8160000387579203, 0.4640000220388174, 0.4640000220388174, 0.0, 0.0, 0.0, 0.0, 0.0, 1.7103942423191712E9, 0.0, 2024-03-13 22:30:42.319
23.0, -653.9776057517156, -301.05446663312614, -417.2251090067439, -329.8872253415175, 0.8160000387579203, 0.4640000220388174, 0.4640000220388174, 0.0, 0.0, 0.0, 0.0, 0.0, 1.7103942423191712E9, 0.0, 2024-03-13 22:30:42.319
24.0, -633.2697796970606, -295.2501419018954, -413.5151282506995, -320.30560165503994, 0.8160000387579203, 0.4640000220388174, 0.4640000220388174, 0.0, 0.0, 0.0, 0.0, 0.0, 1.7103942423199306E9, 0.0, 2024-03-13 22:30:42.319
24.0, -636.8264245549217, -294.10947241541, -395.2157977675088, -314.04500912921503, 0.8160000387579203, 0.4640000220388174, 0.4640000220388174, 0.0, 0.0, 0.0, 0.0, 0.0, 1.7103942423199306E9, 0.0, 2024-03-13 22:30:42.319
25.0, -645.2187600554898, -291.6598379444331, -400.53019560454413, -317.579214587342, 0.8160000387579203, 0.4640000220388174, 0.4640000220388174, 0.0, 0.0, 0.0, 0.0, 0.0, 1.710394242332013E9, 0.0, 2024-03-13 22:30:42.332
25.0, -633.7671863911673, -292.57237353362143, -410.4783294866793, -316.6816385979764, 0.8160000387579203, 0.4640000220388174, 0.4640000220388174, 0.0, 0.0, 0.0, 0.0, 0.0, 1.710394242332013E9, 0.0, 2024-03-13 22:30:42.332
26.0, -626.6763360751793, -291.97024964075536, -398.5480486280285, -318.4730506767519, 0.8160000387579203, 0.4640000220388174, 0.4640000220388174, 0.0, 0.0, 0.0, 0.0, 0.0, 1.7103942423631215E9, 0.0, 2024-03-13 22:30:42.363
26.0, -639.6949278209358, -294.71907610818744, -392.0181833053939, -324.34095370722935, 0.8160000387579203, 0.4640000220388174, 0.4640000220388174, 0.0, 0.0, 0.0, 0.0, 0.0, 1.7103942423631215E9, 0.0, 2024-03-13 22:30:42.363
27.0, -646.6511417385191, -293.0660403277725, -413.60862574959174, -324.4307113061659, 0.8160000387579203, 0.4640000220388174, 0.4640000220388174, 0.0, 0.0, 0.0, 0.0, 0.0, 1.7103942423637953E9, 0.0, 2024-03-13 22:30:42.363
27.0, -632.1515496103093, -299.86517844721675, -405.2050705491565, -322.01099603483453, 0.8160000387579203, 0.4640000220388174, 0.4640000220388174, 0.0, 0.0, 0.0, 0.0, 0.0, 1.7103942423637953E9, 0.0, 2024-03-13 22:30:42.363
28.0, -645.8545430479571, -303.9304496990517, -400.7583295018412, -331.44676362304017, 0.8160000387579203, 0.4640000220388174, 0.4640000220388174, 0.0, 0.0, 0.0, 0.0, 0.0, 1.7103942423947833E9, 0.0, 2024-03-13 22:30:42.394
28.0, -656.9657858163118, -314.45826807431877, -419.93279657466337, -340.7703342125751, 0.8160000387579203, 0.4640000220388174, 0.4640000220388174, 0.0, 0.0, 0.0, 0.0, 0.0, 1.7103942423947833E9, 0.0, 2024-03-13 22:30:42.394
29.0, -652.9790524635464, -308.98305453918874, -418.8183063878678, -333.3204535008408, 0.8160000387579203, 0.4640000220388174, 0.4640000220388174, 0.0, 0.0, 0.0, 0.0, 0.0, 1.7103942423955064E9, 0.0, 2024-03-13 22:30:42.395
29.0, -655.7877173302695, -319.32013801671565, -403.9522040640004, -334.8089336832054, 0.8160000387579203, 0.4640000220388174, 0.4640000220388174, 0.0, 0.0, 0.0, 0.0, 0.0, 1.7103942423955064E9, 0.0, 2024-03-13 22:30:42.395
30.0, -664.1650932310149, -325.1992607470602, -421.5222540558316, -348.65404331916943, 0.8160000387579203, 0.4640000220388174, 0.4640000220388174, 0.0, 0.0, 0.0, 0.0, 0.0, 1.710394242396222E9, 0.0, 2024-03-13 22:30:42.396
30.0, -651.6738273790106, -322.0465250844136, -430.2175214528106, -344.6635700664483, 0.8160000387579203, 0.4640000220388174, 0.4640000220388174, 0.0, 0.0, 0.0, 0.0, 0.0, 1.710394242396222E9, 0.0, 2024-03-13 22:30:42.396
31.0, -658.6450008964166, -318.0710114315152, -413.49268885096535, -345.23203485971317, 0.8160000387579203, 0.4640000220388174, 0.4640000220388174, 0.0, 0.0, 0.0, 0.0, 0.0, 1.710394242397002E9, 0.0, 2024-03-13 22:30:42.397
31.0, -665.2234849184752, -325.0047859493643, -412.6923502604477, -348.02200022665784, 0.8160000387579203, 0.4640000220388174, 0.4640000220388174, 0.0, 0.0, 0.0, 0.0, 0.0, 1.710394242397002E9, 0.0, 2024-03-13 22:30:42.397
32.0, -655.3576288353652, -316.4927736502141, -425.8979370039888, -342.9918347862549, 0.8320000395178795, 0.4640000220388174, 0.4640000220388174, 0.0, 0.0, 0.0, 0.0, 0.0, 1.7103942424080684E9, 0.0, 2024-03-13 22:30:42.408
32.0, -655.7989370301366, -318.46744082681835, -411.23004937777296, -339.15843733167276, 0.8320000395178795, 0.4640000220388174, 0.4640000220388174, 0.0, 0.0, 0.0, 0.0, 0.0, 1.7103942424080684E9, 0.0, 2024-03-13 22:30:42.408
33.0, -666.5922883022577, -319.6043704133481, -413.761961647775, -345.1534969606437, 0.8320000395178795, 0.4640000220388174, 0.4640000220388174, 0.0, 0.0, 0.0, 0.0, 0.0, 1.7103942424087555E9, 0.0, 2024-03-13 22:30:42.408
33.0, -665.8368285112083, -318.8227313226089, -434.2154745054431, -350.72594789462164, 0.8320000395178795, 0.4640000220388174, 0.4640000220388174, 0.0, 0.0, 0.0, 0.0, 0.0, 1.7103942424087555E9, 0.0, 2024-03-13 22:30:42.408
34.0, -653.4241005582735, -311.69074210710824, -429.8846703567542, -342.5879255910404, 0.8320000395178795, 0.4640000220388174, 0.4640000220388174, 0.0, 0.0, 0.0, 0.0, 0.0, 1.7103942424220057E9, 0.0, 2024-03-13 22:30:42.422
34.0, -655.1294949380681, -314.5106266736984, -408.1072329147719, -335.3549590767361, 0.8320000395178795, 0.4640000220388174, 0.4640000220388174, 0.0, 0.0, 0.0, 0.0, 0.0, 1.7103942424220057E9, 0.0, 2024-03-13 22:30:42.422
35.0, -663.5592294381931, -310.9352823160589, -419.068879684899, -342.6627235901542, 0.8320000395178795, 0.4640000220388174, 0.4640000220388174, 0.0, 0.0, 0.0, 0.0, 0.0, 1.7103942424377267E9, 0.0, 2024-03-13 22:30:42.437
35.0, -649.7739582015201, -309.50664053298533, -421.46241565654054, -335.1118655796163, 0.8320000395178795, 0.4640000220388174, 0.4640000220388174, 0.0, 0.0, 0.0, 0.0, 0.0, 1.7103942424377267E9, 0.0, 2024-03-13 22:30:42.437
36.0, -648.0685638217255, -310.366817522794, -405.56784084485844, -328.6231391564943, 0.8320000395178795, 0.4640000220388174, 0.4640000220388174, 0.0, 0.0, 0.0, 0.0, 0.0, 1.710394242438456E9, 0.0, 2024-03-13 22:30:42.438
36.0, -651.7187061784789, -311.80293910577893, -415.19808323075995, -338.7283488367684, 0.8320000395178795, 0.4640000220388174, 0.4640000220388174, 0.0, 0.0, 0.0, 0.0, 0.0, 1.710394242438456E9, 0.0, 2024-03-13 22:30:42.438
37.0, -663.1553202429786, -316.31699835229665, -440.7789989276789, -345.1759363603778, 0.8320000395178795, 0.4640000220388174, 0.4640000220388174, 0.0, 0.0, 0.0, 0.0, 0.0, 1.710394242452032E9, 0.0, 2024-03-13 22:30:42.452
37.0, -649.2466323077679, -302.7336817132309, -416.4696492156945, -331.5776601214893, 0.8320000395178795, 0.4640000220388174, 0.4640000220388174, 0.0, 0.0, 0.0, 0.0, 0.0, 1.710394242452032E9, 0.0, 2024-03-13 22:30:42.452
38.0, -646.8530963361263, -299.0610999567434, -399.8009151131846, -330.04056123970076, 0.8320000395178795, 0.4640000220388174, 0.4640000220388174, 0.0, 0.0, 0.0, 0.0, 0.0, 1.7103942424677043E9, 0.0, 2024-03-13 22:30:42.467
38.0, -647.8890486238524, -307.2253015600145, -426.3392451987602, -340.41878361674026, 0.8320000395178795, 0.4640000220388174, 0.4640000220388174, 0.0, 0.0, 0.0, 0.0, 0.0, 1.7103942424677043E9, 0.0, 2024-03-13 22:30:42.467
39.0, -648.8763822121546, -303.24230810720474, -422.2216153475456, -330.3247936363332, 0.8320000395178795, 0.4640000220388174, 0.4640000220388174, 0.0, 0.0, 0.0, 0.0, 0.0, 1.7103942424684355E9, 0.0, 2024-03-13 22:30:42.468
39.0, -650.9595064874738, -296.6600841851905, -404.2065172609873, -328.3875254592858, 0.8320000395178795, 0.4640000220388174, 0.4640000220388174, 0.0, 0.0, 0.0, 0.0, 0.0, 1.7103942424684355E9, 0.0, 2024-03-13 22:30:42.468
40.0, -657.1266015144065, -311.46634810976684, -417.2438085065223, -340.31780631793663, 0.8320000395178795, 0.4640000220388174, 0.4640000220388174, 0.0, 0.0, 0.0, 0.0, 0.0, 1.7103942424820297E9, 0.0, 2024-03-13 22:30:42.482
40.0, -641.0599913047627, -308.19767554849386, -424.8432852164842, -338.30574014177546, 0.8320000395178795, 0.4640000220388174, 0.4640000220388174, 0.0, 0.0, 0.0, 0.0, 0.0, 1.7103942424820297E9, 0.0, 2024-03-13 22:30:42.482
41.0, -660.2307184776291, -313.5831314846873, -407.12363922642544, -341.15554390801117, 0.8320000395178795, 0.4640000220388174, 0.4640000220388174, 0.0, 0.0, 0.0, 0.0, 0.0, 1.710394242497739E9, 0.0, 2024-03-13 22:30:42.497
41.0, -668.9783444739878, -319.98584020882845, -416.56688661454245, -339.517467727419, 0.8320000395178795, 0.4640000220388174, 0.4640000220388174, 0.0, 0.0, 0.0, 0.0, 0.0, 1.710394242497739E9, 0.0, 2024-03-13 22:30:42.497
42.0, -654.5685099447146, -304.3380987942219, -419.5962055786513, -328.7203765553422, 0.8320000395178795, 0.4640000220388174, 0.4640000220388174, 0.0, 0.0, 0.0, 0.0, 0.0, 1.710394242498448E9, 0.0, 2024-03-13 22:30:42.498
42.0, -658.1550740022212, -307.8498648526147, -404.03822176298127, -329.8124273424037, 0.8320000395178795, 0.4640000220388174, 0.4640000220388174, 0.0, 0.0, 0.0, 0.0, 0.0, 1.710394242498448E9, 0.0, 2024-03-13 22:30:42.498
43.0, -655.0621767388657, -306.63813726697117, -394.9502648706548, -328.74655585503206, 0.8320000395178795, 0.4640000220388174, 0.4640000220388174, 0.0, 0.0, 0.0, 0.0, 0.0, 1.710394242512026E9, 0.0, 2024-03-13 22:30:42.512
43.0, -651.6476480793208, -303.552719803527, -406.5813537328504, -327.18701757350937, 0.8320000395178795, 0.4640000220388174, 0.4640000220388174, 0.0, 0.0, 0.0, 0.0, 0.0, 1.710394242512026E9, 0.0, 2024-03-13 22:30:42.512
44.0, -648.6332887150347, -300.63559783808887, -411.7274560718797, -325.515282293316, 0.8320000395178795, 0.4640000220388174, 0.4640000220388174, 0.0, 0.0, 0.0, 0.0, 0.0, 1.7103942425280888E9, 0.0, 2024-03-13 22:30:42.528
44.0, -654.1085022501647, -313.6990683833137, -403.836267165374, -331.6225389209576, 0.8320000395178795, 0.4640000220388174, 0.4640000220388174, 0.0, 0.0, 0.0, 0.0, 0.0, 1.7103942425280888E9, 0.0, 2024-03-13 22:30:42.528
45.0, -661.2068323660642, -311.9188760044053, -415.8376061231829, -336.1739971670322, 0.8320000395178795, 0.4640000220388174, 0.4640000220388174, 0.0, 0.0, 0.0, 0.0, 0.0, 1.7103942425285475E9, 0.0, 2024-03-13 22:30:42.528
45.0, -657.6127885086462, -313.13808338996023, -419.09131908463314, -331.8057940187864, 0.8320000395178795, 0.4640000220388174, 0.4640000220388174, 0.0, 0.0, 0.0, 0.0, 0.0, 1.7103942425285475E9, 0.0, 2024-03-13 22:30:42.528
46.0, -651.0604837862775, -303.24230810720474, -395.4214922650717, -324.59526690421626, 0.8320000395178795, 0.4640000220388174, 0.4640000220388174, 0.0, 0.0, 0.0, 0.0, 0.0, 1.7103942425420597E9, 0.0, 2024-03-13 22:30:42.542
46.0, -651.0343044865876, -298.94142315816134, -392.00322370557114, -320.7319502499886, 0.8320000395178795, 0.4640000220388174, 0.4640000220388174, 0.0, 0.0, 0.0, 0.0, 0.0, 1.7103942425420597E9, 0.0, 2024-03-13 22:30:42.542
47.0, -658.3832078995183, -303.6162981027737, -425.64736370695755, -332.68467050837353, 0.8320000395178795, 0.4640000220388174, 0.4640000220388174, 0.0, 0.0, 0.0, 0.0, 0.0, 1.710394242558182E9, 0.0, 2024-03-13 22:30:42.558
47.0, -651.4905722811818, -302.86457821168005, -413.6684641488828, -332.08254661550745, 0.8320000395178795, 0.4640000220388174, 0.4640000220388174, 0.0, 0.0, 0.0, 0.0, 0.0, 1.710394242558182E9, 0.0, 2024-03-13 22:30:42.558
48.0, -663.5405299384147, -315.4119425630197, -410.2801147890277, -340.4674023161642, 0.8320000395178795, 0.4640000220388174, 0.4640000220388174, 0.0, 0.0, 0.0, 0.0, 0.0, 1.7103942425585673E9, 0.0, 2024-03-13 22:30:42.558
48.0, -662.9384060455486, -321.7136739883572, -425.60622480744496, -342.56922609126195, 0.8320000395178795, 0.4640000220388174, 0.4640000220388174, 0.0, 0.0, 0.0, 0.0, 0.0, 1.7103942425585673E9, 0.0, 2024-03-13 22:30:42.558
49.0, -655.6904799314216, -318.1794685302302, -423.470741932746, -340.72545541310683, 0.8320000395178795, 0.4640000220388174, 0.4640000220388174, 0.0, 0.0, 0.0, 0.0, 0.0, 1.7103942425720105E9, 0.0, 2024-03-13 22:30:42.572
49.0, -671.0091101499274, -324.9748667497188, -420.27686737058684, -344.5887720673345, 0.8320000395178795, 0.4640000220388174, 0.4640000220388174, 0.0, 0.0, 0.0, 0.0, 0.0, 1.7103942425720105E9, 0.0, 2024-03-13 22:30:42.572
50.0, -683.593873500824, -324.69811415299773, -429.65653645945713, -352.3341048755683, 0.8320000395178795, 0.4640000220388174, 0.4640000220388174, 0.0, 0.0, 0.0, 0.0, 0.0, 1.7103942425877256E9, 0.0, 2024-03-13 22:30:42.587
50.0, -671.6187138427049, -325.5620310427621, -430.598991248291, -347.1094646374695, 0.8320000395178795, 0.4640000220388174, 0.4640000220388174, 0.0, 0.0, 0.0, 0.0, 0.0, 1.7103942425877256E9, 0.0, 2024-03-13 22:30:42.587
51.0, -668.0396295851097, -315.2249475652352, -412.52405476244166, -342.2999532944523, 0.8320000395178795, 0.4640000220388174, 0.4640000220388174, 0.0, 0.0, 0.0, 0.0, 0.0, 1.7103942425884311E9, 0.0, 2024-03-13 22:30:42.588
51.0, -659.9390062810853, -317.84287753421813, -401.22581699630246, -333.71314299618825, 0.8320000395178795, 0.4640000220388174, 0.4640000220388174, 0.0, 0.0, 0.0, 0.0, 0.0, 1.7103942425884311E9, 0.0, 2024-03-13 22:30:42.588
52.0, -660.7281251717359, -320.6814616005868, -429.1591297653504, -335.8486258708872, 0.8160000387579203, 0.4640000220388174, 0.4640000220388174, 0.0, 0.0, 0.0, 0.0, 0.0, 1.710394242602058E9, 0.0, 2024-03-13 22:30:42.602
52.0, -654.478752345778, -307.05326616205275, -419.6523040779866, -331.6861172202043, 0.8160000387579203, 0.4640000220388174, 0.4640000220388174, 0.0, 0.0, 0.0, 0.0, 0.0, 1.710394242602058E9, 0.0, 2024-03-13 22:30:42.602
53.0, -660.0212840801105, -310.83804491721094, -403.26406247215346, -332.86418570624664, 0.8160000387579203, 0.4640000220388174, 0.4640000220388174, 0.0, 0.0, 0.0, 0.0, 0.0, 1.71039424261788E9, 0.0, 2024-03-13 22:30:42.617
53.0, -659.5463167857379, -314.3273715758696, -423.1865095361136, -330.773581631016, 0.8160000387579203, 0.4640000220388174, 0.4640000220388174, 0.0, 0.0, 0.0, 0.0, 0.0, 1.71039424261788E9, 0.0, 2024-03-13 22:30:42.617
54.0, -655.3090101359412, -306.78773326519877, -411.3946049758233, -324.22127690864727, 0.8160000387579203, 0.4640000220388174, 0.4640000220388174, 0.0, 0.0, 0.0, 0.0, 0.0, 1.71039424261843E9, 0.0, 2024-03-13 22:30:42.618
54.0, -655.7615380305797, -308.78857974149287, -400.6461325031705, -328.45858355844393, 0.8160000387579203, 0.4640000220388174, 0.4640000220388174, 0.0, 0.0, 0.0, 0.0, 0.0, 1.71039424261843E9, 0.0, 2024-03-13 22:30:42.618
55.0, -658.327109400183, -307.5581526560709, -411.8733121701516, -332.5537740099244, 0.8160000387579203, 0.4640000220388174, 0.4640000220388174, 0.0, 0.0, 0.0, 0.0, 0.0, 1.7103942426320777E9, 0.0, 2024-03-13 22:30:42.632
55.0, -659.3855010876432, -304.3343588942662, -425.20979541214183, -332.5762134096585, 0.8160000387579203, 0.4640000220388174, 0.4640000220388174, 0.0, 0.0, 0.0, 0.0, 0.0, 1.7103942426320777E9, 0.0, 2024-03-13 22:30:42.632
56.0, -640.0277789169922, -306.1444704728201, -402.44502438185737, -326.30814108392224, 0.8160000387579203, 0.4640000220388174, 0.4640000220388174, 0.0, 0.0, 0.0, 0.0, 0.0, 1.710394242647877E9, 0.0, 2024-03-13 22:30:42.647
56.0, -659.0302105918527, -308.72874134220183, -406.9067250289954, -335.44845657562837, 0.8160000387579203, 0.4640000220388174, 0.4640000220388174, 0.0, 0.0, 0.0, 0.0, 0.0, 1.710394242647877E9, 0.0, 2024-03-13 22:30:42.647
57.0, -661.7790370592847, -311.1521965134889, -434.32019170420244, -341.45847580442205, 0.8160000387579203, 0.4640000220388174, 0.4640000220388174, 0.0, 0.0, 0.0, 0.0, 0.0, 1.7103942426488924E9, 0.0, 2024-03-13 22:30:42.648
57.0, -665.8929270105436, -318.3776832278818, -425.7446011058055, -340.0260941213928, 0.8160000387579203, 0.4640000220388174, 0.4640000220388174, 0.0, 0.0, 0.0, 0.0, 0.0, 1.7103942426488924E9, 0.0, 2024-03-13 22:30:42.648
58.0, -667.5085637914017, -313.72898758295923, -408.82529370626435, -338.1374446437694, 0.8160000387579203, 0.4640000220388174, 0.4640000220388174, 0.0, 0.0, 0.0, 0.0, 0.0, 1.7103942426623442E9, 0.0, 2024-03-13 22:30:42.662
58.0, -669.0718419728801, -317.6371830366552, -428.53456647275016, -344.35689827008173, 0.8160000387579203, 0.4640000220388174, 0.4640000220388174, 0.0, 0.0, 0.0, 0.0, 0.0, 1.7103942426623442E9, 0.0, 2024-03-13 22:30:42.662
59.0, -669.5580289671198, -334.2685181396082, -430.72240794682875, -352.6370367719792, 0.8160000387579203, 0.4640000220388174, 0.4640000220388174, 0.0, 0.0, 0.0, 0.0, 0.0, 1.7103942426781206E9, 0.0, 2024-03-13 22:30:42.678
59.0, -679.3266476513818, -334.8295031329617, -423.5455399318598, -357.42784861521795, 0.8160000387579203, 0.4640000220388174, 0.4640000220388174, 0.0, 0.0, 0.0, 0.0, 0.0, 1.7103942426781206E9, 0.0, 2024-03-13 22:30:42.678
60.0, -679.3864860506728, -339.36974167916924, -430.7336276466958, -364.76553232828155, 0.8160000387579203, 0.4640000220388174, 0.4640000220388174, 0.0, 0.0, 0.0, 0.0, 0.0, 1.7103942426784272E9, 0.0, 2024-03-13 22:30:42.678
60.0, -672.0001836381853, -332.2340125637129, -446.2691720626317, -360.90595557400957, 0.8160000387579203, 0.4640000220388174, 0.4640000220388174, 0.0, 0.0, 0.0, 0.0, 0.0, 1.7103942426784272E9, 0.0, 2024-03-13 22:30:42.678
61.0, -675.7139042941853, -338.96209258399904, -436.57535137748346, -361.99052656115964, 0.8160000387579203, 0.4640000220388174, 0.4640000220388174, 0.0, 0.0, 0.0, 0.0, 0.0, 1.7103942426922936E9, 0.0, 2024-03-13 22:30:42.692
61.0, -686.9747430607677, -340.7647243626416, -438.9015691499226, -366.2203534110449, 0.8160000387579203, 0.4640000220388174, 0.4640000220388174, 0.0, 0.0, 0.0, 0.0, 0.0, 1.7103942426922936E9, 0.0, 2024-03-13 22:30:42.692
62.0, -677.2098642764613, -343.48363163042814, -451.69950679829344, -365.2255400228314, 0.8160000387579203, 0.4640000220388174, 0.4640000220388174, 0.0, 0.0, 0.0, 0.0, 0.0, 1.710394242708084E9, 0.0, 2024-03-13 22:30:42.708
62.0, -669.0494025731459, -332.05823726579547, -429.01701356703416, -355.5204996378161, 0.8160000387579203, 0.4640000220388174, 0.4640000220388174, 0.0, 0.0, 0.0, 0.0, 0.0, 1.710394242708084E9, 0.0, 2024-03-13 22:30:42.708
63.0, -674.3750201100484, -332.4172676615417, -423.04813323775306, -358.4750206028111, 0.8160000387579203, 0.4640000220388174, 0.4640000220388174, 0.0, 0.0, 0.0, 0.0, 0.0, 1.7103942427085772E9, 0.0, 2024-03-13 22:30:42.708
63.0, -664.3820074284449, -328.02662511356175, -432.4539816263132, -354.79121914645657, 0.8160000387579203, 0.4640000220388174, 0.4640000220388174, 0.0, 0.0, 0.0, 0.0, 0.0, 1.7103942427085772E9, 0.0, 2024-03-13 22:30:42.708
64.0, -669.1802990715951, -329.9302341910079, -434.43238870287314, -353.7066481593065, 0.8160000387579203, 0.4640000220388174, 0.4640000220388174, 0.0, 0.0, 0.0, 0.0, 0.0, 1.7103942427220006E9, 0.0, 2024-03-13 22:30:42.722
64.0, -667.6394602898508, -320.38974940404296, -417.9543894981034, -346.2193684480153, 0.8160000387579203, 0.4640000220388174, 0.4640000220388174, 0.0, 0.0, 0.0, 0.0, 0.0, 1.7103942427220006E9, 0.0, 2024-03-13 22:30:42.722
65.0, -668.6342736780643, -311.87399720493704, -412.8905649580993, -341.9222233989276, 0.8160000387579203, 0.4640000220388174, 0.4640000220388174, 0.0, 0.0, 0.0, 0.0, 0.0, 1.7103942427377455E9, 0.0, 2024-03-13 22:30:42.737
65.0, -659.3331424882635, -307.57311225589365, -434.01351990783587, -342.7300417893566, 0.8160000387579203, 0.4640000220388174, 0.4640000220388174, 0.0, 0.0, 0.0, 0.0, 0.0, 1.7103942427377455E9, 0.0, 2024-03-13 22:30:42.737
66.0, -658.1251548025757, -318.25052662938833, -418.586432590615, -342.3223926941864, 0.8160000387579203, 0.4640000220388174, 0.4640000220388174, 0.0, 0.0, 0.0, 0.0, 0.0, 1.7103942427384262E9, 0.0, 2024-03-13 22:30:42.738
66.0, -667.130833895877, -321.35838349256665, -422.9209766392596, -341.2079025073908, 0.8160000387579203, 0.4640000220388174, 0.4640000220388174, 0.0, 0.0, 0.0, 0.0, 0.0, 1.7103942427384262E9, 0.0, 2024-03-13 22:30:42.738
67.0, -662.0483098560944, -308.86337774060667, -431.95283503225073, -343.08907218510285, 0.8160000387579203, 0.4640000220388174, 0.4640000220388174, 0.0, 0.0, 0.0, 0.0, 0.0, 1.7103942427520192E9, 0.0, 2024-03-13 22:30:42.752
67.0, -661.5957819614559, -310.2546205241233, -424.5216538202949, -341.1480641080998, 0.8160000387579203, 0.4640000220388174, 0.4640000220388174, 0.0, 0.0, 0.0, 0.0, 0.0, 1.7103942427520192E9, 0.0, 2024-03-13 22:30:42.752
