%OpenBCI Raw EXG Data
%Number of channels = 4
%Sample Rate = 200 Hz
%Board = OpenBCI_GUI$BoardGanglionBLE
Sample Index, EXG Channel 0, EXG Channel 1, EXG Channel 2, EXG Channel 3, Accel Channel 0, Accel Channel 1, Accel Channel 2, Other, Other, Other, Other, Other, Timestamp, Other, Timestamp (Formatted)
2.0, -174.88520172797143, 76.75583674060181, -138.70540955662727, 53.76293181302026, 0.01600000075995922, 0.0, 0.0, 0.0, 0.0, 0.0, 0.0, 0.0, 1.710387370529072E9, 0.0, 2024-03-13 20:36:10.529
2.0, -105.9738051444292, -117.4627778083086, -121.7262637577951, -93.32172359433025, 0.01600000075995922, 0.0, 0.0, 0.0, 0.0, 0.0, 0.0, 0.0, 1.710387370529072E9, 0.0, 2024-03-13 20:36:10.529
3.0, -49.19090411718935, -195.89221977908164, -22.16638703737408, -220.2950669899583, 0.01600000075995922, 0.0, 0.0, 0.0, 0.0, 0.0, 0.0, 0.0, 1.7103873705435748E9, 0.0, 2024-03-13 20:36:10.543
3.0, 36.89224311290309, -266.43421274330467, 83.2445631637238, -242.76812582369894, 0.01600000075995922, 0.0, 0.0, 0.0, 0.0, 0.0, 0.0, 0.0, 1.7103873705435748E9, 0.0, 2024-03-13 20:36:10.543
4.0, 219.50033824937418, -338.5974523383193, 209.118375972379, -289.7393993171863, 0.01600000075995922, 0.0, 0.0, 0.0, 0.0, 0.0, 0.0, 0.0, 1.710387370544351E9, 0.0, 2024-03-13 20:36:10.544
4.0, 13.602016138844192, -527.93923734501, 25.588395496830344, -54.67172750225291, 0.01600000075995922, 0.0, 0.0, 0.0, 0.0, 0.0, 0.0, 0.0, 1.710387370544351E9, 0.0, 2024-03-13 20:36:10.544
5.0, 149.78486317535862, -635.7680328674614, 199.91074228147045, -140.4538127859123, 0.01600000075995922, 0.0, 0.0, 0.0, 0.0, 0.0, 0.0, 0.0, 1.710387370558142E9, 0.0, 2024-03-13 20:36:10.558
5.0, 75.74606375256553, -572.3393296189606, 86.56559432437643, -29.898630195762962, 0.01600000075995922, 0.0, 0.0, 0.0, 0.0, 0.0, 0.0, 0.0, 1.710387370558142E9, 0.0, 2024-03-13 20:36:10.558
6.0, 4.214867250062525, -491.3069172790274, -0.4151288950815797, 1.131319736596197, 0.01600000075995922, 0.0, 0.0, 0.0, 0.0, 0.0, 0.0, 0.0, 1.710387370573937E9, 0.0, 2024-03-13 20:36:10.573
6.0, -178.89063458051533, -416.5855861143209, -140.8446323312819, 60.86313187889755, 0.01600000075995922, 0.0, 0.0, 0.0, 0.0, 0.0, 0.0, 0.0, 1.710387370573937E9, 0.0, 2024-03-13 20:36:10.573
7.0, 3.745509805623442, -255.58476297184825, 39.16610228596255, 281.91926850983873, 0.01600000075995922, 0.0, 0.0, 0.0, 0.0, 0.0, 0.0, 0.0, 1.710387370574581E9, 0.0, 2024-03-13 20:36:10.574
7.0, -126.53577510081232, -121.50934956036508, -128.18507098127156, 398.4283718294464, 0.01600000075995922, 0.0, 0.0, 0.0, 0.0, 0.0, 0.0, 0.0, 1.710387370574581E9, 0.0, 2024-03-13 20:36:10.574
8.0, -54.99896874837577, -193.74177730455995, -21.530604044906795, 268.7660403656773, 0.01600000075995922, 0.0, 0.0, 0.0, 0.0, 0.0, 0.0, 0.0, 1.710387370587877E9, 0.0, 2024-03-13 20:36:10.587
8.0, 42.16550205042586, -268.9698649132624, 90.37281247926876, 252.37031895993277, 0.01600000075995922, 0.0, 0.0, 0.0, 0.0, 0.0, 0.0, 0.0, 1.710387370587877E9, 0.0, 2024-03-13 20:36:10.587
9.0, 222.6829931116663, -336.49562856322154, 206.86321629909799, 195.7276641810313, 0.01600000075995922, 0.0, 0.0, 0.0, 0.0, 0.0, 0.0, 0.0, 1.7103873706035638E9, 0.0, 2024-03-13 20:36:10.603
9.0, 41.295975310727954, -525.0557744791731, 29.35073485225439, 437.5346357161179, 0.01600000075995922, 0.0, 0.0, 0.0, 0.0, 0.0, 0.0, 0.0, 1.7103873706035638E9, 0.0, 2024-03-13 20:36:10.603
10.0, 163.49533641291782, -636.340237560682, 198.49706009821966, 341.0788759589195, 0.01600000075995922, 0.0, 1.0400000493973494, 0.0, 0.0, 0.0, 0.0, 0.0, 1.710387370604318E9, 0.0, 2024-03-13 20:36:10.604
10.0, 66.74038465926424, -578.1773134497926, 80.38727959757671, 450.0371212679893, 0.01600000075995922, 0.0, 1.0400000493973494, 0.0, 0.0, 0.0, 0.0, 0.0, 1.710387370604318E9, 0.0, 2024-03-13 20:36:10.604
11.0, 7.726633308455348, -482.91084187850356, 1.1556290863081813, 498.11353519838303, 0.01600000075995922, -0.17600000835955143, 1.0400000493973494, 0.0, 0.0, 0.0, 0.0, 0.0, 1.7103873706180236E9, 0.0, 2024-03-13 20:36:10.618
11.0, -170.43098088074476, -412.86812555836514, -139.359892048873, 541.4945047344081, 0.01600000075995922, -0.17600000835955143, 1.0400000493973494, 0.0, 0.0, 0.0, 0.0, 0.0, 1.7103873706180236E9, 0.0, 2024-03-13 20:36:10.618
12.0, 26.626217734534293, -241.42550173960626, 41.473620558623224, 776.6313646985218, 0.01600000075995922, -0.17600000835955143, 1.0400000493973494, 0.0, 0.0, 0.0, 0.0, 0.0, 1.7103873706336403E9, 0.0, 2024-03-13 20:36:10.633
12.0, -118.56978819519281, -114.43719874415547, -121.52430916018784, 890.6422148477286, 0.01600000075995922, -0.17600000835955143, 1.0400000493973494, 0.0, 0.0, 0.0, 0.0, 0.0, 1.7103873706336403E9, 0.0, 2024-03-13 20:36:10.633
13.0, -55.60109264124185, -193.58470150642097, -20.46099265757948, 764.1288791466504, 0.01600000075995922, -0.17600000835955143, 1.0400000493973494, 0.0, 0.0, 0.0, 0.0, 0.0, 1.7103873706343417E9, 0.0, 2024-03-13 20:36:10.634
13.0, 36.91842241259292, -274.691911845468, 74.92328576231375, 732.1115956259891, 0.01600000075995922, -0.17600000835955143, 1.0400000493973494, 0.0, 0.0, 0.0, 0.0, 0.0, 1.7103873706343417E9, 0.0, 2024-03-13 20:36:10.634
14.0, 211.36605584574863, -346.2305881478824, 204.9259481220506, 680.8843159829266, 0.01600000075995922, -0.17600000835955143, 1.0400000493973494, 0.0, 0.0, 0.0, 0.0, 0.0, 1.7103873706478467E9, 0.0, 2024-03-13 20:36:10.647
14.0, 13.400061541236937, -521.8095413176343, 38.98845703806728, 441.82430096529424, 0.01600000075995922, -0.17600000835955143, 1.0400000493973494, 0.0, 0.0, 0.0, 0.0, 0.0, 1.7103873706478467E9, 0.0, 2024-03-13 20:36:10.647
15.0, 143.50183124979958, -634.0065399883315, 203.5197457387112, 340.58146926481277, 0.01600000075995922, -0.17600000835955143, 1.0400000493973494, 0.0, 0.0, 0.0, 0.0, 0.0, 1.710387370663581E9, 0.0, 2024-03-13 20:36:10.663
15.0, 83.15106566483155, -576.1166285742074, 85.89241233235225, 454.97378920949996, 0.01600000075995922, -0.17600000835955143, 1.0400000493973494, 0.0, 0.0, 0.0, 0.0, 0.0, 1.710387370663581E9, 0.0, 2024-03-13 20:36:10.663
16.0, -3.6090034572407603, -491.06382378190756, -0.8938360894098878, 492.9786525592208, 0.01600000075995922, -0.17600000835955143, 1.0400000493973494, 0.0, 0.0, 0.0, 0.0, 0.0, 1.7103873706645772E9, 0.0, 2024-03-13 20:36:10.664
16.0, -190.6787992408499, -429.45832176180556, -140.97178892977536, 536.4830387937836, 0.01600000075995922, -0.17600000835955143, 1.0400000493973494, 0.0, 0.0, 0.0, 0.0, 0.0, 1.7103873706645772E9, 0.0, 2024-03-13 20:36:10.664
17.0, 10.888718720991164, -258.83847593329847, 33.021446658764035, 768.7925343913957, 0.01600000075995922, -0.17600000835955143, 1.0400000493973494, 0.0, 0.0, 0.0, 0.0, 0.0, 1.7103873706778424E9, 0.0, 2024-03-13 20:36:10.677
17.0, -113.34140805713832, -114.5718351425603, -119.17191208805889, 892.4336269265041, 0.01600000075995922, -0.17600000835955143, 1.0400000493973494, 0.0, 0.0, 0.0, 0.0, 0.0, 1.7103873706778424E9, 0.0, 2024-03-13 20:36:10.677
18.0, -46.460777149535716, -195.70896468125284, -22.297283535823226, 759.128632905893, 0.01600000075995922, -0.17600000835955143, 1.0400000493973494, 0.0, 0.0, 0.0, 0.0, 0.0, 1.710387370693869E9, 0.0, 2024-03-13 20:36:10.693
18.0, 27.770627120975405, -277.41455901321024, 79.3176682102494, 726.6363820908591, 0.01600000075995922, -0.17600000835955143, 1.0400000493973494, 0.0, 0.0, 0.0, 0.0, 0.0, 1.710387370693869E9, 0.0, 2024-03-13 20:36:10.693
19.0, 220.7906037340872, -347.3712576343678, 205.80856451159343, 680.4243082883768, 0.01600000075995922, -0.17600000835955143, 1.0400000493973494, 0.0, 0.0, 0.0, 0.0, 0.0, 1.7103873706944723E9, 0.0, 2024-03-13 20:36:10.694
19.0, 36.21719117090106, -512.1306802323088, 36.57622156664729, 449.184424078092, 0.01600000075995922, -0.17600000835955143, 1.0400000493973494, 0.0, 0.0, 0.0, 0.0, 0.0, 1.7103873706944723E9, 0.0, 2024-03-13 20:36:10.694
20.0, 156.89815289108083, -632.1216304106638, 205.95068070990965, 347.8705342784524, 0.01600000075995922, -0.17600000835955143, 1.0400000493973494, 0.0, 0.0, 0.0, 0.0, 0.0, 1.710387370708103E9, 0.0, 2024-03-13 20:36:10.708
20.0, 85.80639463337138, -573.143408109434, 88.43928420217708, 452.19504354242235, 0.01600000075995922, -0.17600000835955143, 1.0400000493973494, 0.0, 0.0, 0.0, 0.0, 0.0, 1.710387370708103E9, 0.0, 2024-03-13 20:36:10.708
21.0, 10.688634073361754, -474.90371607337147, 7.603216609917581, 502.0254705520347, 0.01600000075995922, -0.17600000835955143, 1.0400000493973494, 0.0, 0.0, 0.0, 0.0, 0.0, 1.7103873707239592E9, 0.0, 2024-03-13 20:36:10.723
21.0, -182.66793353576213, -416.78380081197247, -136.55496708210558, 547.33248856524, 0.01600000075995922, -0.17600000835955143, 1.0400000493973494, 0.0, 0.0, 0.0, 0.0, 0.0, 1.7103873707239592E9, 0.0, 2024-03-13 20:36:10.723
22.0, 20.3618853087537, -247.4504805682227, 38.86317038955167, 778.1235847808421, 0.01600000075995922, -0.17600000835955143, 1.0400000493973494, 0.0, 0.0, 0.0, 0.0, 0.0, 1.7103873707245808E9, 0.0, 2024-03-13 20:36:10.724
22.0, -107.59692172519863, -102.06560969073325, -110.99649078492075, 907.2735499506816, 0.01600000075995922, -0.17600000835955143, 1.0400000493973494, 0.0, 0.0, 0.0, 0.0, 0.0, 1.7103873707245808E9, 0.0, 2024-03-13 20:36:10.724
23.0, -44.048541678115726, -184.10031521879137, -6.268072325736284, 776.0666398052126, 0.01600000075995922, -0.17600000835955143, 1.0400000493973494, 0.0, 0.0, 0.0, 0.0, 0.0, 1.7103873707378876E9, 0.0, 2024-03-13 20:36:10.737
23.0, 46.94509419379756, -274.04490915313363, 91.55462086526677, 735.0100180916488, 0.01600000075995922, -0.17600000835955143, 1.0400000493973494, 0.0, 0.0, 0.0, 0.0, 0.0, 1.7103873707378876E9, 0.0, 2024-03-13 20:36:10.737
24.0, 203.06347794411704, -346.2979063470848, 213.57633671956137, 689.7777980775572, 0.01600000075995922, -0.17600000835955143, 1.0400000493973494, 0.0, 0.0, 0.0, 0.0, 0.0, 1.710387370753502E9, 0.0, 2024-03-13 20:36:10.753
24.0, 26.403693687170744, -517.2132042720914, 47.36957283876836, 453.87051872257143, 0.01600000075995922, -0.17600000835955143, 1.0400000493973494, 0.0, 0.0, 0.0, 0.0, 0.0, 1.710387370753502E9, 0.0, 2024-03-13 20:36:10.753
25.0, 155.95943800220266, -640.1923345150426, 209.58960336679593, 342.58605564106256, 0.01600000075995922, -0.17600000835955143, 1.0400000493973494, 0.0, 0.0, 0.0, 0.0, 0.0, 1.7103873707542877E9, 0.0, 2024-03-13 20:36:10.754
25.0, 77.45893793227151, -586.663146449253, 87.0966601180844, 451.0581139558926, 0.01600000075995922, -0.17600000835955143, 1.0400000493973494, 0.0, 0.0, 0.0, 0.0, 0.0, 1.7103873707542877E9, 0.0, 2024-03-13 20:36:10.754
26.0, 8.392335500568151, -482.31993768550456, 7.696714108809829, 503.51395073439926, 0.01600000075995922, -0.17600000835955143, 1.0400000493973494, 0.0, 0.0, 0.0, 0.0, 0.0, 1.7103873707678635E9, 0.0, 2024-03-13 20:36:10.767
26.0, -176.40360110998154, -418.320899693761, -137.321646573022, 543.9964978047647, 0.01600000075995922, -0.17600000835955143, 1.0400000493973494, 0.0, 0.0, 0.0, 0.0, 0.0, 1.7103873707678635E9, 0.0, 2024-03-13 20:36:10.767
27.0, 3.01622931426391, -259.9305267203599, 32.83071176102385, 763.048048059456, 0.01600000075995922, -0.17600000835955143, 1.0400000493973494, 0.0, 0.0, 0.0, 0.0, 0.0, 1.7103873707836523E9, 0.0, 2024-03-13 20:36:10.783
27.0, -113.45360505580902, -115.24875703454018, -120.43225837312639, 891.2929574400187, 0.01600000075995922, -0.17600000835955143, 1.0400000493973494, 0.0, 0.0, 0.0, 0.0, 0.0, 1.7103873707836523E9, 0.0, 2024-03-13 20:36:10.783
28.0, -46.943224243819714, -188.2703036693856, -7.752812608145177, 771.6610376574099, 0.01600000075995922, -0.17600000835955143, 1.0400000493973494, 0.0, 0.0, 0.0, 0.0, 0.0, 1.7103873707843344E9, 0.0, 2024-03-13 20:36:10.784
28.0, 41.439961459022015, -285.0963135221973, 78.18821842363104, 721.0639311568812, 0.01600000075995922, -0.17600000835955143, 1.0400000493973494, 0.0, 0.0, 0.0, 0.0, 0.0, 1.7103873707843344E9, 0.0, 2024-03-13 20:36:10.784
29.0, 207.58875689050183, -351.09619799023494, 206.8220773995854, 678.0120728169568, 0.01600000075995922, -0.17600000835955143, 1.0400000493973494, 0.0, 0.0, 0.0, 0.0, 0.0, 1.7103873707978897E9, 0.0, 2024-03-13 20:36:10.797
29.0, 20.685386654920876, -521.8955590166152, 36.14613307174295, 442.89391235262156, 0.01600000075995922, -0.17600000835955143, 1.0400000493973494, 0.0, 0.0, 0.0, 0.0, 0.0, 1.7103873707978897E9, 0.0, 2024-03-13 20:36:10.797
30.0, 156.80839529214427, -640.2820921139792, 208.58357027871534, 345.73131150379777, 0.01600000075995922, -0.17600000835955143, 1.0400000493973494, 0.0, 0.0, 0.0, 0.0, 0.0, 1.7103873708135588E9, 0.0, 2024-03-13 20:36:10.813
30.0, 60.805163429584354, -597.0451087262481, 83.11740656523034, 448.48506278637797, 0.01600000075995922, -0.17600000835955143, 1.0400000493973494, 0.0, 0.0, 0.0, 0.0, 0.0, 1.7103873708135588E9, 0.0, 2024-03-13 20:36:10.813
31.0, 7.191827614791691, -486.10471644066274, 6.944994217716157, 500.3799145715311, 0.01600000075995922, -0.19200000911951065, 1.0400000493973494, 0.0, 0.0, 0.0, 0.0, 0.0, 1.7103873708145392E9, 0.0, 2024-03-13 20:36:10.814
31.0, -190.59278154186904, -424.05416632583365, -135.20112329814583, 542.2686640252359, 0.01600000075995922, -0.19200000911951065, 1.0400000493973494, 0.0, 0.0, 0.0, 0.0, 0.0, 1.7103873708145392E9, 0.0, 2024-03-13 20:36:10.814
32.0, 0.7498499411158264, -270.0469561005011, 28.900076907593757, 754.3901796620339, 0.01600000075995922, -0.19200000911951065, 1.0400000493973494, 0.0, 0.0, 0.0, 0.0, 0.0, 1.7103873708279855E9, 0.0, 2024-03-13 20:36:10.827
32.0, -121.49812986049801, -119.4262252850458, -119.7216773815453, 892.108255630359, 0.01600000075995922, -0.19200000911951065, 1.0400000493973494, 0.0, 0.0, 0.0, 0.0, 0.0, 1.7103873708279855E9, 0.0, 2024-03-13 20:36:10.827
33.0, -43.32300108671188, -193.62210050597787, -17.525171192362905, 767.715443204157, 0.01600000075995922, -0.19200000911951065, 1.0400000493973494, 0.0, 0.0, 0.0, 0.0, 0.0, 1.710387370843602E9, 0.0, 2024-03-13 20:36:10.843
33.0, 29.012273906264454, -290.6463250564411, 73.79009607573971, 723.2293332312256, 0.01600000075995922, -0.19200000911951065, 1.0400000493973494, 0.0, 0.0, 0.0, 0.0, 0.0, 1.710387370843602E9, 0.0, 2024-03-13 20:36:10.843
34.0, 212.70494002988562, -343.3209459823556, 210.0122120617889, 685.8359435242601, 0.01600000075995922, -0.19200000911951065, 1.0400000493973494, 0.0, 0.0, 0.0, 0.0, 0.0, 1.7103873708442764E9, 0.0, 2024-03-13 20:36:10.844
34.0, 24.48886490985751, -512.4223924288526, 42.477783696725965, 452.38203854020685, 0.01600000075995922, -0.19200000911951065, 1.0400000493973494, 0.0, 0.0, 0.0, 0.0, 0.0, 1.7103873708442764E9, 0.0, 2024-03-13 20:36:10.844
35.0, 158.54370887158439, -635.1696488745511, 209.94489386258647, 347.6199609814212, 0.01600000075995922, -0.19200000911951065, 1.0400000493973494, 0.0, 0.0, 0.0, 0.0, 0.0, 1.7103873708580089E9, 0.0, 2024-03-13 20:36:10.858
35.0, 68.28496334096417, -586.5210302509367, 87.83342040935531, 454.90273111034185, 0.01600000075995922, -0.19200000911951065, 1.0400000493973494, 0.0, 0.0, 0.0, 0.0, 0.0, 1.7103873708580089E9, 0.0, 2024-03-13 20:36:10.858
36.0, 0.5348056936636567, -485.02014545351267, 7.038491716608405, 504.11607462726533, 0.01600000075995922, -0.19200000911951065, 1.0400000493973494, 0.0, 0.0, 0.0, 0.0, 0.0, 1.710387370873822E9, 0.0, 2024-03-13 20:36:10.873
36.0, -178.9018542803824, -416.42103051627055, -133.21897632163018, 549.8569210353307, 0.01600000075995922, -0.19200000911951065, 1.0400000493973494, 0.0, 0.0, 0.0, 0.0, 0.0, 1.710387370873822E9, 0.0, 2024-03-13 20:36:10.873
37.0, -0.8807464395649731, -257.8249630453065, 38.45552129438147, 769.1964435866103, 0.01600000075995922, -0.19200000911951065, 1.0400000493973494, 0.0, 0.0, 0.0, 0.0, 0.0, 1.7103873708745327E9, 0.0, 2024-03-13 20:36:10.874
37.0, -115.06550193671137, -108.20278551802039, -119.33646768610924, 897.258097869344, 0.01600000075995922, -0.19200000911951065, 1.0400000493973494, 0.0, 0.0, 0.0, 0.0, 0.0, 1.7103873708745327E9, 0.0, 2024-03-13 20:36:10.874
38.0, -56.05736043583602, -188.06834907177836, -18.310550183057785, 769.6489714812487, 0.01600000075995922, -0.19200000911951065, 1.0400000493973494, 0.0, 0.0, 0.0, 0.0, 0.0, 1.7103873708881297E9, 0.0, 2024-03-13 20:36:10.888
38.0, 37.30363210802898, -278.26351630315185, 84.38523265020922, 726.456866892986, 0.01600000075995922, -0.19200000911951065, 1.0400000493973494, 0.0, 0.0, 0.0, 0.0, 0.0, 1.7103873708881297E9, 0.0, 2024-03-13 20:36:10.888
39.0, 218.14649446541443, -332.6210922091268, 212.712419829797, 691.6103490558453, 0.01600000075995922, -0.19200000911951065, 1.0400000493973494, 0.0, 0.0, 0.0, 0.0, 0.0, 1.710387370903772E9, 0.0, 2024-03-13 20:36:10.903
39.0, 44.64692567102611, -492.4251473657787, 52.60543277673423, 468.4075098503381, 0.01600000075995922, -0.19200000911951065, 1.0400000493973494, 0.0, 0.0, 0.0, 0.0, 0.0, 1.710387370903772E9, 0.0, 2024-03-13 20:36:10.903
40.0, 150.48048456711695, -639.8594834189862, 199.24130018940195, 337.36141540296376, 0.01600000075995922, -0.19200000911951065, 1.0400000493973494, 0.0, 0.0, 0.0, 0.0, 0.0, 1.7103873709044092E9, 0.0, 2024-03-13 20:36:10.904
40.0, 72.50731039093807, -589.6700260136276, 77.06250853696838, 439.37466649431735, 0.01600000075995922, -0.19200000911951065, 1.0400000493973494, 0.0, 0.0, 0.0, 0.0, 0.0, 1.7103873709044092E9, 0.0, 2024-03-13 20:36:10.904
41.0, -6.488726423121989, -483.66256176959723, 2.139222774654627, 501.07179606333375, 0.01600000075995922, -0.19200000911951065, 1.0400000493973494, 0.0, 0.0, 0.0, 0.0, 0.0, 1.7103873709180155E9, 0.0, 2024-03-13 20:36:10.918
41.0, -195.98945717792958, -424.41693662153557, -133.68272391613573, 545.2119652903639, 0.01600000075995922, -0.19200000911951065, 1.0400000493973494, 0.0, 0.0, 0.0, 0.0, 0.0, 1.7103873709180155E9, 0.0, 2024-03-13 20:36:10.918
42.0, 3.2443632115609944, -268.4163597198203, 38.47422079415992, 766.7954278150573, 0.01600000075995922, -0.19200000911951065, 1.0400000493973494, 0.0, 0.0, 0.0, 0.0, 0.0, 1.7103873709335732E9, 0.0, 2024-03-13 20:36:10.933
42.0, -114.81492863968015, -117.71709100529552, -115.21883783489466, 895.5489635895938, 0.01600000075995922, -0.19200000911951065, 1.0400000493973494, 0.0, 0.0, 0.0, 0.0, 0.0, 1.7103873709335732E9, 0.0, 2024-03-13 20:36:10.933
43.0, -57.55706031806767, -192.8666407149285, -12.308010754175484, 769.8471861789003, 0.01600000075995922, -0.19200000911951065, 1.0400000493973494, 0.0, 0.0, 0.0, 0.0, 0.0, 1.7103873709343388E9, 0.0, 2024-03-13 20:36:10.934
43.0, 35.9984070234932, -282.5756209520623, 86.25144272809848, 729.5497641563416, 0.01600000075995922, -0.19200000911951065, 1.0400000493973494, 0.0, 0.0, 0.0, 0.0, 0.0, 1.7103873709343388E9, 0.0, 2024-03-13 20:36:10.934
44.0, 204.3051247294061, -358.7442933996208, 207.97770648589358, 676.7966053313576, 0.01600000075995922, -0.19200000911951065, 1.0400000493973494, 0.0, 0.0, 0.0, 0.0, 0.0, 1.7103873709478323E9, 0.0, 2024-03-13 20:36:10.947
44.0, -5.995059628970921, -520.4930965332314, 36.98761056177318, 450.4335506632924, 0.01600000075995922, -0.19200000911951065, 1.0400000493973494, 0.0, 0.0, 0.0, 0.0, 0.0, 1.7103873709478323E9, 0.0, 2024-03-13 20:36:10.947
45.0, 139.6796534950845, -649.111995909363, 197.59948410885409, 333.7224927460775, 0.01600000075995922, -0.19200000911951065, 1.0400000493973494, 0.0, 0.0, 0.0, 0.0, 0.0, 1.71038737096359E9, 0.0, 2024-03-13 20:36:10.963
45.0, 81.47933038463816, -592.0598220853135, 79.29148891055956, 441.33437407109886, 0.01600000075995922, -0.19200000911951065, 1.0400000493973494, 0.0, 0.0, 0.0, 0.0, 0.0, 1.71038737096359E9, 0.0, 2024-03-13 20:36:10.963
46.0, -3.900715653784573, -490.4654397889972, -5.882862630300224, 489.54168449994177, 0.01600000075995922, -0.19200000911951065, 1.0400000493973494, 0.0, 0.0, 0.0, 0.0, 0.0, 1.7103873709643316E9, 0.0, 2024-03-13 20:36:10.964
46.0, -191.77832982782274, -420.9276099628769, -142.87539800722152, 534.9459399119951, 0.01600000075995922, -0.19200000911951065, 1.0400000493973494, 0.0, 0.0, 0.0, 0.0, 0.0, 1.7103873709643316E9, 0.0, 2024-03-13 20:36:10.964
47.0, -0.03178914962336421, -266.07144244760275, 28.36153131397441, 755.8375209448859, 0.01600000075995922, -0.19200000911951065, 1.0400000493973494, 0.0, 0.0, 0.0, 0.0, 0.0, 1.7103873709778385E9, 0.0, 2024-03-13 20:36:10.977
47.0, -121.763662757352, -117.88164660334587, -122.837014044635, 889.3519493630156, 0.01600000075995922, -0.19200000911951065, 1.0400000493973494, 0.0, 0.0, 0.0, 0.0, 0.0, 1.7103873709778385E9, 0.0, 2024-03-13 20:36:10.977
48.0, -55.9152442375198, -188.8312886627391, -19.484878769144416, 763.1901642577723, 0.01600000075995922, -0.19200000911951065, 1.0400000493973494, 0.0, 0.0, 0.0, 0.0, 0.0, 1.710387370993914E9, 0.0, 2024-03-13 20:36:10.993
48.0, 41.092150763142854, -292.31058053672314, 78.65196601813659, 718.0458318926394, 0.01600000075995922, -0.19200000911951065, 1.0400000493973494, 0.0, 0.0, 0.0, 0.0, 0.0, 1.710387370993914E9, 0.0, 2024-03-13 20:36:10.993
49.0, 187.50175422849134, -355.823431534227, 197.95103470468894, 666.7175749507733, 0.01600000075995922, -0.19200000911951065, 1.0400000493973494, 0.0, 0.0, 0.0, 0.0, 0.0, 1.7103873709943488E9, 0.0, 2024-03-13 20:36:10.994
49.0, 11.204740267246962, -521.2635159241036, 30.338068440556526, 442.78171535395086, 0.01600000075995922, -0.19200000911951065, 1.0400000493973494, 0.0, 0.0, 0.0, 0.0, 0.0, 1.7103873709943488E9, 0.0, 2024-03-13 20:36:10.994
50.0, 154.30266232183203, -644.0369516694918, 201.75451295962557, 335.7457786221057, 0.01600000075995922, -0.19200000911951065, 1.0400000493973494, 0.0, 0.0, 0.0, 0.0, 0.0, 1.7103873710081265E9, 0.0, 2024-03-13 20:36:11.008
50.0, 47.19566749082878, -615.7969671040773, 61.930873316247016, 417.4214537544176, 0.01600000075995922, -0.19200000911951065, 1.0400000493973494, 0.0, 0.0, 0.0, 0.0, 0.0, 1.7103873710081265E9, 0.0, 2024-03-13 20:36:11.008
51.0, -15.6739207142964, -500.29015697259456, -10.797091172076762, 484.76209235657007, 0.01600000075995922, -0.17600000835955143, 1.0400000493973494, 0.0, 0.0, 0.0, 0.0, 0.0, 1.710387371023774E9, 0.0, 2024-03-13 20:36:11.023
51.0, -199.5049631362781, -428.6654629711993, -146.7686338610947, 536.430680194404, 0.01600000075995922, -0.17600000835955143, 1.0400000493973494, 0.0, 0.0, 0.0, 0.0, 0.0, 1.710387371023774E9, 0.0, 2024-03-13 20:36:11.023
52.0, -15.447656766977161, -285.66851821541786, 13.641285088378936, 742.8937271982431, 0.01600000075995922, -0.17600000835955143, 1.0400000493973494, 0.0, 0.0, 0.0, 0.0, 0.0, 1.7103873710244014E9, 0.0, 2024-03-13 20:36:11.024
52.0, -118.94003829080611, -123.86922643240541, -137.1346515752375, 875.4058624282479, 0.01600000075995922, -0.17600000835955143, 1.0400000493973494, 0.0, 0.0, 0.0, 0.0, 0.0, 1.7103873710244014E9, 0.0, 2024-03-13 20:36:11.024
53.0, -60.69109648093581, -191.95784502569586, -21.130434749647975, 761.6119264764711, 0.01600000075995922, -0.17600000835955143, 1.0400000493973494, 0.0, 0.0, 0.0, 0.0, 0.0, 1.7103873710378983E9, 0.0, 2024-03-13 20:36:11.037
53.0, 41.58581755729392, -285.799414713867, 74.13790677161887, 716.0524652162567, 0.01600000075995922, -0.17600000835955143, 1.0400000493973494, 0.0, 0.0, 0.0, 0.0, 0.0, 1.7103873710378983E9, 0.0, 2024-03-13 20:36:11.037
54.0, 197.22923401324078, -356.94166162097827, 201.54507856210694, 669.5711186169647, 0.01600000075995922, -0.17600000835955143, 1.0400000493973494, 0.0, 0.0, 0.0, 0.0, 0.0, 1.7103873710538974E9, 0.0, 2024-03-13 20:36:11.053
54.0, 18.677060378715396, -510.85163444746286, 39.598060730844736, 453.12627863138914, 0.01600000075995922, -0.17600000835955143, 1.0400000493973494, 0.0, 0.0, 0.0, 0.0, 0.0, 1.7103873710538974E9, 0.0, 2024-03-13 20:36:11.053
55.0, 146.1945592178963, -641.2956050019711, 196.93752181669697, 336.95750620774925, 0.01600000075995922, -0.17600000835955143, 1.0400000493973494, 0.0, 0.0, 0.0, 0.0, 0.0, 1.7103873710545475E9, 0.0, 2024-03-13 20:36:11.054
55.0, 65.15092717809603, -606.780068310909, 60.18060013698414, 422.7919500907883, 0.01600000075995922, -0.17600000835955143, 1.0400000493973494, 0.0, 0.0, 0.0, 0.0, 0.0, 1.7103873710545475E9, 0.0, 2024-03-13 20:36:11.054
56.0, -12.352889553643763, -487.6492951223627, -15.531804515980184, 487.7427926212549, 0.01600000075995922, -0.17600000835955143, 1.0400000493973494, 0.0, 0.0, 0.0, 0.0, 0.0, 1.710387371067927E9, 0.0, 2024-03-13 20:36:11.067
56.0, -186.71076538786292, -413.53008785052225, -142.5836858106777, 547.755097260233, 0.01600000075995922, -0.17600000835955143, 1.0400000493973494, 0.0, 0.0, 0.0, 0.0, 0.0, 1.710387371067927E9, 0.0, 2024-03-13 20:36:11.067
57.0, 16.218076157849282, -264.69889916386455, 24.240161562804133, 755.5458087483421, 0.01600000075995922, -0.17600000835955143, 1.0400000493973494, 0.0, 0.0, 0.0, 0.0, 0.0, 1.7103873710836172E9, 0.0, 2024-03-13 20:36:11.083
57.0, -114.50451694335788, -111.55373587831855, -128.0579143827781, 886.47596629709, 0.01600000075995922, -0.17600000835955143, 1.0400000493973494, 0.0, 0.0, 0.0, 0.0, 0.0, 1.7103873710836172E9, 0.0, 2024-03-13 20:36:11.083
58.0, -44.489849872887135, -176.7177527062595, -15.000738722272217, 774.8810915192589, 0.01600000075995922, -0.17600000835955143, 1.0400000493973494, 0.0, 0.0, 0.0, 0.0, 0.0, 1.7103873710843332E9, 0.0, 2024-03-13 20:36:11.084
58.0, 47.27420538989827, -266.8680411381647, 78.40887252101675, 723.0834771329537, 0.01600000075995922, -0.17600000835955143, 1.0400000493973494, 0.0, 0.0, 0.0, 0.0, 0.0, 1.7103873710843332E9, 0.0, 2024-03-13 20:36:11.084
59.0, 205.67766801314428, -343.7285950775258, 203.54218513844535, 673.1651624743827, 0.01600000075995922, -0.17600000835955143, 1.0400000493973494, 0.0, 0.0, 0.0, 0.0, 0.0, 1.7103873710980392E9, 0.0, 2024-03-13 20:36:11.098
59.0, 25.35278179962188, -505.9748049052432, 32.847541310824454, 447.30325440037996, 0.01600000075995922, -0.17600000835955143, 1.0400000493973494, 0.0, 0.0, 0.0, 0.0, 0.0, 1.7103873710980392E9, 0.0, 2024-03-13 20:36:11.098
60.0, 160.44357804907486, -635.1920882742852, 203.61324323760346, 341.26213105674833, 0.01600000075995922, -0.17600000835955143, 1.0400000493973494, 0.0, 0.0, 0.0, 0.0, 0.0, 1.7103873711135628E9, 0.0, 2024-03-13 20:36:11.113
60.0, 66.30281636444852, -600.2389832884073, 70.831835210789, 430.2754899021238, 0.01600000075995922, -0.17600000835955143, 1.0400000493973494, 0.0, 0.0, 0.0, 0.0, 0.0, 1.7103873711135628E9, 0.0, 2024-03-13 20:36:11.113
61.0, -5.63976913318038, -483.28857177402824, -5.318137736991048, 497.1673405095935, 0.01600000075995922, -0.17600000835955143, 1.0400000493973494, 0.0, 0.0, 0.0, 0.0, 0.0, 1.7103873711143148E9, 0.0, 2024-03-13 20:36:11.114
61.0, -192.74322401639074, -411.9181909696199, -137.46750267129391, 547.1230541677214, 0.01600000075995922, -0.17600000835955143, 1.0400000493973494, 0.0, 0.0, 0.0, 0.0, 0.0, 1.7103873711143148E9, 0.0, 2024-03-13 20:36:11.114
62.0, -1.4417314329184592, -271.3073023855686, 31.682562474627048, 755.7477633459494, 0.01600000075995922, -0.17600000835955143, 1.0400000493973494, 0.0, 0.0, 0.0, 0.0, 0.0, 1.7103873711279063E9, 0.0, 2024-03-13 20:36:11.127
62.0, -118.25937649887055, -115.03932263702154, -125.1707116169855, 890.6534345475957, 0.01600000075995922, -0.17600000835955143, 1.0400000493973494, 0.0, 0.0, 0.0, 0.0, 0.0, 1.7103873711279063E9, 0.0, 2024-03-13 20:36:11.127
63.0, -43.58853398356587, -175.76781811751425, -9.016898793168366, 784.4776748055592, 0.01600000075995922, -0.17600000835955143, 1.0400000493973494, 0.0, 0.0, 0.0, 0.0, 0.0, 1.7103873711436083E9, 0.0, 2024-03-13 20:36:11.143
63.0, 34.93627543607727, -274.22442435100675, 85.97469013137743, 728.1435617730021, 0.01600000075995922, -0.17600000835955143, 1.0400000493973494, 0.0, 0.0, 0.0, 0.0, 0.0, 1.7103873711436083E9, 0.0, 2024-03-13 20:36:11.143
64.0, 224.94563258485869, -341.5781526030041, 210.1879873597063, 679.9306414942257, 0.01600000075995922, -0.17600000835955143, 1.0400000493973494, 0.0, 0.0, 0.0, 0.0, 0.0, 1.7103873711443284E9, 0.0, 2024-03-13 20:36:11.144
64.0, 20.831242753192782, -499.5982754807919, 45.38368596229702, 460.75567454099655, 0.01600000075995922, -0.17600000835955143, 1.0400000493973494, 0.0, 0.0, 0.0, 0.0, 0.0, 1.7103873711443284E9, 0.0, 2024-03-13 20:36:11.144
65.0, 161.48701013671234, -628.392950154841, 206.94549409812316, 346.6139278933406, 0.01600000075995922, -0.17600000835955143, 1.0400000493973494, 0.0, 0.0, 0.0, 0.0, 0.0, 1.7103873711580951E9, 0.0, 2024-03-13 20:36:11.158
65.0, 80.06938810134307, -597.0077097266912, 72.20437849452719, 433.08415476884693, 0.01600000075995922, -0.17600000835955143, 1.0400000493973494, 0.0, 0.0, 0.0, 0.0, 0.0, 1.7103873711580951E9, 0.0, 2024-03-13 20:36:11.158
66.0, -11.627348962239921, -482.4433543840423, -9.061777592636645, 493.8313497491181, 0.01600000075995922, -0.17600000835955143, 1.0400000493973494, 0.0, 0.0, 0.0, 0.0, 0.0, 1.7103873711738105E9, 0.0, 2024-03-13 20:36:11.173
66.0, -170.3000843822956, -400.97150379931554, -140.81471313163638, 553.0059167980216, 0.01600000075995922, -0.17600000835955143, 1.0400000493973494, 0.0, 0.0, 0.0, 0.0, 0.0, 1.7103873711738105E9, 0.0, 2024-03-13 20:36:11.173
67.0, -0.1327664484269917, -267.84415502659976, 28.649503610562533, 753.5561819719151, 0.01600000075995922, -0.17600000835955143, 1.0400000493973494, 0.0, 0.0, 0.0, 0.0, 0.0, 1.710387371174538E9, 0.0, 2024-03-13 20:36:11.174
67.0, -118.90263929124922, -122.54530184809119, -138.94102325383574, 873.8949428461492, 0.01600000075995922, -0.17600000835955143, 1.0400000493973494, 0.0, 0.0, 0.0, 0.0, 0.0, 1.710387371174538E9, 0.0, 2024-03-13 20:36:11.174
68.0, -30.330588640645146, -165.79724483564496, -4.652435544878244, 784.2981596076861, 0.01600000075995922, -0.17600000835955143, 1.0400000493973494, 0.0, 0.0, 0.0, 0.0, 0.0, 1.710387371187887E9, 0.0, 2024-03-13 20:36:11.187
68.0, 39.383016483392566, -280.3279410786927, 74.18652547104284, 718.6030769860372, 0.01600000075995922, -0.17600000835955143, 1.0400000493973494, 0.0, 0.0, 0.0, 0.0, 0.0, 1.710387371187887E9, 0.0, 2024-03-13 20:36:11.187
69.0, 217.62664837157354, -354.2152745532803, 200.0790377794765, 666.5717188525014, 0.01600000075995922, -0.17600000835955143, 1.0400000493973494, 0.0, 0.0, 0.0, 0.0, 0.0, 1.7103873712036006E9, 0.0, 2024-03-13 20:36:11.203
69.0, 0.5011465940624475, -511.7940892362967, 30.487664438784122, 448.93759068101645, 0.01600000075995922, -0.17600000835955143, 1.0400000493973494, 0.0, 0.0, 0.0, 0.0, 0.0, 1.7103873712036006E9, 0.0, 2024-03-13 20:36:11.203
70.0, 164.01144260680303, -624.2977597033605, 210.84620975190774, 349.418852860108, 0.01600000075995922, -0.17600000835955143, 1.0400000493973494, 0.0, 0.0, 0.0, 0.0, 0.0, 1.7103873712043545E9, 0.0, 2024-03-13 20:36:11.204
70.0, 73.3487878809683, -600.194104488939, 74.59417456621304, 430.8813536949456, 0.01600000075995922, -0.17600000835955143, 1.0400000493973494, 0.0, 0.0, 0.0, 0.0, 0.0, 1.7103873712043545E9, 0.0, 2024-03-13 20:36:11.204
71.0, -3.500546358525753, -481.9272481901571, -4.151288950815797, 500.76886416692287, 0.01600000075995922, -0.17600000835955143, 1.0400000493973494, 0.0, 0.0, 0.0, 0.0, 0.0, 1.7103873712178674E9, 0.0, 2024-03-13 20:36:11.217
71.0, -176.5980759076774, -400.26466270769015, -132.1381452344358, 556.005316562485, 0.01600000075995922, -0.17600000835955143, 1.0400000493973494, 0.0, 0.0, 0.0, 0.0, 0.0, 1.7103873712178674E9, 0.0, 2024-03-13 20:36:11.217
72.0, 12.867125797551125, -260.29703691601753, 37.36347050732002, 761.4623304782435, 0.01600000075995922, -0.17600000835955143, 1.0400000493973494, 0.0, 0.0, 0.0, 0.0, 0.0, 1.7103873712335708E9, 0.0, 2024-03-13 20:36:11.233
72.0, -125.8364138090983, -119.64687938243151, -134.09037301130593, 884.5199986202642, 0.01600000075995922, -0.17600000835955143, 1.0400000493973494, 0.0, 0.0, 0.0, 0.0, 0.0, 1.7103873712335708E9, 0.0, 2024-03-13 20:36:11.233
73.0, -32.49973061494529, -165.24373964220285, -1.653035780414939, 787.5369129693136, 0.01600000075995922, -0.17600000835955143, 1.0400000493973494, 0.0, 0.0, 0.0, 0.0, 0.0, 1.710387371234338E9, 0.0, 2024-03-13 20:36:11.234
73.0, 36.73142741480842, -275.40997263696045, 84.88637924427167, 726.733619489707, 0.01600000075995922, -0.17600000835955143, 1.0400000493973494, 0.0, 0.0, 0.0, 0.0, 0.0, 1.710387371234338E9, 0.0, 2024-03-13 20:36:11.234
74.0, 208.4900727798231, -357.53630571393296, 203.44120783964172, 668.6847623274662, 0.01600000075995922, -0.17600000835955143, 1.0400000493973494, 0.0, 0.0, 0.0, 0.0, 0.0, 1.71038737124789E9, 0.0, 2024-03-13 20:36:11.247
74.0, 22.364601735025644, -505.5783755099401, 40.1665255241096, 460.5200608437881, 0.01600000075995922, -0.17600000835955143, 1.0400000493973494, 0.0, 0.0, 0.0, 0.0, 0.0, 1.71038737124789E9, 0.0, 2024-03-13 20:36:11.247
75.0, 169.67739103967324, -625.3935503903776, 213.2360058235936, 351.6403534337878, 0.01600000075995922, -0.17600000835955143, 1.0400000493973494, 0.0, 0.0, 0.0, 0.0, 0.0, 1.7103873712637868E9, 0.0, 2024-03-13 20:36:11.263
75.0, 71.35168130462989, -604.6632849359885, 69.83702182257548, 430.6532197976485, 0.01600000075995922, -0.17600000835955143, 1.0400000493973494, 0.0, 0.0, 0.0, 0.0, 0.0, 1.7103873712637868E9, 0.0, 2024-03-13 20:36:11.263
76.0, -31.38150052819401, -493.2404455561191, -12.180854155682027, 491.8566825725138, 0.01600000075995922, -0.17600000835955143, 1.0400000493973494, 0.0, 0.0, 0.0, 0.0, 0.0, 1.710387371264343E9, 0.0, 2024-03-13 20:36:11.264
76.0, -169.27909169439226, -403.97464346373454, -132.53831452969462, 558.971057227347, 0.01600000075995922, -0.17600000835955143, 1.0400000493973494, 0.0, 0.0, 0.0, 0.0, 0.0, 1.710387371264343E9, 0.0, 2024-03-13 20:36:11.264
77.0, 5.903432080056518, -277.7698495090008, 27.692089221905917, 749.034642925486, 0.01600000075995922, -0.17600000835955143, 1.0400000493973494, 0.0, 0.0, 0.0, 0.0, 0.0, 1.7103873712780976E9, 0.0, 2024-03-13 20:36:11.278
77.0, -117.83676780387759, -129.62493246421218, -131.1769909458235, 879.8488635756075, 0.01600000075995922, -0.17600000835955143, 1.0400000493973494, 0.0, 0.0, 0.0, 0.0, 0.0, 1.7103873712780976E9, 0.0, 2024-03-13 20:36:11.278
78.0, -42.874213092029095, -170.4870793800801, -6.305471325293183, 786.1905489852652, 0.01600000075995922, -0.17600000835955143, 1.0400000493973494, 0.0, 0.0, 0.0, 0.0, 0.0, 1.710387371293615E9, 0.0, 2024-03-13 20:36:11.293
78.0, 42.9284416413866, -274.88638664316386, 85.82883403310552, 729.3964282581583, 0.01600000075995922, -0.17600000835955143, 1.0400000493973494, 0.0, 0.0, 0.0, 0.0, 0.0, 1.710387371293615E9, 0.0, 2024-03-13 20:36:11.293
79.0, 194.5552055449225, -373.7824311214499, 194.42430904647335, 658.2317419513129, 0.01600000075995922, -0.17600000835955143, 1.0400000493973494, 0.0, 0.0, 0.0, 0.0, 0.0, 1.7103873712943485E9, 0.0, 2024-03-13 20:36:11.294
79.0, 12.577283550985157, -512.16433933191, 34.781069587916136, 452.23992234189063, 0.01600000075995922, -0.17600000835955143, 1.0400000493973494, 0.0, 0.0, 0.0, 0.0, 0.0, 1.7103873712943485E9, 0.0, 2024-03-13 20:36:11.294
80.0, 167.9121582605876, -633.8756434898823, 205.17278151912615, 344.1642934223637, 0.01600000075995922, -0.17600000835955143, 1.0400000493973494, 0.0, 0.0, 0.0, 0.0, 0.0, 1.710387371308319E9, 0.0, 2024-03-13 20:36:11.308
80.0, 59.3802615464665, -602.3445469634607, 75.73110415274277, 426.66274654492736, 0.01600000075995922, -0.17600000835955143, 1.0400000493973494, 0.0, 0.0, 0.0, 0.0, 0.0, 1.710387371308319E9, 0.0, 2024-03-13 20:36:11.308
81.0, -8.680307797156274, -489.36216930206865, -10.337083477526903, 494.91966063622385, 0.01600000075995922, -0.19200000911951065, 1.0400000493973494, 0.0, 0.0, 0.0, 0.0, 0.0, 1.7103873713238287E9, 0.0, 2024-03-13 20:36:11.323
81.0, -173.69591354206204, -403.0321886749007, -126.66293169930577, 565.1718113538809, 0.01600000075995922, -0.19200000911951065, 1.0400000493973494, 0.0, 0.0, 0.0, 0.0, 0.0, 1.7103873713238287E9, 0.0, 2024-03-13 20:36:11.323
82.0, 0.6563524422235787, -274.22442435100675, 29.853751396294683, 753.4065859736875, 0.01600000075995922, -0.19200000911951065, 1.0400000493973494, 0.0, 0.0, 0.0, 0.0, 0.0, 1.710387371324629E9, 0.0, 2024-03-13 20:36:11.324
82.0, -111.65845307707787, -128.577760476619, -134.15395131055266, 883.5850236313418, 0.01600000075995922, -0.19200000911951065, 1.0400000493973494, 0.0, 0.0, 0.0, 0.0, 0.0, 1.710387371324629E9, 0.0, 2024-03-13 20:36:11.324
83.0, -53.12901877053082, -171.0779835730791, -9.491866087540984, 786.6355970799923, 0.01600000075995922, -0.19200000911951065, 1.0400000493973494, 0.0, 0.0, 0.0, 0.0, 0.0, 1.7103873713378856E9, 0.0, 2024-03-13 20:36:11.337
83.0, 55.524424692150205, -272.3469945732504, 88.34952660324052, 734.778144294396, 0.01600000075995922, -0.19200000911951065, 1.0400000493973494, 0.0, 0.0, 0.0, 0.0, 0.0, 1.7103873713378856E9, 0.0, 2024-03-13 20:36:11.337
84.0, 207.28582499409094, -363.87543613882735, 201.13742946693674, 666.4445622540079, 0.01600000075995922, -0.19200000911951065, 1.0400000493973494, 0.0, 0.0, 0.0, 0.0, 0.0, 1.7103873713535745E9, 0.0, 2024-03-13 20:36:11.353
84.0, 19.79155056551099, -502.70987224392593, 38.17315884772688, 464.49557449668646, 0.01600000075995922, -0.19200000911951065, 1.0400000493973494, 0.0, 0.0, 0.0, 0.0, 0.0, 1.7103873713535745E9, 0.0, 2024-03-13 20:36:11.353
85.0, 160.19674465199932, -625.1429770933464, 210.88734865142033, 356.2703495789319, 0.01600000075995922, -0.19200000911951065, 1.0400000493973494, 0.0, 0.0, 0.0, 0.0, 0.0, 1.7103873713544135E9, 0.0, 2024-03-13 20:36:11.354
85.0, 65.57353587308899, -605.2915881285444, 73.43854547990486, 429.3143356135115, 0.01600000075995922, -0.19200000911951065, 1.0400000493973494, 0.0, 0.0, 0.0, 0.0, 0.0, 1.7103873713544135E9, 0.0, 2024-03-13 20:36:11.354
86.0, -10.602616374380887, -494.7513651382178, -12.08735665678978, 492.6046625636518, 0.01600000075995922, -0.19200000911951065, 1.0400000493973494, 0.0, 0.0, 0.0, 0.0, 0.0, 1.7103873713678987E9, 0.0, 2024-03-13 20:36:11.367
86.0, -171.94190046284348, -397.08574774535373, -129.17988436948508, 566.8585062338971, 0.01600000075995922, -0.19200000911951065, 1.0400000493973494, 0.0, 0.0, 0.0, 0.0, 0.0, 1.7103873713678987E9, 0.0, 2024-03-13 20:36:11.367
87.0, 8.031435154844075, -269.8038626033813, 35.16814923333004, 758.694804511033, 0.01600000075995922, -0.19200000911951065, 1.0400000493973494, 0.0, 0.0, 0.0, 0.0, 0.0, 1.7103873713835747E9, 0.0, 2024-03-13 20:36:11.383
87.0, -122.34708715043962, -130.1410386580974, -136.98505557700992, 877.6049236021936, 0.01600000075995922, -0.19200000911951065, 1.0400000493973494, 0.0, 0.0, 0.0, 0.0, 0.0, 1.7103873713835747E9, 0.0, 2024-03-13 20:36:11.383
88.0, -26.13816079031676, -160.02657920401543, -8.283878401853144, 794.0518186921254, 0.01600000075995922, -0.19200000911951065, 1.0400000493973494, 0.0, 0.0, 0.0, 0.0, 0.0, 1.7103873713843057E9, 0.0, 2024-03-13 20:36:11.384
88.0, 69.19375903019682, -259.6051554242149, 92.42975745489821, 735.7243389831856, 0.01600000075995922, -0.19200000911951065, 1.0400000493973494, 0.0, 0.0, 0.0, 0.0, 0.0, 1.7103873713843057E9, 0.0, 2024-03-13 20:36:11.384
89.0, 211.6054094429128, -353.65054965997115, 200.7410000716336, 668.7034618272446, 0.01600000075995922, -0.19200000911951065, 1.0400000493973494, 0.0, 0.0, 0.0, 0.0, 0.0, 1.7103873713979712E9, 0.0, 2024-03-13 20:36:11.397
89.0, 30.379207340069115, -494.6877868389711, 38.34519424568862, 465.1537968888879, 0.01600000075995922, -0.19200000911951065, 1.0400000493973494, 0.0, 0.0, 0.0, 0.0, 0.0, 1.7103873713979712E9, 0.0, 2024-03-13 20:36:11.397
90.0, 175.04414747608826, -614.3832849208266, 215.73799889395013, 361.89515911228955, 0.01600000075995922, -0.19200000911951065, 1.0400000493973494, 0.0, 0.0, 0.0, 0.0, 0.0, 1.7103873714135544E9, 0.0, 2024-03-13 20:36:11.413
90.0, 69.39571362780407, -603.7208301471546, 69.21245852997527, 428.4990374231711, 0.01600000075995922, -0.19200000911951065, 1.0400000493973494, 0.0, 0.0, 0.0, 0.0, 0.0, 1.7103873714135544E9, 0.0, 2024-03-13 20:36:11.413
91.0, 0.8639168897643685, -481.48220009543, -5.699607532471418, 505.4699184112251, 0.01600000075995922, -0.17600000835955143, 1.0400000493973494, 0.0, 0.0, 0.0, 0.0, 0.0, 1.710387371414533E9, 0.0, 2024-03-13 20:36:11.414
91.0, -168.35533640533686, -374.35837571462616, -117.08878781273961, 585.299952915404, 0.01600000075995922, -0.17600000835955143, 1.0400000493973494, 0.0, 0.0, 0.0, 0.0, 0.0, 1.710387371414533E9, 0.0, 2024-03-13 20:36:11.414
92.0, 23.56323967082426, -255.02003807853907, 46.698260796722025, 769.6527113812044, 0.01600000075995922, -0.17600000835955143, 1.0400000493973494, 0.0, 0.0, 0.0, 0.0, 0.0, 1.7103873714278624E9, 0.0, 2024-03-13 20:36:11.427
92.0, -124.84160042088479, -118.02750270161778, -129.86054616142064, 889.1574745653197, 0.01600000075995922, -0.17600000835955143, 1.0400000493973494, 0.0, 0.0, 0.0, 0.0, 0.0, 1.7103873714278624E9, 0.0, 2024-03-13 20:36:11.427
93.0, -25.659453595988452, -147.8120659487322, -2.778745667077601, 803.6035231789574, 0.01600000075995922, -0.17600000835955143, 1.0400000493973494, 0.0, 0.0, 0.0, 0.0, 0.0, 1.7103873714437203E9, 0.0, 2024-03-13 20:36:11.443
93.0, 61.34744892315939, -258.1989530408755, 96.89145810203627, 743.6043081898242, 0.01600000075995922, -0.17600000835955143, 1.0400000493973494, 0.0, 0.0, 0.0, 0.0, 0.0, 1.7103873714437203E9, 0.0, 2024-03-13 20:36:11.443
94.0, 218.59528246009722, -349.0803919141181, 209.7878180644475, 678.4421613118611, 0.01600000075995922, -0.17600000835955143, 1.0400000493973494, 0.0, 0.0, 0.0, 0.0, 0.0, 1.710387371444436E9, 0.0, 2024-03-13 20:36:11.444
94.0, 44.856360068544745, -477.4580677431077, 51.4685031902045, 481.76643249206245, 0.01600000075995922, -0.17600000835955143, 1.0400000493973494, 0.0, 0.0, 0.0, 0.0, 0.0, 1.710387371444436E9, 0.0, 2024-03-13 20:36:11.444
95.0, 158.38289317348972, -610.7107031643391, 219.7509115464054, 366.0352283632383, 0.01600000075995922, -0.17600000835955143, 1.0400000493973494, 0.0, 0.0, 0.0, 0.0, 0.0, 1.710387371458279E9, 0.0, 2024-03-13 20:36:11.458
95.0, 57.33827617065981, -612.5432541426271, 71.41525960387662, 419.50831792969257, 0.01600000075995922, -0.17600000835955143, 1.0400000493973494, 0.0, 0.0, 0.0, 0.0, 0.0, 1.710387371458279E9, 0.0, 2024-03-13 20:36:11.458
96.0, 4.7309734439477324, -482.12920278776437, -7.5845171101391315, 499.03729048743844, 0.01600000075995922, -0.17600000835955143, 1.0400000493973494, 0.0, 0.0, 0.0, 0.0, 0.0, 1.710387371473531E9, 0.0, 2024-03-13 20:36:11.473
96.0, -158.58297782111913, -382.76941071497276, -123.77946883346885, 574.8992911386304, 0.01600000075995922, -0.17600000835955143, 1.0400000493973494, 0.0, 0.0, 0.0, 0.0, 0.0, 1.710387371473531E9, 0.0, 2024-03-13 20:36:11.473
97.0, 10.866279321257025, -267.9413924254477, 31.690042274538428, 753.9563512671739, 0.01600000075995922, -0.17600000835955143, 1.0400000493973494, 0.0, 0.0, 0.0, 0.0, 0.0, 1.7103873714745743E9, 0.0, 2024-03-13 20:36:11.474
97.0, -116.48666391987354, -128.6525584757328, -134.64761810470372, 879.9461009744555, 0.01600000075995922, -0.17600000835955143, 1.0400000493973494, 0.0, 0.0, 0.0, 0.0, 0.0, 1.7103873714745743E9, 0.0, 2024-03-13 20:36:11.474
98.0, -36.1648325715214, -161.09993049129844, -8.728926496580243, 795.8095716712996, 0.01600000075995922, -0.17600000835955143, 1.0400000493973494, 0.0, 0.0, 0.0, 0.0, 0.0, 1.710387371487878E9, 0.0, 2024-03-13 20:36:11.487
98.0, 56.05549048585817, -265.4206998553127, 89.56499408883974, 735.5859626848251, 0.01600000075995922, -0.17600000835955143, 1.0400000493973494, 0.0, 0.0, 0.0, 0.0, 0.0, 1.710387371487878E9, 0.0, 2024-03-13 20:36:11.487
99.0, 206.64630210166797, -362.1588220591657, 200.16879537841305, 669.5337196174078, 0.01600000075995922, -0.17600000835955143, 1.0400000493973494, 0.0, 0.0, 0.0, 0.0, 0.0, 1.7103873715035546E9, 0.0, 2024-03-13 20:36:11.503
99.0, 33.4234859040007, -490.8282100846991, 44.62448627129197, 476.5941508533433, 0.01600000075995922, -0.17600000835955143, 1.0400000493973494, 0.0, 0.0, 0.0, 0.0, 0.0, 1.7103873715035546E9, 0.0, 2024-03-13 20:36:11.503
100.0, 187.50175422849134, -601.316074475646, 228.61447444139048, 380.53482049144804, 0.01600000075995922, -0.17600000835955143, 1.0560000501573086, 0.0, 0.0, 0.0, 0.0, 0.0, 1.7103873715043468E9, 0.0, 2024-03-13 20:36:11.504
100.0, 73.36748738074675, -600.4633772857487, 77.75065012881532, 429.8042625077069, 0.01600000075995922, -0.17600000835955143, 1.0560000501573086, 0.0, 0.0, 0.0, 0.0, 0.0, 1.7103873715043468E9, 0.0, 2024-03-13 20:36:11.504
0.0, -184.36210821568966, 366.3493799595162, -11.481492863968015, 192.0588223244995, 0.01600000075995922, -0.17600000835955143, 1.0560000501573086, 0.0, 0.0, 0.0, 0.0, 0.0, 1.7103873715187843E9, 0.0, 2024-03-13 20:36:11.518
1.0, -331.8936816677451, 469.9539584820159, -122.93799134343863, 268.9305959637277, 0.01600000075995922, -0.17600000835955143, 1.0560000501573086, 0.0, 0.0, 0.0, 0.0, 0.0, 1.7103873715192993E9, 0.0, 2024-03-13 20:36:11.519
1.0, -160.88488624384627, 590.2534504067153, 39.97766057634726, 447.2209766013548, 0.01600000075995922, -0.17600000835955143, 1.0560000501573086, 0.0, 0.0, 0.0, 0.0, 0.0, 1.7103873715192993E9, 0.0, 2024-03-13 20:36:11.519
2.0, -300.3551053414121, 720.9255548585206, -144.50599438790232, 567.4550202768296, 0.01600000075995922, -0.17600000835955143, 1.0560000501573086, 0.0, 0.0, 0.0, 0.0, 0.0, 1.7103873715329363E9, 0.0, 2024-03-13 20:36:11.532
2.0, -204.14617898128927, 700.008294406347, -3.2424932615831494, 492.99735205899924, 0.01600000075995922, -0.17600000835955143, 1.0560000501573086, 0.0, 0.0, 0.0, 0.0, 0.0, 1.7103873715329363E9, 0.0, 2024-03-13 20:36:11.532
3.0, -126.84057694720104, 583.1925192903727, 86.68527112295851, 422.9378061890602, 0.01600000075995922, -0.17600000835955143, 1.0560000501573086, 0.0, 0.0, 0.0, 0.0, 0.0, 1.7103873715488496E9, 0.0, 2024-03-13 20:36:11.548
3.0, 35.9610080239363, 479.2737891715951, 185.68042295007035, 344.3681179699488, 0.01600000075995922, -0.17600000835955143, 1.0560000501573086, 0.0, 0.0, 0.0, 0.0, 0.0, 1.7103873715488496E9, 0.0, 2024-03-13 20:36:11.548
4.0, -160.09389740321785, 344.47096521873027, 25.868887993507087, 148.76574043743312, 0.01600000075995922, -0.17600000835955143, 1.0560000501573086, 0.0, 0.0, 0.0, 0.0, 0.0, 1.7103873715494924E9, 0.0, 2024-03-13 20:36:11.549
4.0, -4.250396299641579, 235.65109620802104, 211.3810154455714, 52.19404378160834, 0.01600000075995922, -0.17600000835955143, 1.0560000501573086, 0.0, 0.0, 0.0, 0.0, 0.0, 1.7103873715494924E9, 0.0, 2024-03-13 20:36:11.549
5.0, -121.69073470821604, 230.08612507395446, 56.306063782889396, 99.84784901700914, 0.01600000075995922, -0.17600000835955143, 1.0560000501573086, 0.0, 0.0, 0.0, 0.0, 0.0, 1.7103873715628495E9, 0.0, 2024-03-13 20:36:11.562
5.0, -191.69979192875326, 354.99504369404167, -24.877814505249262, 179.56007667258382, 0.01600000075995922, -0.17600000835955143, 1.0560000501573086, 0.0, 0.0, 0.0, 0.0, 0.0, 1.7103873715628495E9, 0.0, 2024-03-13 20:36:11.562
6.0, -339.48193867783993, 460.4920115941204, -131.8763522375375, 259.4686490758322, 0.01600000075995922, -0.17600000835955143, 1.0560000501573086, 0.0, 0.0, 0.0, 0.0, 0.0, 1.7103873715790443E9, 0.0, 2024-03-13 20:36:11.579
6.0, -168.82095394982025, 574.3925346946344, 22.76664098026231, 434.976544146426, 0.01600000075995922, -0.17600000835955143, 1.0560000501573086, 0.0, 0.0, 0.0, 0.0, 0.0, 1.7103873715790443E9, 0.0, 2024-03-13 20:36:11.579
7.0, -324.58217725437135, 704.832765349187, -154.27461307216436, 551.4258090667427, 0.01600000075995922, -0.17600000835955143, 1.0560000501573086, 0.0, 0.0, 0.0, 0.0, 0.0, 1.7103873715794451E9, 0.0, 2024-03-13 20:36:11.579
7.0, -212.8825852777809, 688.0593140479177, -11.560030763037503, 486.09723664075136, 0.01600000075995922, -0.17600000835955143, 1.0560000501573086, 0.0, 0.0, 0.0, 0.0, 0.0, 1.7103873715794451E9, 0.0, 2024-03-13 20:36:11.579
8.0, -128.88256232300773, 579.3553819358349, 88.77961509814486, 417.6495876517147, 0.01600000075995922, -0.17600000835955143, 1.0560000501573086, 0.0, 0.0, 0.0, 0.0, 0.0, 1.710387371592864E9, 0.0, 2024-03-13 20:36:11.592
8.0, 21.435236596036702, 466.29633632535115, 181.02050760528073, 334.6892568846233, 0.01600000075995922, -0.17600000835955143, 1.0560000501573086, 0.0, 0.0, 0.0, 0.0, 0.0, 1.710387371592864E9, 0.0, 2024-03-13 20:36:11.592
9.0, -157.79011903051287, 356.5134430760518, 33.91715269815177, 158.97192741651088, 0.01600000075995922, -0.17600000835955143, 1.0560000501573086, 0.0, 0.0, 0.0, 0.0, 0.0, 1.7103873716088867E9, 0.0, 2024-03-13 20:36:11.608
9.0, 6.726210070308298, 245.3037779936567, 217.98193886736408, 61.61859166994691, 0.01600000075995922, -0.17600000835955143, 1.0560000501573086, 0.0, 0.0, 0.0, 0.0, 0.0, 1.7103873716088867E9, 0.0, 2024-03-13 20:36:11.608
10.0, -102.64716413384303, 238.61309697292745, 65.76427077082917, 113.99963044933975, 0.01600000075995922, -0.17600000835955143, 1.0560000501573086, 0.0, 0.0, 0.0, 0.0, 0.0, 1.7103873716093678E9, 0.0, 2024-03-13 20:36:11.609
10.0, -170.98074617423117, 369.48715602234006, -13.934867234900594, 195.00212358962744, 0.01600000075995922, -0.17600000835955143, 1.0560000501573086, 0.0, 0.0, 0.0, 0.0, 0.0, 1.7103873716093678E9, 0.0, 2024-03-13 20:36:11.609
11.0, -337.1632007053122, 474.29598233057186, -118.34539419785142, 277.2182142655365, 0.01600000075995922, -0.17600000835955143, 1.0560000501573086, 0.0, 0.0, 0.0, 0.0, 0.0, 1.7103873716233172E9, 0.0, 2024-03-13 20:36:11.623
11.0, -165.41390509018674, 579.9500260287896, 36.41353591857478, 443.6979908430949, 0.01600000075995922, -0.17600000835955143, 1.0560000501573086, 0.0, 0.0, 0.0, 0.0, 0.0, 1.7103873716233172E9, 0.0, 2024-03-13 20:36:11.623
12.0, -305.35161168221384, 711.8114186665043, -141.53277392312884, 562.7726655323058, 0.01600000075995922, -0.17600000835955143, 1.0560000501573086, 0.0, 0.0, 0.0, 0.0, 0.0, 1.710387371638563E9, 0.0, 2024-03-13 20:36:11.638
12.0, -202.79233519732952, 694.4059242727235, -6.8552366187796, 492.4251473657787, 0.01600000075995922, -0.17600000835955143, 1.0560000501573086, 0.0, 0.0, 0.0, 0.0, 0.0, 1.710387371638563E9, 0.0, 2024-03-13 20:36:11.638
13.0, -131.46309329243377, 574.9796989876777, 84.85646004462615, 422.55259649362415, 0.01600000075995922, -0.17600000835955143, 1.0560000501573086, 0.0, 0.0, 0.0, 0.0, 0.0, 1.7103873716395252E9, 0.0, 2024-03-13 20:36:11.639
13.0, 19.673743716906756, 469.11996079189703, 185.71034214971587, 339.3753515291028, 0.01600000075995922, -0.17600000835955143, 1.0560000501573086, 0.0, 0.0, 0.0, 0.0, 0.0, 1.7103873716395252E9, 0.0, 2024-03-13 20:36:11.639
14.0, -136.86911867838353, 350.9858709415421, 30.506363938562572, 154.13997667375952, 0.01600000075995922, -0.17600000835955143, 1.0560000501573086, 0.0, 0.0, 0.0, 0.0, 0.0, 1.7103873716529622E9, 0.0, 2024-03-13 20:36:11.652
14.0, -0.9592843386344612, 243.99481300916523, 217.96697926754132, 54.05651395954192, 0.01600000075995922, -0.17600000835955143, 1.0560000501573086, 0.0, 0.0, 0.0, 0.0, 0.0, 1.7103873716529622E9, 0.0, 2024-03-13 20:36:11.652
15.0, -106.8096727845259, 231.99347405135632, 59.46253934549168, 101.95715259201825, 0.01600000075995922, -0.17600000835955143, 1.0560000501573086, 0.0, 0.0, 0.0, 0.0, 0.0, 1.7103873716688457E9, 0.0, 2024-03-13 20:36:11.668
15.0, -188.29274306911975, 359.30340844299644, -21.68020004313439, 180.73814515862614, 0.01600000075995922, -0.17600000835955143, 1.0560000501573086, 0.0, 0.0, 0.0, 0.0, 0.0, 1.7103873716688457E9, 0.0, 2024-03-13 20:36:11.668
16.0, -339.66519377566874, 473.3572674416937, -125.00989591889083, 270.3218387472443, 0.01600000075995922, -0.17600000835955143, 1.0560000501573086, 0.0, 0.0, 0.0, 0.0, 0.0, 1.710387371669361E9, 0.0, 2024-03-13 20:36:11.669
16.0, -153.4985838313587, 586.0572826564312, 34.50618694117293, 446.59641330875456, 0.01600000075995922, -0.17600000835955143, 1.0560000501573086, 0.0, 0.0, 0.0, 0.0, 0.0, 1.710387371669361E9, 0.0, 2024-03-13 20:36:11.669
17.0, -306.7316347658634, 710.790425978601, -147.41189665347338, 559.9527809657156, 0.01600000075995922, -0.17600000835955143, 1.0560000501573086, 0.0, 0.0, 0.0, 0.0, 0.0, 1.710387371682882E9, 0.0, 2024-03-13 20:36:11.682
17.0, -211.62597889266908, 706.2950662318617, -0.38894959539175034, 498.4239468947053, 0.01600000075995922, -0.17600000835955143, 1.0560000501573086, 0.0, 0.0, 0.0, 0.0, 0.0, 1.710387371682882E9, 0.0, 2024-03-13 20:36:11.682
18.0, -114.13613679772243, 593.4211456691846, 97.28040769742802, 428.56261572241783, 0.01600000075995922, -0.17600000835955143, 1.0560000501573086, 0.0, 0.0, 0.0, 0.0, 0.0, 1.7103873716987891E9, 0.0, 2024-03-13 20:36:11.698
18.0, 14.419184279162437, 468.97036479366943, 185.87489774776623, 338.05516684474424, 0.01600000075995922, -0.17600000835955143, 1.0560000501573086, 0.0, 0.0, 0.0, 0.0, 0.0, 1.7103873716987891E9, 0.0, 2024-03-13 20:36:11.698
19.0, -142.29945341404527, 355.9374984828755, 36.804355463944376, 159.61893010884523, 0.01600000075995922, -0.17600000835955143, 1.0560000501573086, 0.0, 0.0, 0.0, 0.0, 0.0, 1.7103873716993513E9, 0.0, 2024-03-13 20:36:11.699
19.0, -9.216983440797776, 247.03161177318543, 230.48442441923544, 68.86277788411826, 0.01600000075995922, -0.17600000835955143, 1.0560000501573086, 0.0, 0.0, 0.0, 0.0, 0.0, 1.7103873716993513E9, 0.0, 2024-03-13 20:36:11.699
20.0, -118.64645614428446, 230.83784496504813, 70.0913350195624, 113.54710255470127, 0.01600000075995922, -0.17600000835955143, 1.0400000493973494, 0.0, 0.0, 0.0, 0.0, 0.0, 1.710387371713126E9, 0.0, 2024-03-13 20:36:11.713
20.0, -177.67142719496042, 364.59536688029766, -5.991319729015231, 196.74491696897894, 0.01600000075995922, -0.17600000835955143, 1.0400000493973494, 0.0, 0.0, 0.0, 0.0, 0.0, 1.710387371713126E9, 0.0, 2024-03-13 20:36:11.713
21.0, -334.13762164115906, 477.6170134912245, -117.12618681229651, 275.97656748024747, 0.01600000075995922, -0.19200000911951065, 1.0400000493973494, 0.0, 0.0, 0.0, 0.0, 0.0, 1.7103873717450483E9, 0.0, 2024-03-13 20:36:11.745
21.0, -159.69933795789257, 585.0662091681734, 37.90201610093936, 444.7302032308653, 0.01600000075995922, -0.19200000911951065, 1.0400000493973494, 0.0, 0.0, 0.0, 0.0, 0.0, 1.7103873717450483E9, 0.0, 2024-03-13 20:36:11.745
22.0, -309.9554285276681, 711.3364513721317, -145.2876334786415, 562.1967209391296, 0.01600000075995922, -0.19200000911951065, 1.0400000493973494, 0.0, 0.0, 0.0, 0.0, 0.0, 1.7103873717459621E9, 0.0, 2024-03-13 20:36:11.745
22.0, -225.90865682344884, 704.4774748533964, -4.140069250948727, 498.07613619882613, 0.01600000075995922, -0.19200000911951065, 1.0400000493973494, 0.0, 0.0, 0.0, 0.0, 0.0, 1.7103873717459621E9, 0.0, 2024-03-13 20:36:11.745
23.0, -111.8884569243528, 597.6995912184939, 98.51083478285, 426.92079964186996, 0.01600000075995922, -0.19200000911951065, 1.0400000493973494, 0.0, 0.0, 0.0, 0.0, 0.0, 1.7103873717464547E9, 0.0, 2024-03-13 20:36:11.746
23.0, 30.79620618512854, 471.532196263317, 181.74978809664026, 339.1771368314512, 0.01600000075995922, -0.19200000911951065, 1.0400000493973494, 0.0, 0.0, 0.0, 0.0, 0.0, 1.7103873717464547E9, 0.0, 2024-03-13 20:36:11.746
24.0, -147.1052248571068, 360.5824542278424, 35.663685977458954, 163.80387815926224, 0.01600000075995922, -0.19200000911951065, 1.0400000493973494, 0.0, 0.0, 0.0, 0.0, 0.0, 1.7103873717471635E9, 0.0, 2024-03-13 20:36:11.747
24.0, 10.832620221655816, 255.68574027065188, 228.06470914790407, 69.95108877122402, 0.01600000075995922, -0.19200000911951065, 1.0400000493973494, 0.0, 0.0, 0.0, 0.0, 0.0, 1.7103873717471635E9, 0.0, 2024-03-13 20:36:11.747
25.0, -110.92730263574049, 243.13837591931224, 70.21849161805585, 108.31872241664678, 0.01600000075995922, -0.19200000911951065, 1.0400000493973494, 0.0, 0.0, 0.0, 0.0, 0.0, 1.7103873717583568E9, 0.0, 2024-03-13 20:36:11.758
25.0, -186.239537993446, 369.1468251263723, -15.008218522183597, 192.93769881408662, 0.01600000075995922, -0.19200000911951065, 1.0400000493973494, 0.0, 0.0, 0.0, 0.0, 0.0, 1.7103873717583568E9, 0.0, 2024-03-13 20:36:11.758
26.0, -323.4789067674428, 491.05447403201833, -111.53877627849579, 287.4543204442598, 0.01600000075995922, -0.19200000911951065, 1.0400000493973494, 0.0, 0.0, 0.0, 0.0, 0.0, 1.7103873717729928E9, 0.0, 2024-03-13 20:36:11.772
26.0, -163.8356673088856, 587.8860937347636, 43.40714883571491, 453.4329504277557, 0.01600000075995922, -0.19200000911951065, 1.0400000493973494, 0.0, 0.0, 0.0, 0.0, 0.0, 1.7103873717729928E9, 0.0, 2024-03-13 20:36:11.772
27.0, -322.28213878162205, 712.3537041600794, -140.81845303159207, 567.847709772177, 0.01600000075995922, -0.19200000911951065, 1.0400000493973494, 0.0, 0.0, 0.0, 0.0, 0.0, 1.7103873717889867E9, 0.0, 2024-03-13 20:36:11.788
27.0, -199.68073843419552, 709.6647160919383, 1.5408387817442417, 505.7541508078575, 0.01600000075995922, -0.19200000911951065, 1.0400000493973494, 0.0, 0.0, 0.0, 0.0, 0.0, 1.7103873717889867E9, 0.0, 2024-03-13 20:36:11.788
28.0, -106.75357428519055, 596.4242853336036, 97.16821069875732, 436.0199762340635, 0.01600000075995922, -0.19200000911951065, 1.0400000493973494, 0.0, 0.0, 0.0, 0.0, 0.0, 1.7103873717893796E9, 0.0, 2024-03-13 20:36:11.789
28.0, 18.798607127275318, 471.66309276176617, 185.57570575131103, 337.2211691546254, 0.01600000075995922, -0.19200000911951065, 1.0400000493973494, 0.0, 0.0, 0.0, 0.0, 0.0, 1.7103873717893796E9, 0.0, 2024-03-13 20:36:11.789
29.0, -161.27944568917155, 353.04281591717154, 32.65306651312858, 159.60397050902247, 0.01600000075995922, -0.19200000911951065, 1.0400000493973494, 0.0, 0.0, 0.0, 0.0, 0.0, 1.7103873718031652E9, 0.0, 2024-03-13 20:36:11.803
29.0, 5.174151588696986, 249.9711731383577, 219.44797964999452, 60.71353588066995, 0.01600000075995922, -0.19200000911951065, 1.0400000493973494, 0.0, 0.0, 0.0, 0.0, 0.0, 1.7103873718031652E9, 0.0, 2024-03-13 20:36:11.803
30.0, -115.27306638425216, 228.60512469150126, 63.243578200694174, 96.1939667603001, 0.01600000075995922, -0.19200000911951065, 1.0400000493973494, 0.0, 0.0, 0.0, 0.0, 0.0, 1.7103873718185499E9, 0.0, 2024-03-13 20:36:11.818
30.0, -185.45041910279542, 362.4785835053772, -21.889634440653026, 180.8615618571639, 0.01600000075995922, -0.19200000911951065, 1.0400000493973494, 0.0, 0.0, 0.0, 0.0, 0.0, 1.7103873718185499E9, 0.0, 2024-03-13 20:36:11.818
31.0, -318.40012262761593, 492.38961831619963, -116.21365122310817, 283.50872599100694, 0.01600000075995922, -0.17600000835955143, 1.0400000493973494, 0.0, 0.0, 0.0, 0.0, 0.0, 1.7103873718193464E9, 0.0, 2024-03-13 20:36:11.819
31.0, -146.00382432015613, 589.8495412115008, 35.055952234659344, 438.7912421012297, 0.01600000075995922, -0.17600000835955143, 1.0400000493973494, 0.0, 0.0, 0.0, 0.0, 0.0, 1.7103873718193464E9, 0.0, 2024-03-13 20:36:11.819
32.0, -309.12891063746065, 714.7210608320311, -148.10003824532032, 558.6662553809583, 0.01600000075995922, -0.17600000835955143, 1.0400000493973494, 0.0, 0.0, 0.0, 0.0, 0.0, 1.7103873718329E9, 0.0, 2024-03-13 20:36:11.832
32.0, -175.70423981826752, 720.3159511657432, 3.8894959539175034, 504.54990302212536, 0.01600000075995922, -0.17600000835955143, 1.0400000493973494, 0.0, 0.0, 0.0, 0.0, 0.0, 1.7103873718329E9, 0.0, 2024-03-13 20:36:11.832
33.0, -98.78010757965967, 601.9742968678474, 102.22829533880576, 430.66069959755987, 0.01600000075995922, -0.17600000835955143, 1.0400000493973494, 0.0, 0.0, 0.0, 0.0, 0.0, 1.7103873718485613E9, 0.0, 2024-03-13 20:36:11.848
33.0, 18.589172729756683, 472.437252052594, 190.97238138737157, 335.50081517500803, 0.01600000075995922, -0.17600000835955143, 1.0400000493973494, 0.0, 0.0, 0.0, 0.0, 0.0, 1.7103873718485613E9, 0.0, 2024-03-13 20:36:11.848
34.0, -133.12921872269362, 367.08240035083145, 44.69928427040577, 169.10331639647484, 0.01600000075995922, -0.17600000835955143, 1.0400000493973494, 0.0, 0.0, 0.0, 0.0, 0.0, 1.7103873718493156E9, 0.0, 2024-03-13 20:36:11.849
34.0, 15.87026546197012, 255.92135396786034, 227.9001535498537, 69.65563667472452, 0.01600000075995922, -0.17600000835955143, 1.0400000493973494, 0.0, 0.0, 0.0, 0.0, 0.0, 1.7103873718493156E9, 0.0, 2024-03-13 20:36:11.849
35.0, -119.64500943245366, 227.50933400448412, 62.67511340742931, 94.91866087540984, 0.01600000075995922, -0.17600000835955143, 1.0400000493973494, 0.0, 0.0, 0.0, 0.0, 0.0, 1.71038737186317E9, 0.0, 2024-03-13 20:36:11.863
35.0, -189.63536715321243, 358.7686027493328, -13.097129644826055, 183.6066484246403, 0.01600000075995922, -0.17600000835955143, 1.0400000493973494, 0.0, 0.0, 0.0, 0.0, 0.0, 1.71038737186317E9, 0.0, 2024-03-13 20:36:11.863
36.0, -318.9723273208365, 493.00670180888847, -105.31558275222778, 284.8550899750553, 0.01600000075995922, -0.17600000835955143, 1.0400000493973494, 0.0, 0.0, 0.0, 0.0, 0.0, 1.710387371878569E9, 0.0, 2024-03-13 20:36:11.878
36.0, -161.36733333813027, 583.4991910867393, 36.84362441347912, 436.41266572941095, 0.01600000075995922, -0.17600000835955143, 1.0400000493973494, 0.0, 0.0, 0.0, 0.0, 0.0, 1.710387371878569E9, 0.0, 2024-03-13 20:36:11.878
37.0, -294.6854170085862, 708.1463167099282, -150.35145801864564, 552.7347740512341, 0.01600000075995922, -0.17600000835955143, 1.0400000493973494, 0.0, 0.0, 0.0, 0.0, 0.0, 1.7103873718793159E9, 0.0, 2024-03-13 20:36:11.879
37.0, -215.05920705199242, 714.709841132164, 0.684401691891253, 507.4333658879623, 0.01600000075995922, -0.17600000835955143, 1.0400000493973494, 0.0, 0.0, 0.0, 0.0, 0.0, 1.7103873718793159E9, 0.0, 2024-03-13 20:36:11.879
38.0, -116.43617527047172, 601.1141198780388, 103.57465932285413, 433.97051105834544, 0.01600000075995922, -0.17600000835955143, 1.0400000493973494, 0.0, 0.0, 0.0, 0.0, 0.0, 1.710387371893201E9, 0.0, 2024-03-13 20:36:11.893
38.0, 30.089365093503147, 471.9099261588417, 183.93014977080747, 330.8708190298639, 0.01600000075995922, -0.17600000835955143, 1.0400000493973494, 0.0, 0.0, 0.0, 0.0, 0.0, 1.710387371893201E9, 0.0, 2024-03-13 20:36:11.893
39.0, -137.4039243720472, 359.93171163555235, 43.33422078657895, 160.924155193381, 0.01600000075995922, -0.17600000835955143, 1.0400000493973494, 0.0, 0.0, 0.0, 0.0, 0.0, 1.710387371908849E9, 0.0, 2024-03-13 20:36:11.908
39.0, 11.139292018022388, 252.98179260268807, 235.19295846344903, 65.56044622324407, 0.01600000075995922, -0.17600000835955143, 1.0400000493973494, 0.0, 0.0, 0.0, 0.0, 0.0, 1.710387371908849E9, 0.0, 2024-03-13 20:36:11.908
40.0, -124.84347037086263, 222.2510346667841, 60.89118112856522, 93.59099639113992, 0.01600000075995922, -0.17600000835955143, 1.0400000493973494, 0.0, 0.0, 0.0, 0.0, 0.0, 1.7103873719094849E9, 0.0, 2024-03-13 20:36:11.909
40.0, -201.00840291846544, 358.85088054835796, -16.664994202554226, 181.89751414489, 0.01600000075995922, -0.17600000835955143, 1.0400000493973494, 0.0, 0.0, 0.0, 0.0, 0.0, 1.7103873719094849E9, 0.0, 2024-03-13 20:36:11.909
41.0, -328.3819156093523, 484.9135583047755, -104.57508256100118, 287.113989548292, 0.01600000075995922, -0.19200000911951065, 1.0400000493973494, 0.0, 0.0, 0.0, 0.0, 0.0, 1.710387371923283E9, 0.0, 2024-03-13 20:36:11.923
41.0, -161.7637627334334, 580.7615843191743, 50.47929965192452, 448.31302738841623, 0.01600000075995922, -0.19200000911951065, 1.0400000493973494, 0.0, 0.0, 0.0, 0.0, 0.0, 1.710387371923283E9, 0.0, 2024-03-13 20:36:11.923
42.0, -317.05375864356756, 695.8644852554426, -137.57221987005323, 555.2966055208817, 0.01600000075995922, -0.19200000911951065, 1.0400000493973494, 0.0, 0.0, 0.0, 0.0, 0.0, 1.71038737193881E9, 0.0, 2024-03-13 20:36:11.938
42.0, -193.25185041036457, 715.409202423878, 22.675013431347907, 514.3783601056784, 0.01600000075995922, -0.19200000911951065, 1.0400000493973494, 0.0, 0.0, 0.0, 0.0, 0.0, 1.71038737193881E9, 0.0, 2024-03-13 20:36:11.938
43.0, -116.42121567064896, 590.0253165094182, 114.08751809829846, 436.4762440286577, 0.01600000075995922, -0.19200000911951065, 1.0400000493973494, 0.0, 0.0, 0.0, 0.0, 0.0, 1.7103873719394648E9, 0.0, 2024-03-13 20:36:11.939
43.0, 3.098507113289088, 455.0766364582814, 187.46809512889013, 330.6127659329213, 0.01600000075995922, -0.19200000911951065, 1.0400000493973494, 0.0, 0.0, 0.0, 0.0, 0.0, 1.7103873719394648E9, 0.0, 2024-03-13 20:36:11.939
44.0, -156.8925430411473, 356.715397673659, 46.15784525312483, 174.40649453364313, 0.01600000075995922, -0.19200000911951065, 1.0400000493973494, 0.0, 0.0, 0.0, 0.0, 0.0, 1.7103873719528685E9, 0.0, 2024-03-13 20:36:11.952
44.0, 8.517622149083763, 258.59164253622293, 241.18053829250857, 78.60147736873478, 0.01600000075995922, -0.19200000911951065, 1.0400000493973494, 0.0, 0.0, 0.0, 0.0, 0.0, 1.7103873719528685E9, 0.0, 2024-03-13 20:36:11.952
45.0, -97.34024609671906, 227.15778340864927, 74.46701796771958, 103.2735973764211, 0.01600000075995922, -0.19200000911951065, 1.0400000493973494, 0.0, 0.0, 0.0, 0.0, 0.0, 1.710387371968542E9, 0.0, 2024-03-13 20:36:11.968
45.0, -202.99802969489247, 356.6106804748997, -13.882508635520935, 186.18343949411064, 0.01600000075995922, -0.19200000911951065, 1.0400000493973494, 0.0, 0.0, 0.0, 0.0, 0.0, 1.710387371968542E9, 0.0, 2024-03-13 20:36:11.968
46.0, -318.23930692952126, 492.23628241801634, -105.38664085138589, 288.4117348329164, 0.01600000075995922, -0.19200000911951065, 1.0400000493973494, 0.0, 0.0, 0.0, 0.0, 0.0, 1.7103873719692855E9, 0.0, 2024-03-13 20:36:11.969
46.0, -165.93001128407195, 582.0032311044633, 36.989480511751026, 437.3626003181562, 0.01600000075995922, -0.19200000911951065, 1.0400000493973494, 0.0, 0.0, 0.0, 0.0, 0.0, 1.7103873719692855E9, 0.0, 2024-03-13 20:36:11.969
47.0, -309.82827192917466, 703.3929038662463, -150.46365501731634, 553.0825847471133, 0.01600000075995922, -0.19200000911951065, 1.0400000493973494, 0.0, 0.0, 0.0, 0.0, 0.0, 1.7103873719828963E9, 0.0, 2024-03-13 20:36:11.982
47.0, -195.14049988798797, 714.2124344380572, 5.389195836149156, 508.2411842783913, 0.01600000075995922, -0.19200000911951065, 1.0400000493973494, 0.0, 0.0, 0.0, 0.0, 0.0, 1.7103873719828963E9, 0.0, 2024-03-13 20:36:11.982
48.0, -115.82283167773858, 592.7517035771161, 101.75332804443315, 428.6897723209113, 0.01600000075995922, -0.19200000911951065, 1.0400000493973494, 0.0, 0.0, 0.0, 0.0, 0.0, 1.710387371998548E9, 0.0, 2024-03-13 20:36:11.998
48.0, 11.573120412882417, 458.6706803156994, 179.38617132464424, 319.59876056341454, 0.01600000075995922, -0.19200000911951065, 1.0400000493973494, 0.0, 0.0, 0.0, 0.0, 0.0, 1.710387371998548E9, 0.0, 2024-03-13 20:36:11.998
49.0, -145.7700805729255, 355.01000329386443, 29.504070750437677, 159.52917250990868, 0.01600000075995922, -0.19200000911951065, 1.0400000493973494, 0.0, 0.0, 0.0, 0.0, 0.0, 1.7103873719993315E9, 0.0, 2024-03-13 20:36:11.999
49.0, 7.85565985692665, 255.03125777840614, 231.2772832098417, 62.11225846409798, 0.01600000075995922, -0.19200000911951065, 1.0400000493973494, 0.0, 0.0, 0.0, 0.0, 0.0, 1.7103873719993315E9, 0.0, 2024-03-13 20:36:11.999
50.0, -115.43014218239114, 222.00420126970857, 62.746171506587416, 88.87498254701495, 0.01600000075995922, -0.19200000911951065, 1.0400000493973494, 0.0, 0.0, 0.0, 0.0, 0.0, 1.7103873720131097E9, 0.0, 2024-03-13 20:36:12.013
50.0, -194.44861839618534, 352.362154125236, -20.91726045217365, 177.57792969606817, 0.01600000075995922, -0.19200000911951065, 1.0400000493973494, 0.0, 0.0, 0.0, 0.0, 0.0, 1.7103873720131097E9, 0.0, 2024-03-13 20:36:12.013
51.0, -324.65323535352945, 487.5053089740686, -111.42657927982509, 282.87294299853966, 0.01600000075995922, -0.19200000911951065, 1.0400000493973494, 0.0, 0.0, 0.0, 0.0, 0.0, 1.7103873720286303E9, 0.0, 2024-03-13 20:36:12.028
51.0, -166.77522867405787, 577.3021768601611, 37.50184680568054, 434.7521501490846, 0.01600000075995922, -0.19200000911951065, 1.0400000493973494, 0.0, 0.0, 0.0, 0.0, 0.0, 1.7103873720286303E9, 0.0, 2024-03-13 20:36:12.028
52.0, -306.5184604683891, 700.7113955980167, -156.19692164938897, 549.4511418901384, 0.01600000075995922, -0.19200000911951065, 1.0400000493973494, 0.0, 0.0, 0.0, 0.0, 0.0, 1.710387372029324E9, 0.0, 2024-03-13 20:36:12.029
52.0, -205.4663636656478, 724.370002717711, 14.245278931222856, 516.9476713752374, 0.01600000075995922, -0.19200000911951065, 1.0400000493973494, 0.0, 0.0, 0.0, 0.0, 0.0, 1.710387372029324E9, 0.0, 2024-03-13 20:36:12.029
53.0, -111.2564138318412, 610.2806146694347, 118.41458234703168, 446.0653475150466, 0.01600000075995922, -0.19200000911951065, 1.0400000493973494, 0.0, 0.0, 0.0, 0.0, 0.0, 1.7103873720431492E9, 0.0, 2024-03-13 20:36:12.043
53.0, 26.521500535774976, 464.6844394444488, 194.62252374412492, 339.53242732724175, 0.01600000075995922, -0.19200000911951065, 1.0400000493973494, 0.0, 0.0, 0.0, 0.0, 0.0, 1.7103873720431492E9, 0.0, 2024-03-13 20:36:12.043
54.0, -156.76538644265383, 359.52780244033784, 43.94008457940072, 172.09897626098245, 0.01600000075995922, -0.19200000911951065, 1.0400000493973494, 0.0, 0.0, 0.0, 0.0, 0.0, 1.710387372058632E9, 0.0, 2024-03-13 20:36:12.058
54.0, 11.116852618288249, 261.3816079031676, 240.5746744996868, 79.56637155730277, 0.01600000075995922, -0.19200000911951065, 1.0400000493973494, 0.0, 0.0, 0.0, 0.0, 0.0, 1.710387372058632E9, 0.0, 2024-03-13 20:36:12.058
55.0, -121.14470931468531, 221.6937895733863, 72.5708886901848, 95.49834536854178, 0.01600000075995922, -0.19200000911951065, 1.0400000493973494, 0.0, 0.0, 0.0, 0.0, 0.0, 1.710387372059419E9, 0.0, 2024-03-13 20:36:12.059
55.0, -194.78146949224174, 358.60404715128243, -12.210773355327547, 183.71136562339962, 0.01600000075995922, -0.19200000911951065, 1.0400000493973494, 0.0, 0.0, 0.0, 0.0, 0.0, 1.710387372059419E9, 0.0, 2024-03-13 20:36:12.059
56.0, -324.0772907603532, 495.7667479761876, -105.25574435293674, 294.2048398642801, 0.01600000075995922, -0.19200000911951065, 1.0400000493973494, 0.0, 0.0, 0.0, 0.0, 0.0, 1.7103873720728655E9, 0.0, 2024-03-13 20:36:12.072
56.0, -143.03808365529403, 584.3257089769468, 46.39158900035545, 443.4324579462409, 0.01600000075995922, -0.19200000911951065, 1.0400000493973494, 0.0, 0.0, 0.0, 0.0, 0.0, 1.7103873720728655E9, 0.0, 2024-03-13 20:36:12.072
57.0, -329.3692491976544, 697.113611840643, -149.06119253393263, 550.6965285753831, 0.01600000075995922, -0.19200000911951065, 1.0400000493973494, 0.0, 0.0, 0.0, 0.0, 0.0, 1.7103873720890017E9, 0.0, 2024-03-13 20:36:12.089
57.0, -195.6117272824049, 714.1413763388991, 11.313197365961969, 515.7022846899927, 0.01600000075995922, -0.19200000911951065, 1.0400000493973494, 0.0, 0.0, 0.0, 0.0, 0.0, 1.7103873720890017E9, 0.0, 2024-03-13 20:36:12.089
58.0, -124.23760657804087, 588.5517959268764, 106.83585208421573, 436.40518592949957, 0.01600000075995922, -0.19200000911951065, 1.0400000493973494, 0.0, 0.0, 0.0, 0.0, 0.0, 1.7103873720894997E9, 0.0, 2024-03-13 20:36:12.089
58.0, 3.988603302743286, 448.0082255420275, 186.26384734315798, 324.7598225022666, 0.01600000075995922, -0.19200000911951065, 1.0400000493973494, 0.0, 0.0, 0.0, 0.0, 0.0, 1.7103873720894997E9, 0.0, 2024-03-13 20:36:12.089
59.0, -160.57634449750185, 353.9890106059611, 37.88892645109445, 166.8930355226621, 0.01600000075995922, -0.19200000911951065, 1.0400000493973494, 0.0, 0.0, 0.0, 0.0, 0.0, 1.710387372103201E9, 0.0, 2024-03-13 20:36:12.103
59.0, 10.787741422187537, 253.5240780962631, 235.7576833567582, 73.94530192390084, 0.01600000075995922, -0.19200000911951065, 1.0400000493973494, 0.0, 0.0, 0.0, 0.0, 0.0, 1.710387372103201E9, 0.0, 2024-03-13 20:36:12.103
60.0, -134.9374603512697, 217.30688692536205, 64.49644468585029, 88.70294714905322, 0.01600000075995922, -0.19200000911951065, 1.0400000493973494, 0.0, 0.0, 0.0, 0.0, 0.0, 1.710387372118696E9, 0.0, 2024-03-13 20:36:12.118
60.0, -192.55996891856194, 353.603800910525, -21.74751824233681, 180.43521326221526, 0.01600000075995922, -0.19200000911951065, 1.0400000493973494, 0.0, 0.0, 0.0, 0.0, 0.0, 1.710387372118696E9, 0.0, 2024-03-13 20:36:12.118
61.0, -331.73286596965045, 484.71534360712394, -113.01977666094899, 283.1908344947733, 0.01600000075995922, -0.19200000911951065, 1.0400000493973494, 0.0, 0.0, 0.0, 0.0, 0.0, 1.7103873721194787E9, 0.0, 2024-03-13 20:36:12.119
61.0, -176.397991260048, 566.29191139061, 32.43428236572072, 430.37272730097175, 0.01600000075995922, -0.19200000911951065, 1.0400000493973494, 0.0, 0.0, 0.0, 0.0, 0.0, 1.7103873721194787E9, 0.0, 2024-03-13 20:36:12.119
62.0, -323.2283334704116, 689.4318573316559, -159.7049478078261, 540.8643315918744, 0.01600000075995922, -0.19200000911951065, 1.0400000493973494, 0.0, 0.0, 0.0, 0.0, 0.0, 1.7103873721328921E9, 0.0, 2024-03-13 20:36:12.132
62.0, -203.97040368337184, 708.2285945089534, 0.1533358981832862, 503.65980683267117, 0.01600000075995922, -0.19200000911951065, 1.0400000493973494, 0.0, 0.0, 0.0, 0.0, 0.0, 1.7103873721328921E9, 0.0, 2024-03-13 20:36:12.132
63.0, -116.81764506595209, 603.4665169501677, 113.60133110405877, 437.1045472212136, 0.01600000075995922, -0.19200000911951065, 1.0400000493973494, 0.0, 0.0, 0.0, 0.0, 0.0, 1.7103873721486294E9, 0.0, 2024-03-13 20:36:12.148
63.0, 21.652150793466717, 460.44339289469644, 188.38811051798984, 329.1803842498921, 0.01600000075995922, -0.19200000911951065, 1.0400000493973494, 0.0, 0.0, 0.0, 0.0, 0.0, 1.7103873721486294E9, 0.0, 2024-03-13 20:36:12.148
64.0, -157.90231602918357, 359.30340844299644, 38.62942664232105, 165.157721943222, 0.01600000075995922, -0.19200000911951065, 1.0400000493973494, 0.0, 0.0, 0.0, 0.0, 0.0, 1.7103873721493185E9, 0.0, 2024-03-13 20:36:12.149
64.0, 5.181631388608366, 254.22343938797712, 230.9780912133865, 65.11913802847266, 0.01600000075995922, -0.19200000911951065, 1.0400000493973494, 0.0, 0.0, 0.0, 0.0, 0.0, 1.7103873721493185E9, 0.0, 2024-03-13 20:36:12.149
65.0, -139.85168889304623, 200.0921274293214, 50.55409765103832, 69.75287407357246, 0.01600000075995922, -0.19200000911951065, 1.0400000493973494, 0.0, 0.0, 0.0, 0.0, 0.0, 1.710387372162885E9, 0.0, 2024-03-13 20:36:12.162
65.0, -206.94362414814532, 336.58351621218026, -39.3512273337692, 158.83729101810604, 0.01600000075995922, -0.19200000911951065, 1.0400000493973494, 0.0, 0.0, 0.0, 0.0, 0.0, 1.710387372162885E9, 0.0, 2024-03-13 20:36:12.162
66.0, -332.413527761586, 487.12009927863255, -117.02520951349288, 280.9955132207833, 0.01600000075995922, -0.19200000911951065, 1.0400000493973494, 0.0, 0.0, 0.0, 0.0, 0.0, 1.7103873721785772E9, 0.0, 2024-03-13 20:36:12.178
66.0, -153.9398920261301, 568.6667478624731, 27.12736432859674, 416.680953563191, 0.01600000075995922, -0.19200000911951065, 1.0400000493973494, 0.0, 0.0, 0.0, 0.0, 0.0, 1.7103873721785772E9, 0.0, 2024-03-13 20:36:12.178
67.0, -311.3990299105644, 683.8070477982983, -172.4168677572161, 531.6866171006113, 0.01600000075995922, -0.19200000911951065, 1.0400000493973494, 0.0, 0.0, 0.0, 0.0, 0.0, 1.710387372179358E9, 0.0, 2024-03-13 20:36:12.179
67.0, -188.55079616606236, 719.4445544760674, 1.727833779528737, 507.40718658827245, 0.01600000075995922, -0.19200000911951065, 1.0400000493973494, 0.0, 0.0, 0.0, 0.0, 0.0, 1.710387372179358E9, 0.0, 2024-03-13 20:36:12.179
68.0, -97.56090019410476, 603.0252087553963, 104.89484400721267, 432.4633313762024, 0.01600000075995922, -0.19200000911951065, 1.0400000493973494, 0.0, 0.0, 0.0, 0.0, 0.0, 1.71038737219294E9, 0.0, 2024-03-13 20:36:12.192
68.0, 6.284901875536889, 444.50767918350175, 158.88777966750786, 300.81698298593983, 0.01600000075995922, -0.19200000911951065, 1.0400000493973494, 0.0, 0.0, 0.0, 0.0, 0.0, 1.71038737219294E9, 0.0, 2024-03-13 20:36:12.192
69.0, -155.4826007578522, 358.97055734694004, 33.632920301519334, 162.90630216989666, 0.01600000075995922, -0.19200000911951065, 1.0400000493973494, 0.0, 0.0, 0.0, 0.0, 0.0, 1.7103873722091737E9, 0.0, 2024-03-13 20:36:12.209
69.0, 25.466848748270422, 263.6891261758283, 235.77638285653666, 70.54573286417872, 0.01600000075995922, -0.19200000911951065, 1.0400000493973494, 0.0, 0.0, 0.0, 0.0, 0.0, 1.7103873722091737E9, 0.0, 2024-03-13 20:36:12.209
70.0, -128.10840303217992, 209.74854911491275, 52.53998452750966, 74.45018841791898, 0.01600000075995922, -0.19200000911951065, 1.0400000493973494, 0.0, 0.0, 0.0, 0.0, 0.0, 1.7103873722095475E9, 0.0, 2024-03-13 20:36:12.209
70.0, -187.6793994763866, 357.62793326284736, -24.96009230427444, 176.4522198094055, 0.01600000075995922, -0.19200000911951065, 1.0400000493973494, 0.0, 0.0, 0.0, 0.0, 0.0, 1.7103873722095475E9, 0.0, 2024-03-13 20:36:12.209
71.0, -314.6265635723248, 504.783646769356, -103.79344347026199, 296.6320349355228, 0.01600000075995922, -0.19200000911951065, 1.0400000493973494, 0.0, 0.0, 0.0, 0.0, 0.0, 1.7103873722228303E9, 0.0, 2024-03-13 20:36:12.222
71.0, -153.9099728264846, 578.3381291478872, 38.04039239929989, 432.6166672743857, 0.01600000075995922, -0.19200000911951065, 1.0400000493973494, 0.0, 0.0, 0.0, 0.0, 0.0, 1.7103873722228303E9, 0.0, 2024-03-13 20:36:12.222
72.0, -325.7191068409011, 695.8532655555755, -164.71641374845058, 533.9043777743354, 0.01600000075995922, -0.19200000911951065, 1.0400000493973494, 0.0, 0.0, 0.0, 0.0, 0.0, 1.7103873722388918E9, 0.0, 2024-03-13 20:36:12.238
72.0, -182.00223134364933, 722.4140350408852, -1.20798768568784, 510.11487415619195, 0.01600000075995922, -0.19200000911951065, 1.0400000493973494, 0.0, 0.0, 0.0, 0.0, 0.0, 1.7103873722388918E9, 0.0, 2024-03-13 20:36:12.238
73.0, -109.70809525018558, 597.7631695177406, 101.09884555218741, 423.70448567997664, 0.01600000075995922, -0.19200000911951065, 1.0400000493973494, 0.0, 0.0, 0.0, 0.0, 0.0, 1.7103873722396207E9, 0.0, 2024-03-13 20:36:12.239
73.0, 2.5861408193595707, 445.3865556730889, 162.44068462541327, 304.66534004034474, 0.01600000075995922, -0.19200000911951065, 1.0400000493973494, 0.0, 0.0, 0.0, 0.0, 0.0, 1.7103873722396207E9, 0.0, 2024-03-13 20:36:12.239
74.0, -151.88107710052282, 356.58824107516557, 26.94597918074578, 158.93826831690967, 0.01600000075995922, -0.19200000911951065, 1.0400000493973494, 0.0, 0.0, 0.0, 0.0, 0.0, 1.7103873722528641E9, 0.0, 2024-03-13 20:36:12.252
74.0, 11.240269316826016, 257.73146554641426, 226.7557441634126, 63.11455165222287, 0.01600000075995922, -0.19200000911951065, 1.0400000493973494, 0.0, 0.0, 0.0, 0.0, 0.0, 1.7103873722528641E9, 0.0, 2024-03-13 20:36:12.252
75.0, -132.69352037785575, 198.97389734257013, 48.12316267983988, 72.58397834002972, 0.01600000075995922, -0.19200000911951065, 1.0400000493973494, 0.0, 0.0, 0.0, 0.0, 0.0, 1.7103873722685983E9, 0.0, 2024-03-13 20:36:12.268
75.0, -177.85468229278922, 348.9064865661785, -32.46607151534408, 175.72293931804597, 0.01600000075995922, -0.19200000911951065, 1.0400000493973494, 0.0, 0.0, 0.0, 0.0, 0.0, 1.7103873722685983E9, 0.0, 2024-03-13 20:36:12.268
76.0, -329.69462049379945, 501.42147670919076, -107.24163122940809, 299.17890680534765, 0.01600000075995922, -0.19200000911951065, 1.0400000493973494, 0.0, 0.0, 0.0, 0.0, 0.0, 1.7103873722692993E9, 0.0, 2024-03-13 20:36:12.269
76.0, -163.3906192141585, 569.3960283538327, 33.354297754820436, 429.62848720978945, 0.01600000075995922, -0.19200000911951065, 1.0400000493973494, 0.0, 0.0, 0.0, 0.0, 0.0, 1.7103873722692993E9, 0.0, 2024-03-13 20:36:12.269
77.0, -322.91792177408934, 680.1344660418108, -174.14096163678914, 528.3730657398701, 0.01600000075995922, -0.19200000911951065, 1.0400000493973494, 0.0, 0.0, 0.0, 0.0, 0.0, 1.7103873722828698E9, 0.0, 2024-03-13 20:36:12.282
77.0, -195.01334328949451, 716.5012532109395, -0.9162754891440272, 511.70433163736016, 0.01600000075995922, -0.19200000911951065, 1.0400000493973494, 0.0, 0.0, 0.0, 0.0, 0.0, 1.7103873722828698E9, 0.0, 2024-03-13 20:36:12.282
78.0, -102.93139653047547, 601.4394911741838, 104.87240460747853, 435.21963764354587, 0.01600000075995922, -0.19200000911951065, 1.0400000493973494, 0.0, 0.0, 0.0, 0.0, 0.0, 1.710387372298859E9, 0.0, 2024-03-13 20:36:12.298
78.0, 17.194190046284348, 450.21850641584024, 170.4739897302352, 316.1767521039583, 0.01600000075995922, -0.19200000911951065, 1.0400000493973494, 0.0, 0.0, 0.0, 0.0, 0.0, 1.710387372298859E9, 0.0, 2024-03-13 20:36:12.298
79.0, -149.86527102440596, 372.370618888177, 38.11706034839153, 175.7154595181346, 0.01600000075995922, -0.19200000911951065, 1.0400000493973494, 0.0, 0.0, 0.0, 0.0, 0.0, 1.7103873722994711E9, 0.0, 2024-03-13 20:36:12.299
79.0, 34.629603639710695, 277.85212730802596, 239.10489381710067, 84.12530960328877, 0.01600000075995922, -0.19200000911951065, 1.0400000493973494, 0.0, 0.0, 0.0, 0.0, 0.0, 1.7103873722994711E9, 0.0, 2024-03-13 20:36:12.299
80.0, -119.99282012833282, 218.15958411525935, 64.12619459023699, 86.4851864753291, 0.01600000075995922, -0.19200000911951065, 1.0400000493973494, 0.0, 0.0, 0.0, 0.0, 0.0, 1.7103873723133564E9, 0.0, 2024-03-13 20:36:12.313
80.0, -183.5318504255265, 362.70297750271857, -20.09074256196618, 186.35921479202807, 0.01600000075995922, -0.19200000911951065, 1.0400000493973494, 0.0, 0.0, 0.0, 0.0, 0.0, 1.7103873723133564E9, 0.0, 2024-03-13 20:36:12.313
81.0, -308.9980141390115, 512.0240930835716, -99.40280092228204, 305.4993377304636, 0.01600000075995922, -0.17600000835955143, 1.0400000493973494, 0.0, 0.0, 0.0, 0.0, 0.0, 1.7103873723289847E9, 0.0, 2024-03-13 20:36:12.328
81.0, -147.6082414011471, 585.8777674585581, 45.54637161036953, 438.00212321057916, 0.01600000075995922, -0.17600000835955143, 1.0400000493973494, 0.0, 0.0, 0.0, 0.0, 0.0, 1.7103873723289847E9, 0.0, 2024-03-13 20:36:12.328
82.0, -309.1438702372834, 694.170310575515, -163.7814387595281, 539.3721115095541, 0.01600000075995922, -0.17600000835955143, 1.0400000493973494, 0.0, 0.0, 0.0, 0.0, 0.0, 1.710387372329317E9, 0.0, 2024-03-13 20:36:12.329
82.0, -186.93141948524863, 738.8097564466298, 14.406094629317522, 524.6481253840029, 0.01600000075995922, -0.17600000835955143, 1.0400000493973494, 0.0, 0.0, 0.0, 0.0, 0.0, 1.710387372329317E9, 0.0, 2024-03-13 20:36:12.329
83.0, -84.10100025357679, 616.4028308968991, 106.6226777867414, 442.1683717612177, 0.01600000075995922, -0.17600000835955143, 1.0400000493973494, 0.0, 0.0, 0.0, 0.0, 0.0, 1.7103873723431318E9, 0.0, 2024-03-13 20:36:12.343
83.0, 15.544894165825099, 450.48029941273853, 168.2487492565997, 311.898306554649, 0.01600000075995922, -0.17600000835955143, 1.0400000493973494, 0.0, 0.0, 0.0, 0.0, 0.0, 1.7103873723431318E9, 0.0, 2024-03-13 20:36:12.343
84.0, -131.1021929467097, 376.0581602444872, 31.34036162868142, 170.5282182795927, 0.01600000075995922, -0.17600000835955143, 1.0400000493973494, 0.0, 0.0, 0.0, 0.0, 0.0, 1.7103873723587563E9, 0.0, 2024-03-13 20:36:12.358
84.0, 35.19432853301987, 291.94033044110984, 245.57118084048852, 91.57893021497875, 0.01600000075995922, -0.17600000835955143, 1.0400000493973494, 0.0, 0.0, 0.0, 0.0, 0.0, 1.7103873723587563E9, 0.0, 2024-03-13 20:36:12.358
85.0, -112.52050001686439, 222.24355486687273, 58.306910259183496, 85.64370898529887, 0.01600000075995922, -0.17600000835955143, 1.0400000493973494, 0.0, 0.0, 0.0, 0.0, 0.0, 1.710387372359364E9, 0.0, 2024-03-13 20:36:12.359
85.0, -177.28621749952435, 366.05018796306103, -21.76621774211526, 184.74731791112572, 0.01600000075995922, -0.17600000835955143, 1.0400000493973494, 0.0, 0.0, 0.0, 0.0, 0.0, 1.710387372359364E9, 0.0, 2024-03-13 20:36:12.359
86.0, -308.7437009420246, 519.2794989976101, -89.31255084183067, 319.2472099675797, 0.01600000075995922, -0.17600000835955143, 1.0400000493973494, 0.0, 0.0, 0.0, 0.0, 0.0, 1.7103873723733048E9, 0.0, 2024-03-13 20:36:12.373
86.0, -156.10155420051888, 585.9450856577605, 48.40739507647231, 443.6942509431392, 0.01600000075995922, -0.17600000835955143, 1.0400000493973494, 0.0, 0.0, 0.0, 0.0, 0.0, 1.7103873723733048E9, 0.0, 2024-03-13 20:36:12.373
87.0, -328.17248121183366, 683.32834060397, -165.99545953329653, 536.574666342698, 0.01600000075995922, -0.17600000835955143, 1.0400000493973494, 0.0, 0.0, 0.0, 0.0, 0.0, 1.710387372388847E9, 0.0, 2024-03-13 20:36:12.388
87.0, -187.62704087700695, 730.3014840474352, 11.156121567822993, 525.575620573014, 0.01600000075995922, -0.17600000835955143, 1.0400000493973494, 0.0, 0.0, 0.0, 0.0, 0.0, 1.710387372388847E9, 0.0, 2024-03-13 20:36:12.388
88.0, -114.58118489244953, 602.7596758585423, 112.24374742014334, 441.44657106976956, 0.01600000075995922, -0.17600000835955143, 1.0400000493973494, 0.0, 0.0, 0.0, 0.0, 0.0, 1.7103873723894997E9, 0.0, 2024-03-13 20:36:12.389
88.0, -3.105986913200468, 433.12716361833736, 160.74650994548574, 300.2073792931624, 0.01600000075995922, -0.17600000835955143, 1.0400000493973494, 0.0, 0.0, 0.0, 0.0, 0.0, 1.7103873723894997E9, 0.0, 2024-03-13 20:36:12.389
89.0, -145.05201978143305, 364.6626850795001, 32.50721041485667, 168.61712940223515, 0.01600000075995922, -0.17600000835955143, 1.0400000493973494, 0.0, 0.0, 0.0, 0.0, 0.0, 1.710387372402917E9, 0.0, 2024-03-13 20:36:12.402
89.0, 22.112158488016576, 278.0540819056332, 248.21903000911698, 89.32003064174205, 0.01600000075995922, -0.17600000835955143, 1.0400000493973494, 0.0, 0.0, 0.0, 0.0, 0.0, 1.710387372402917E9, 0.0, 2024-03-13 20:36:12.402
90.0, -119.43931493489072, 215.10782575141639, 54.11074250889942, 76.97462088800967, 0.01600000075995922, -0.17600000835955143, 1.0400000493973494, 0.0, 0.0, 0.0, 0.0, 0.0, 1.710387372418887E9, 0.0, 2024-03-13 20:36:12.418
90.0, -182.81752953398973, 358.8733199480921, -25.81652939412743, 178.32590968720615, 0.01600000075995922, -0.17600000835955143, 1.0400000493973494, 0.0, 0.0, 0.0, 0.0, 0.0, 1.710387372418887E9, 0.0, 2024-03-13 20:36:12.418
91.0, -304.5550129916519, 513.6546894642524, -102.13292788993567, 303.2329583573155, 0.01600000075995922, -0.17600000835955143, 1.0400000493973494, 0.0, 0.0, 0.0, 0.0, 0.0, 1.7103873724195063E9, 0.0, 2024-03-13 20:36:12.419
91.0, -152.7206846405752, 571.4230541298166, 30.37359749013558, 424.96483196504414, 0.01600000075995922, -0.17600000835955143, 1.0400000493973494, 0.0, 0.0, 0.0, 0.0, 0.0, 1.7103873724195063E9, 0.0, 2024-03-13 20:36:12.419
92.0, -342.15222724620253, 685.7443159753457, -166.64994202554226, 534.368125368841, 0.01600000075995922, -0.17600000835955143, 1.0400000493973494, 0.0, 0.0, 0.0, 0.0, 0.0, 1.7103873724329593E9, 0.0, 2024-03-13 20:36:12.432
92.0, -190.78725633956492, 733.7421920066699, 9.316090789623559, 523.3092411998659, 0.01600000075995922, -0.17600000835955143, 1.0400000493973494, 0.0, 0.0, 0.0, 0.0, 0.0, 1.7103873724329593E9, 0.0, 2024-03-13 20:36:12.432
93.0, -87.62024611188099, 607.9656165968627, 114.334351495374, 441.41665187012404, 0.01600000075995922, -0.17600000835955143, 1.0400000493973494, 0.0, 0.0, 0.0, 0.0, 0.0, 1.7103873724485664E9, 0.0, 2024-03-13 20:36:12.448
93.0, 14.804393974598497, 446.47112666023895, 173.12931869877502, 313.55134233506396, 0.01600000075995922, -0.17600000835955143, 1.0400000493973494, 0.0, 0.0, 0.0, 0.0, 0.0, 1.7103873724485664E9, 0.0, 2024-03-13 20:36:12.448
94.0, -152.5505191925913, 373.01762158051133, 37.10354746039957, 176.6766138067469, 0.01600000075995922, -0.17600000835955143, 1.0400000493973494, 0.0, 0.0, 0.0, 0.0, 0.0, 1.7103873724492776E9, 0.0, 2024-03-13 20:36:12.449
94.0, 32.168749468866736, 280.48875677678734, 235.30515546211973, 86.85917647089809, 0.01600000075995922, -0.17600000835955143, 1.0400000493973494, 0.0, 0.0, 0.0, 0.0, 0.0, 1.7103873724492776E9, 0.0, 2024-03-13 20:36:12.449
95.0, -118.92320874100551, 208.75373572669923, 49.97815305786207, 70.06328576989472, 0.01600000075995922, -0.17600000835955143, 1.0400000493973494, 0.0, 0.0, 0.0, 0.0, 0.0, 1.7103873724629111E9, 0.0, 2024-03-13 20:36:12.462
95.0, -193.82031520362943, 351.7637701323256, -29.40309345163405, 176.1941667124629, 0.01600000075995922, -0.17600000835955143, 1.0400000493973494, 0.0, 0.0, 0.0, 0.0, 0.0, 1.7103873724629111E9, 0.0, 2024-03-13 20:36:12.462
96.0, -312.93986869230866, 513.0862246709876, -101.83747579343617, 306.89432041393593, 0.01600000075995922, -0.17600000835955143, 1.0400000493973494, 0.0, 0.0, 0.0, 0.0, 0.0, 1.7103873724786348E9, 0.0, 2024-03-13 20:36:12.478
96.0, -166.0945668821223, 569.3735889540985, 36.656629415694624, 426.4533121474087, 0.01600000075995922, -0.17600000835955143, 1.0400000493973494, 0.0, 0.0, 0.0, 0.0, 0.0, 1.7103873724786348E9, 0.0, 2024-03-13 20:36:12.478
97.0, -322.38685598038137, 679.0274556549266, -165.34845684096217, 532.5355743905529, 0.01600000075995922, -0.17600000835955143, 1.0400000493973494, 0.0, 0.0, 0.0, 0.0, 0.0, 1.7103873724792771E9, 0.0, 2024-03-13 20:36:12.479
97.0, -199.52740253601223, 730.9821458393708, 18.07867638580501, 530.6506648128852, 0.01600000075995922, -0.17600000835955143, 1.0400000493973494, 0.0, 0.0, 0.0, 0.0, 0.0, 1.7103873724792771E9, 0.0, 2024-03-13 20:36:12.479
98.0, -95.54883401794359, 603.3019613521174, 110.78892633737996, 433.44318516459316, 0.01600000075995922, -0.17600000835955143, 1.0400000493973494, 0.0, 0.0, 0.0, 0.0, 0.0, 1.7103873724933507E9, 0.0, 2024-03-13 20:36:12.493
98.0, 4.721623694058508, 431.06273884279653, 159.62080005882308, 293.4979987726547, 0.01600000075995922, -0.17600000835955143, 1.0400000493973494, 0.0, 0.0, 0.0, 0.0, 0.0, 1.7103873724933507E9, 0.0, 2024-03-13 20:36:12.493
99.0, -141.11016522813588, 367.22451654914767, 34.50805689115077, 170.4496803805232, 0.01600000075995922, -0.17600000835955143, 1.0400000493973494, 0.0, 0.0, 0.0, 0.0, 0.0, 1.7103873725089977E9, 0.0, 2024-03-13 20:36:12.508
99.0, 26.472881836351007, 274.86020734347403, 242.1753516807221, 81.12590983882546, 0.01600000075995922, -0.17600000835955143, 1.0400000493973494, 0.0, 0.0, 0.0, 0.0, 0.0, 1.7103873725089977E9, 0.0, 2024-03-13 20:36:12.508
100.0, -112.95058851176873, 207.23533634468913, 52.86161592369899, 70.90102335996926, 0.01600000075995922, -0.17600000835955143, 1.0400000493973494, 0.0, 0.0, 0.0, 0.0, 0.0, 1.7103873725096111E9, 0.0, 2024-03-13 20:36:12.509
100.0, -193.15087311156094, 354.18348540365696, -29.167479754425585, 173.9352671392262, 0.01600000075995922, -0.17600000835955143, 1.0400000493973494, 0.0, 0.0, 0.0, 0.0, 0.0, 1.7103873725096111E9, 0.0, 2024-03-13 20:36:12.509
0.0, -311.51309685921296, 17.558830291964114, -97.64878784306347, -184.27983041666448, 0.01600000075995922, -0.17600000835955143, 1.0400000493973494, 0.0, 0.0, 0.0, 0.0, 0.0, 1.710387372523585E9, 0.0, 2024-03-13 20:36:12.523
1.0, -162.371496476233, 72.4586916915141, 33.59365135198459, -73.460984879639, 0.01600000075995922, -0.17600000835955143, 1.0400000493973494, 0.0, 0.0, 0.0, 0.0, 0.0, 1.710387372524375E9, 0.0, 2024-03-13 20:36:12.524
1.0, -339.67454352555797, 183.477621876169, -174.96373962704092, 32.568918764125556, 0.01600000075995922, -0.17600000835955143, 1.0400000493973494, 0.0, 0.0, 0.0, 0.0, 0.0, 1.710387372524375E9, 0.0, 2024-03-13 20:36:12.524
2.0, -190.87140408856794, 237.08534784102812, 4.865609842352569, 29.057152705732733, 0.01600000075995922, -0.17600000835955143, 1.0400000493973494, 0.0, 0.0, 0.0, 0.0, 0.0, 1.7103873725379548E9, 0.0, 2024-03-13 20:36:12.537
2.0, -94.14824148453772, 108.44774896511808, 109.49492095271125, -59.66075404314324, 0.01600000075995922, -0.17600000835955143, 1.0400000493973494, 0.0, 0.0, 0.0, 0.0, 0.0, 1.7103873725379548E9, 0.0, 2024-03-13 20:36:12.537
3.0, 2.0756444754078984, -66.61509801074862, 150.10275467159227, -205.31302776746452, 0.01600000075995922, -0.17600000835955143, 1.0400000493973494, 0.0, 0.0, 0.0, 0.0, 0.0, 1.7103873725535753E9, 0.0, 2024-03-13 20:36:12.553
3.0, -144.37696783943102, -128.33279702952132, 27.499484374187887, -326.55497448099777, 0.01600000075995922, -0.17600000835955143, 1.0400000493973494, 0.0, 0.0, 0.0, 0.0, 0.0, 1.7103873725535753E9, 0.0, 2024-03-13 20:36:12.553
4.0, 31.73305112402886, -203.4486876395531, 256.0952593157999, -393.9030928830616, 0.01600000075995922, -0.17600000835955143, 1.0400000493973494, 0.0, 0.0, 0.0, 0.0, 0.0, 1.7103873725545268E9, 0.0, 2024-03-13 20:36:12.554
4.0, -122.6500190468505, -284.1856478829868, 56.309803682845086, -419.9589758743532, 0.01600000075995922, -0.17600000835955143, 1.0400000493973494, 0.0, 0.0, 0.0, 0.0, 0.0, 1.7103873725545268E9, 0.0, 2024-03-13 20:36:12.554
5.0, -198.78877229476348, -145.35682162782177, -28.763570559211075, -318.51418957626447, 0.01600000075995922, -0.17600000835955143, 1.0400000493973494, 0.0, 0.0, 0.0, 0.0, 0.0, 1.7103873725843585E9, 0.0, 2024-03-13 20:36:12.584
5.0, -307.4665251071565, 25.838968793861568, -97.96293943934143, -177.33109629899263, 0.01600000075995922, -0.17600000835955143, 1.0400000493973494, 0.0, 0.0, 0.0, 0.0, 0.0, 1.7103873725843585E9, 0.0, 2024-03-13 20:36:12.584
6.0, -144.79770658444613, 83.36423996230587, 37.58412460470572, -65.63337427238002, 0.01600000075995922, -0.17600000835955143, 1.0400000493973494, 0.0, 0.0, 0.0, 0.0, 0.0, 1.7103873725849965E9, 0.0, 2024-03-13 20:36:12.584
6.0, -331.9815693167038, 184.8426853599958, -175.50602512061596, 27.97632161853835, 0.01600000075995922, -0.17600000835955143, 1.0400000493973494, 0.0, 0.0, 0.0, 0.0, 0.0, 1.7103873725849965E9, 0.0, 2024-03-13 20:36:12.584
7.0, -203.14201584318653, 247.9123582127504, 9.843416683375835, 33.23462095623836, 0.01600000075995922, -0.17600000835955143, 1.0400000493973494, 0.0, 0.0, 0.0, 0.0, 0.0, 1.710387372585771E9, 0.0, 2024-03-13 20:36:12.585
7.0, -117.25708331074566, 121.04747191583738, 112.99172741128132, -53.83398991217837, 0.01600000075995922, -0.17600000835955143, 1.0400000493973494, 0.0, 0.0, 0.0, 0.0, 0.0, 1.710387372585771E9, 0.0, 2024-03-13 20:36:12.585
8.0, -16.84450940042734, -53.09161977097392, 165.21943029249087, -193.40518630854785, 0.01600000075995922, -0.17600000835955143, 1.0400000493973494, 0.0, 0.0, 0.0, 0.0, 0.0, 1.7103873725979424E9, 0.0, 2024-03-13 20:36:12.597
8.0, -143.0455634552054, -110.257860543672, 39.82619462814182, -313.9889106298797, 0.01600000075995922, -0.17600000835955143, 1.0400000493973494, 0.0, 0.0, 0.0, 0.0, 0.0, 1.7103873725979424E9, 0.0, 2024-03-13 20:36:12.597
9.0, 43.98122347891331, -204.88106932258233, 255.31736012501642, -393.30470889015123, 0.01600000075995922, -0.17600000835955143, 1.0400000493973494, 0.0, 0.0, 0.0, 0.0, 0.0, 1.7103873726136775E9, 0.0, 2024-03-13 20:36:12.613
9.0, -126.85366659704596, -290.4612000086345, 53.78163131279871, -418.9492028863169, 0.01600000075995922, -0.17600000835955143, 1.0400000493973494, 0.0, 0.0, 0.0, 0.0, 0.0, 1.7103873726136775E9, 0.0, 2024-03-13 20:36:12.613
10.0, -188.52274691639468, -136.87098862836137, -28.99918425641954, -311.92074595438316, 0.01600000075995922, -0.17600000835955143, 1.0400000493973494, 0.0, 0.0, 0.0, 0.0, 0.0, 1.7103873726143384E9, 0.0, 2024-03-13 20:36:12.614
10.0, -298.2364520165138, 32.1257406193763, -90.16150813177228, -169.36510939337313, 0.01600000075995922, -0.17600000835955143, 1.0400000493973494, 0.0, 0.0, 0.0, 0.0, 0.0, 1.7103873726143384E9, 0.0, 2024-03-13 20:36:12.614
11.0, -152.41962269414216, 81.06420148955658, 36.46215461799875, -63.632527796085924, 0.01600000075995922, -0.17600000835955143, 1.0400000493973494, 0.0, 0.0, 0.0, 0.0, 0.0, 1.7103873726279387E9, 0.0, 2024-03-13 20:36:12.627
11.0, -329.75258894311264, 188.9603152112104, -175.31529022287577, 34.50244704121724, 0.01600000075995922, -0.17600000835955143, 1.0400000493973494, 0.0, 0.0, 0.0, 0.0, 0.0, 1.7103873726279387E9, 0.0, 2024-03-13 20:36:12.627
12.0, -175.4368369714357, 244.03408195869997, 4.802031543105841, 36.49581371759996, 0.01600000075995922, -0.17600000835955143, 1.0400000493973494, 0.0, 0.0, 0.0, 0.0, 0.0, 1.7103873726438746E9, 0.0, 2024-03-13 20:36:12.643
12.0, -100.23679861240089, 118.82597134215757, 109.93996904743835, -52.23705263109878, 0.01600000075995922, -0.17600000835955143, 1.0400000493973494, 0.0, 0.0, 0.0, 0.0, 0.0, 1.7103873726438746E9, 0.0, 2024-03-13 20:36:12.643
13.0, 0.6470026923343539, -59.778560891747475, 156.52416289551184, -196.04555567726493, 0.01600000075995922, -0.17600000835955143, 1.0400000493973494, 0.0, 0.0, 0.0, 0.0, 0.0, 1.710387372644367E9, 0.0, 2024-03-13 20:36:12.644
13.0, -141.77025757031515, -116.87000366533175, 36.411665968596935, -306.58390871761367, 0.01600000075995922, -0.17600000835955143, 1.0400000493973494, 0.0, 0.0, 0.0, 0.0, 0.0, 1.710387372644367E9, 0.0, 2024-03-13 20:36:12.644
14.0, 41.703624405898154, -198.52697929786518, 253.7690415433608, -388.51389704691246, 0.01600000075995922, -0.17600000835955143, 1.0400000493973494, 0.0, 0.0, 0.0, 0.0, 0.0, 1.7103873726580484E9, 0.0, 2024-03-13 20:36:12.658
14.0, -127.41091169044375, -286.7474793526344, 57.169980672653764, -415.75532832415774, 0.01600000075995922, -0.17600000835955143, 1.0400000493973494, 0.0, 0.0, 0.0, 0.0, 0.0, 1.7103873726580484E9, 0.0, 2024-03-13 20:36:12.658
15.0, -192.46834136964753, -138.06401671422645, -28.367141163907945, -311.29618266178295, 0.01600000075995922, -0.17600000835955143, 1.0400000493973494, 0.0, 0.0, 0.0, 0.0, 0.0, 1.7103873726736405E9, 0.0, 2024-03-13 20:36:12.673
15.0, -299.3359826034866, 39.1679722359404, -88.7852249480784, -167.83175041154027, 0.01600000075995922, -0.17600000835955143, 1.0400000493973494, 0.0, 0.0, 0.0, 0.0, 0.0, 1.7103873726736405E9, 0.0, 2024-03-13 20:36:12.673
16.0, -145.41852997709066, 94.95792982494459, 50.20628695515916, -52.62226232653484, 0.01600000075995922, -0.17600000835955143, 1.0400000493973494, 0.0, 0.0, 0.0, 0.0, 0.0, 1.710387372674608E9, 0.0, 2024-03-13 20:36:12.674
16.0, -317.59043428720906, 196.4101959229447, -166.27969192992896, 44.5964370216243, 0.01600000075995922, -0.17600000835955143, 1.0400000493973494, 0.0, 0.0, 0.0, 0.0, 0.0, 1.710387372674608E9, 0.0, 2024-03-13 20:36:12.674
17.0, -175.7322890679352, 259.169457079377, 20.98083875142038, 49.73131966078654, 0.01600000075995922, -0.17600000835955143, 1.0400000493973494, 0.0, 0.0, 0.0, 0.0, 0.0, 1.7103873726878932E9, 0.0, 2024-03-13 20:36:12.687
17.0, -74.13229692168534, 128.61702942615375, 115.22444768482819, -46.91517499415204, 0.01600000075995922, -0.17600000835955143, 1.0400000493973494, 0.0, 0.0, 0.0, 0.0, 0.0, 1.7103873726878932E9, 0.0, 2024-03-13 20:36:12.687
18.0, -2.969480564817786, -63.840092243626714, 162.39954572590068, -194.29154259804636, 0.01600000075995922, -0.17600000835955143, 1.0400000493973494, 0.0, 0.0, 0.0, 0.0, 0.0, 1.7103873727037113E9, 0.0, 2024-03-13 20:36:12.703
18.0, -152.58604824217036, -122.80148499505594, 30.756937235593796, -316.4273254009895, 0.01600000075995922, -0.17600000835955143, 1.0400000493973494, 0.0, 0.0, 0.0, 0.0, 0.0, 1.7103873727037113E9, 0.0, 2024-03-13 20:36:12.703
19.0, 38.33771444577724, -205.18026131903753, 252.89016505377367, -394.1424464802258, 0.01600000075995922, -0.17600000835955143, 1.0400000493973494, 0.0, 0.0, 0.0, 0.0, 0.0, 1.7103873727045257E9, 0.0, 2024-03-13 20:36:12.704
19.0, -126.59561350010335, -295.4464866495691, 53.22438621940091, -421.75038795312867, 0.01600000075995922, -0.17600000835955143, 1.0400000493973494, 0.0, 0.0, 0.0, 0.0, 0.0, 1.7103873727045257E9, 0.0, 2024-03-13 20:36:12.704
20.0, -215.66320089483634, -146.43017291510478, -31.187025730498135, -313.6560595338233, 0.01600000075995922, -0.17600000835955143, 1.0400000493973494, 0.0, 0.0, 0.0, 0.0, 0.0, 1.7103873727178888E9, 0.0, 2024-03-13 20:36:12.717
20.0, -288.57629043096676, 41.946717903018, -80.13483635056764, -160.79325869493186, 0.01600000075995922, -0.17600000835955143, 1.0400000493973494, 0.0, 0.0, 0.0, 0.0, 0.0, 1.7103873727178888E9, 0.0, 2024-03-13 20:36:12.717
21.0, -153.69118867907673, 86.16168512916192, 48.321377377491444, -55.74507878953591, 0.01600000075995922, -0.17600000835955143, 1.0400000493973494, 0.0, 0.0, 0.0, 0.0, 0.0, 1.710387372733674E9, 0.0, 2024-03-13 20:36:12.733
21.0, -337.81955314753577, 183.30558647820726, -174.90390122774988, 34.79041933780536, 0.01600000075995922, -0.17600000835955143, 1.0400000493973494, 0.0, 0.0, 0.0, 0.0, 0.0, 1.710387372733674E9, 0.0, 2024-03-13 20:36:12.733
22.0, -181.9517426942475, 251.49892227025703, 14.589349727146327, 49.080577068496495, 0.01600000075995922, -0.17600000835955143, 1.0400000493973494, 0.0, 0.0, 0.0, 0.0, 0.0, 1.710387372734352E9, 0.0, 2024-03-13 20:36:12.734
22.0, -115.15525953564793, 115.88267007702962, 117.90595595305786, -48.57943047443405, 0.01600000075995922, -0.17600000835955143, 1.0400000493973494, 0.0, 0.0, 0.0, 0.0, 0.0, 1.710387372734352E9, 0.0, 2024-03-13 20:36:12.734
23.0, 3.059238163754344, -66.62257781066, 159.12339336471632, -198.1324198525399, 0.01600000075995922, -0.17600000835955143, 1.0400000493973494, 0.0, 0.0, 0.0, 0.0, 0.0, 1.710387372748164E9, 0.0, 2024-03-13 20:36:12.748
23.0, -149.1229008832015, -122.38261620001867, 36.13865327183157, -309.9872176772915, 0.01600000075995922, -0.17600000835955143, 1.0400000493973494, 0.0, 0.0, 0.0, 0.0, 0.0, 1.710387372748164E9, 0.0, 2024-03-13 20:36:12.748
24.0, 43.77926888130605, -195.15732943778858, 264.60353171499446, -388.3194222492166, 0.01600000075995922, -0.17600000835955143, 1.0400000493973494, 0.0, 0.0, 0.0, 0.0, 0.0, 1.7103873727636187E9, 0.0, 2024-03-13 20:36:12.763
24.0, -129.3182606678456, -293.8944281679578, 55.69646009011194, -424.30847952282056, 0.01600000075995922, -0.17600000835955143, 1.0400000493973494, 0.0, 0.0, 0.0, 0.0, 0.0, 1.7103873727636187E9, 0.0, 2024-03-13 20:36:12.763
25.0, -197.78647910663858, -144.70981893548742, -35.615067278034985, -315.81398180825636, 0.01600000075995922, -0.17600000835955143, 1.0400000493973494, 0.0, 0.0, 0.0, 0.0, 0.0, 1.7103873727643437E9, 0.0, 2024-03-13 20:36:12.764
25.0, -306.5016309185885, 33.53942280262709, -92.83179670013487, -177.51809129677713, 0.01600000075995922, -0.17600000835955143, 1.0400000493973494, 0.0, 0.0, 0.0, 0.0, 0.0, 1.7103873727643437E9, 0.0, 2024-03-13 20:36:12.764
26.0, -154.00534027535468, 75.77598295221105, 34.184555544983596, -77.04006913723424, 0.01600000075995922, -0.17600000835955143, 1.0400000493973494, 0.0, 0.0, 0.0, 0.0, 0.0, 1.7103873727780707E9, 0.0, 2024-03-13 20:36:12.778
26.0, -348.3324119229801, 172.22426290949807, -184.10031521879137, 22.36647168500349, 0.01600000075995922, -0.17600000835955143, 1.0400000493973494, 0.0, 0.0, 0.0, 0.0, 0.0, 1.7103873727780707E9, 0.0, 2024-03-13 20:36:12.778
27.0, -180.70261610904709, 253.51846824632958, 7.397522112354636, 41.12954976269975, 0.01600000075995922, -0.17600000835955143, 1.0400000493973494, 0.0, 0.0, 0.0, 0.0, 0.0, 1.7103873727940066E9, 0.0, 2024-03-13 20:36:12.794
27.0, -88.19432075507939, 126.4478874518536, 109.28548655519262, -51.72094643721357, 0.01600000075995922, -0.17600000835955143, 1.0400000493973494, 0.0, 0.0, 0.0, 0.0, 0.0, 1.7103873727940066E9, 0.0, 2024-03-13 20:36:12.794
28.0, -14.536991127766669, -73.18610223289579, 143.5728893489577, -211.4352439949289, 0.01600000075995922, -0.17600000835955143, 1.0400000493973494, 0.0, 0.0, 0.0, 0.0, 0.0, 1.7103873727943163E9, 0.0, 2024-03-13 20:36:12.794
28.0, -144.7172987353988, -120.68470162013546, 22.383301234804094, -322.5420618285425, 0.01600000075995922, -0.17600000835955143, 1.0400000493973494, 0.0, 0.0, 0.0, 0.0, 0.0, 1.7103873727943163E9, 0.0, 2024-03-13 20:36:12.794
29.0, 36.793135764077306, -197.92111550504342, 243.3235009671189, -398.77618252532557, 0.01600000075995922, -0.17600000835955143, 1.0400000493973494, 0.0, 0.0, 0.0, 0.0, 0.0, 1.710387372808211E9, 0.0, 2024-03-13 20:36:12.808
29.0, -132.07830683514476, -297.5333508248441, 42.73022694373503, -434.9297953969799, 0.01600000075995922, -0.17600000835955143, 1.0400000493973494, 0.0, 0.0, 0.0, 0.0, 0.0, 1.710387372808211E9, 0.0, 2024-03-13 20:36:12.808
30.0, -205.38221591664478, -147.54466310190037, -44.00740277860314, -322.19051123270765, 0.01600000075995922, -0.17600000835955143, 1.0560000501573086, 0.0, 0.0, 0.0, 0.0, 0.0, 1.7103873728240108E9, 0.0, 2024-03-13 20:36:12.824
30.0, -290.43502070894465, 44.65440547093749, -86.01021918095648, -160.7409000955522, 0.01600000075995922, -0.17600000835955143, 1.0560000501573086, 0.0, 0.0, 0.0, 0.0, 0.0, 1.7103873728240108E9, 0.0, 2024-03-13 20:36:12.824
31.0, -141.27098092623055, 94.3595458320342, 51.22353974310681, -52.94015382276848, 0.01600000075995922, -0.17600000835955143, 1.0560000501573086, 0.0, 0.0, 0.0, 0.0, 0.0, 1.7103873728245804E9, 0.0, 2024-03-13 20:36:12.824
31.0, -326.5100956815295, 193.08542486233637, -167.94768731016666, 43.511866034474224, 0.01600000075995922, -0.17600000835955143, 1.0560000501573086, 0.0, 0.0, 0.0, 0.0, 0.0, 1.7103873728245804E9, 0.0, 2024-03-13 20:36:12.824
32.0, -166.8350670733489, 275.6736355838366, 27.488264674320817, 66.18313956586644, 0.01600000075995922, -0.17600000835955143, 1.0560000501573086, 0.0, 0.0, 0.0, 0.0, 0.0, 1.7103873728383017E9, 0.0, 2024-03-13 20:36:12.838
32.0, -68.39529038965702, 146.50871081417426, 133.968826262746, -24.857245055492967, 0.01600000075995922, -0.17600000835955143, 1.0560000501573086, 0.0, 0.0, 0.0, 0.0, 0.0, 1.7103873728383017E9, 0.0, 2024-03-13 20:36:12.838
33.0, 14.536991127766669, -46.902085344307125, 168.81721404986456, -186.41157339140773, 0.01600000075995922, -0.17600000835955143, 1.0560000501573086, 0.0, 0.0, 0.0, 0.0, 0.0, 1.7103873728535984E9, 0.0, 2024-03-13 20:36:12.853
33.0, -132.11009598476812, -95.38053851993755, 48.27088872808963, -292.43586718523875, 0.01600000075995922, -0.17600000835955143, 1.0560000501573086, 0.0, 0.0, 0.0, 0.0, 0.0, 1.7103873728535984E9, 0.0, 2024-03-13 20:36:12.853
34.0, 60.82573287934065, -174.142831586767, 268.818398965057, -372.4098878377117, 0.01600000075995922, -0.17600000835955143, 1.0560000501573086, 0.0, 0.0, 0.0, 0.0, 0.0, 1.7103873728545249E9, 0.0, 2024-03-13 20:36:12.854
34.0, -107.26033072918653, -286.0032392614521, 56.302323882933706, -422.8162594405003, 0.01600000075995922, -0.17600000835955143, 1.0560000501573086, 0.0, 0.0, 0.0, 0.0, 0.0, 1.7103873728545249E9, 0.0, 2024-03-13 20:36:12.854
35.0, -198.89722939347848, -135.83503634063527, -31.983624421060085, -312.8781603430398, 0.01600000075995922, -0.17600000835955143, 1.0560000501573086, 0.0, 0.0, 0.0, 0.0, 0.0, 1.7103873728682103E9, 0.0, 2024-03-13 20:36:12.868
35.0, -279.87354323407635, 44.63196607120335, -85.1500421911478, -162.00872618053108, 0.01600000075995922, -0.17600000835955143, 1.0560000501573086, 0.0, 0.0, 0.0, 0.0, 0.0, 1.7103873728682103E9, 0.0, 2024-03-13 20:36:12.868
36.0, -165.1203229436651, 81.74112338153645, 38.39568289509043, -73.25903028203174, 0.01600000075995922, -0.17600000835955143, 1.0560000501573086, 0.0, 0.0, 0.0, 0.0, 0.0, 1.71038737288361E9, 0.0, 2024-03-13 20:36:12.883
36.0, -349.19632881274447, 163.18866461655125, -190.14399354718626, 14.082593283150345, 0.01600000075995922, -0.17600000835955143, 1.0560000501573086, 0.0, 0.0, 0.0, 0.0, 0.0, 1.71038737288361E9, 0.0, 2024-03-13 20:36:12.883
37.0, -184.72674846136943, 246.62957252794877, 8.4858329994604, 38.89308958919719, 0.01600000075995922, -0.17600000835955143, 1.0560000501573086, 0.0, 0.0, 0.0, 0.0, 0.0, 1.710387372884296E9, 0.0, 2024-03-13 20:36:12.884
37.0, -98.83807602897286, 115.06363198673353, 109.46126185311005, -55.45710649294779, 0.01600000075995922, -0.17600000835955143, 1.0560000501573086, 0.0, 0.0, 0.0, 0.0, 0.0, 1.710387372884296E9, 0.0, 2024-03-13 20:36:12.884
38.0, -9.443247388117015, -82.73406681977212, 142.91092705680057, -219.0272409049794, 0.01600000075995922, -0.17600000835955143, 1.0560000501573086, 0.0, 0.0, 0.0, 0.0, 0.0, 1.7103873728979616E9, 0.0, 2024-03-13 20:36:12.897
38.0, -153.84639452723786, -133.96134646283463, 20.288957259617746, -326.7980679781176, 0.01600000075995922, -0.17600000835955143, 1.0560000501573086, 0.0, 0.0, 0.0, 0.0, 0.0, 1.7103873728979616E9, 0.0, 2024-03-13 20:36:12.897
39.0, 32.436152315698564, -211.68020744202659, 250.3619926837273, -405.8445934415795, 0.01600000075995922, -0.17600000835955143, 1.0560000501573086, 0.0, 0.0, 0.0, 0.0, 0.0, 1.7103873729137375E9, 0.0, 2024-03-13 20:36:12.913
39.0, -143.04743340518326, -315.4960903120227, 38.93422848870978, -449.4181678253226, 0.01600000075995922, -0.17600000835955143, 1.0560000501573086, 0.0, 0.0, 0.0, 0.0, 0.0, 1.7103873729137375E9, 0.0, 2024-03-13 20:36:12.913
40.0, -222.047210119199, -171.9549901126884, -53.2486955691129, -343.56777937943116, 0.01600000075995922, -0.17600000835955143, 1.0400000493973494, 0.0, 0.0, 0.0, 0.0, 0.0, 1.7103873729143608E9, 0.0, 2024-03-13 20:36:12.914
40.0, -300.7160056871362, 33.82365519925952, -87.47252006363124, -167.81305091176182, 0.01600000075995922, -0.17600000835955143, 1.0400000493973494, 0.0, 0.0, 0.0, 0.0, 0.0, 1.7103873729143608E9, 0.0, 2024-03-13 20:36:12.914
41.0, -161.189688090235, 77.3878798331134, 43.074297739658505, -68.63277403684333, 0.01600000075995922, -0.17600000835955143, 1.0400000493973494, 0.0, 0.0, 0.0, 0.0, 0.0, 1.7103873729279387E9, 0.0, 2024-03-13 20:36:12.927
41.0, -354.83609794592485, 174.4719427828677, -181.93117324449122, 21.53621389484033, 0.01600000075995922, -0.17600000835955143, 1.0400000493973494, 0.0, 0.0, 0.0, 0.0, 0.0, 1.7103873729279387E9, 0.0, 2024-03-13 20:36:12.927
42.0, -164.48640990117565, 267.00828738650307, 22.16638703737408, 55.999391986522824, 0.01600000075995922, -0.17600000835955143, 1.0400000493973494, 0.0, 0.0, 0.0, 0.0, 0.0, 1.7103873729435892E9, 0.0, 2024-03-13 20:36:12.943
42.0, -79.90670245327055, 136.09308943757787, 132.0465176855214, -37.3335513076745, 0.01600000075995922, -0.17600000835955143, 1.0400000493973494, 0.0, 0.0, 0.0, 0.0, 0.0, 1.7103873729435892E9, 0.0, 2024-03-13 20:36:12.943
43.0, -6.484986523166299, -63.769034144468606, 163.64119251118973, -201.03458221815526, 0.01600000075995922, -0.17600000835955143, 1.0400000493973494, 0.0, 0.0, 0.0, 0.0, 0.0, 1.7103873729442835E9, 0.0, 2024-03-13 20:36:12.944
43.0, -138.79703710554168, -107.63245077477768, 40.98556361440569, -303.43865285487846, 0.01600000075995922, -0.17600000835955143, 1.0400000493973494, 0.0, 0.0, 0.0, 0.0, 0.0, 1.7103873729442835E9, 0.0, 2024-03-13 20:36:12.944
44.0, 46.17654475290328, -183.2532278788276, 264.45767561672255, -377.69062657514587, 0.01600000075995922, -0.17600000835955143, 1.0400000493973494, 0.0, 0.0, 0.0, 0.0, 0.0, 1.7103873729582872E9, 0.0, 2024-03-13 20:36:12.958
44.0, -119.12329338863492, -296.7068329346366, 56.57533657969907, -422.1056784489192, 0.01600000075995922, -0.17600000835955143, 1.0400000493973494, 0.0, 0.0, 0.0, 0.0, 0.0, 1.7103873729582872E9, 0.0, 2024-03-13 20:36:12.958
45.0, -205.54677151469514, -137.1963599245064, -26.313936088234186, -304.7289183395915, 0.01600000075995922, -0.17600000835955143, 1.0400000493973494, 0.0, 0.0, 0.0, 0.0, 0.0, 1.7103873729739263E9, 0.0, 2024-03-13 20:36:12.973
45.0, -288.1611615358852, 47.99413613136858, -79.79450545459986, -149.63713712710887, 0.01600000075995922, -0.17600000835955143, 1.0400000493973494, 0.0, 0.0, 0.0, 0.0, 0.0, 1.7103873729739263E9, 0.0, 2024-03-13 20:36:12.973
46.0, -151.52952650468796, 83.0575681659393, 46.298091501463205, -62.07672941451892, 0.01600000075995922, -0.17600000835955143, 1.0400000493973494, 0.0, 0.0, 0.0, 0.0, 0.0, 1.7103873729744284E9, 0.0, 2024-03-13 20:36:12.974
46.0, -351.2308343886398, 174.68511708034202, -179.5638165725395, 29.255367403384298, 0.01600000075995922, -0.17600000835955143, 1.0400000493973494, 0.0, 0.0, 0.0, 0.0, 0.0, 1.7103873729744284E9, 0.0, 2024-03-13 20:36:12.974
47.0, -172.92362420121208, 267.90960327582434, 27.084355479106307, 65.24816457694396, 0.01600000075995922, -0.17600000835955143, 1.0400000493973494, 0.0, 0.0, 0.0, 0.0, 0.0, 1.710387372988313E9, 0.0, 2024-03-13 20:36:12.988
47.0, -86.2981914775446, 135.95097323926166, 131.63138879043981, -30.882223884109408, 0.01600000075995922, -0.17600000835955143, 1.0400000493973494, 0.0, 0.0, 0.0, 0.0, 0.0, 1.710387372988313E9, 0.0, 2024-03-13 20:36:12.988
48.0, -3.8034782549366355, -60.74719498027116, 163.96656380733475, -197.6462328583002, 0.01600000075995922, -0.17600000835955143, 1.0400000493973494, 0.0, 0.0, 0.0, 0.0, 0.0, 1.7103873730036595E9, 0.0, 2024-03-13 20:36:13.003
48.0, -140.03868389083073, -106.18510949192569, 40.99678331427276, -298.1616540174, 0.01600000075995922, -0.17600000835955143, 1.0400000493973494, 0.0, 0.0, 0.0, 0.0, 0.0, 1.7103873730036595E9, 0.0, 2024-03-13 20:36:13.003
49.0, 47.45185063779354, -179.16551722725853, 270.8529045409523, -368.5166519838385, 0.01600000075995922, -0.17600000835955143, 1.0400000493973494, 0.0, 0.0, 0.0, 0.0, 0.0, 1.7103873730044796E9, 0.0, 2024-03-13 20:36:13.004
49.0, -128.77223527431488, -302.5709960651584, 51.518991839606315, -432.6596761238761, 0.01600000075995922, -0.17600000835955143, 1.0400000493973494, 0.0, 0.0, 0.0, 0.0, 0.0, 1.7103873730044796E9, 0.0, 2024-03-13 20:36:13.004
50.0, -194.80203894199803, -141.96099246805534, -39.687818329781294, -316.70407799771056, 0.01600000075995922, -0.17600000835955143, 1.0400000493973494, 0.0, 0.0, 0.0, 0.0, 0.0, 1.7103873730179436E9, 0.0, 2024-03-13 20:36:13.017
50.0, -279.0732046435587, 54.183670558035374, -80.24703334923834, -152.3298650952056, 0.01600000075995922, -0.17600000835955143, 1.0400000493973494, 0.0, 0.0, 0.0, 0.0, 0.0, 1.7103873730179436E9, 0.0, 2024-03-13 20:36:13.017
51.0, -156.19318174943328, 79.87865320360288, 41.410042259376496, -71.55737580219284, 0.01600000075995922, -0.17600000835955143, 1.0400000493973494, 0.0, 0.0, 0.0, 0.0, 0.0, 1.710387373033609E9, 0.0, 2024-03-13 20:36:13.033
51.0, -355.06423184322193, 160.8736665439792, -192.99005741346627, 12.100446306634694, 0.01600000075995922, -0.17600000835955143, 1.0400000493973494, 0.0, 0.0, 0.0, 0.0, 0.0, 1.710387373033609E9, 0.0, 2024-03-13 20:36:13.033
52.0, -177.44890314759687, 265.0710192094557, 19.64943436719477, 53.145848320331424, 0.01600000075995922, -0.17600000835955143, 1.0400000493973494, 0.0, 0.0, 0.0, 0.0, 0.0, 1.710387373034324E9, 0.0, 2024-03-13 20:36:13.034
52.0, -97.9330202396959, 122.06472470378503, 120.35185052407905, -49.929534358438104, 0.01600000075995922, -0.17600000835955143, 1.0400000493973494, 0.0, 0.0, 0.0, 0.0, 0.0, 1.710387373034324E9, 0.0, 2024-03-13 20:36:13.034
53.0, -14.219099631533027, -88.71416684892029, 151.70343185262755, -216.9515964295715, 0.01600000075995922, -0.17600000835955143, 1.0400000493973494, 0.0, 0.0, 0.0, 0.0, 0.0, 1.7103873730479164E9, 0.0, 2024-03-13 20:36:13.047
53.0, -160.30894165067002, -124.75745267188177, 32.64932661317289, -310.7314577684738, 0.01600000075995922, -0.17600000835955143, 1.0400000493973494, 0.0, 0.0, 0.0, 0.0, 0.0, 1.7103873730479164E9, 0.0, 2024-03-13 20:36:13.047
54.0, 53.1738975699991, -187.8495649243705, 264.68206961406395, -378.47600556584075, 0.01600000075995922, -0.17600000835955143, 1.0400000493973494, 0.0, 0.0, 0.0, 0.0, 0.0, 1.7103873730636E9, 0.0, 2024-03-13 20:36:13.063
54.0, -130.62348575238138, -307.8966136020608, 46.82167749525979, -438.7482332517393, 0.01600000075995922, -0.17600000835955143, 1.0400000493973494, 0.0, 0.0, 0.0, 0.0, 0.0, 1.7103873730636E9, 0.0, 2024-03-13 20:36:13.063
55.0, -206.51166570326313, -145.44657922675833, -38.468610944226384, -315.78032270865515, 0.01600000075995922, -0.17600000835955143, 1.0400000493973494, 0.0, 0.0, 0.0, 0.0, 0.0, 1.7103873730643485E9, 0.0, 2024-03-13 20:36:13.064
55.0, -296.6021157358773, 52.3212003801018, -82.24040002562106, -153.94176197610795, 0.01600000075995922, -0.17600000835955143, 1.0400000493973494, 0.0, 0.0, 0.0, 0.0, 0.0, 1.7103873730643485E9, 0.0, 2024-03-13 20:36:13.064
56.0, -153.30223908368498, 88.03911490691826, 45.299538213294, -63.07528270268813, 0.01600000075995922, -0.17600000835955143, 1.0400000493973494, 0.0, 0.0, 0.0, 0.0, 0.0, 1.7103873730782435E9, 0.0, 2024-03-13 20:36:13.078
56.0, -344.0651860735379, 171.83531331410632, -189.77000355161726, 22.594605582300574, 0.01600000075995922, -0.17600000835955143, 1.0400000493973494, 0.0, 0.0, 0.0, 0.0, 0.0, 1.7103873730782435E9, 0.0, 2024-03-13 20:36:13.078
57.0, -184.74170806119218, 276.8965828693472, 22.92184682842344, 66.89746045740321, 0.01600000075995922, -0.17600000835955143, 1.0400000493973494, 0.0, 0.0, 0.0, 0.0, 0.0, 1.7103873730936465E9, 0.0, 2024-03-13 20:36:13.093
57.0, -79.1475027622655, 138.73719870625064, 125.31843766523525, -36.245240420568734, 0.01600000075995922, -0.17600000835955143, 1.0400000493973494, 0.0, 0.0, 0.0, 0.0, 0.0, 1.7103873730936465E9, 0.0, 2024-03-13 20:36:13.093
58.0, -22.708672530949116, -85.06402449216694, 139.75819139415398, -225.13823743257672, 0.01600000075995922, -0.17600000835955143, 1.0400000493973494, 0.0, 0.0, 0.0, 0.0, 0.0, 1.7103873730943522E9, 0.0, 2024-03-13 20:36:13.094
58.0, -151.5762752541341, -119.18126183794811, 27.293789876624942, -311.8683873550035, 0.01600000075995922, -0.17600000835955143, 1.0400000493973494, 0.0, 0.0, 0.0, 0.0, 0.0, 1.7103873730943522E9, 0.0, 2024-03-13 20:36:13.094
59.0, 47.37331273872405, -186.7724737371318, 263.2197687313892, -375.9366134959273, 0.01600000075995922, -0.17600000835955143, 1.0400000493973494, 0.0, 0.0, 0.0, 0.0, 0.0, 1.710387373108163E9, 0.0, 2024-03-13 20:36:13.108
59.0, -156.847664241679, -318.37207337794825, 37.068018410820514, -450.62615551101044, 0.01600000075995922, -0.17600000835955143, 1.0400000493973494, 0.0, 0.0, 0.0, 0.0, 0.0, 1.710387373108163E9, 0.0, 2024-03-13 20:36:13.108
60.0, -212.25989193515852, -161.4271717374213, -59.008141500875354, -338.3618386411108, 0.01600000075995922, -0.17600000835955143, 1.0560000501573086, 0.0, 0.0, 0.0, 0.0, 0.0, 1.710387373124213E9, 0.0, 2024-03-13 20:36:13.124
60.0, -305.70503222802654, 39.35496723372489, -91.43681401666254, -169.27909169439226, 0.01600000075995922, -0.17600000835955143, 1.0560000501573086, 0.0, 0.0, 0.0, 0.0, 0.0, 1.710387373124213E9, 0.0, 2024-03-13 20:36:13.124
61.0, -171.98303936235607, 64.7544977827929, 33.53755285264924, -82.55268167192116, 0.01600000075995922, -0.17600000835955143, 1.0560000501573086, 0.0, 0.0, 0.0, 0.0, 0.0, 1.7103873731245313E9, 0.0, 2024-03-13 20:36:13.124
61.0, -366.3026312100701, 139.4589993976988, -205.37286616675556, -7.085240466054529, 0.01600000075995922, -0.17600000835955143, 1.0560000501573086, 0.0, 0.0, 0.0, 0.0, 0.0, 1.7103873731245313E9, 0.0, 2024-03-13 20:36:13.124
62.0, -200.28473227703944, 235.5744282589294, 2.6777683682739735, 34.655782939400524, 0.01600000075995922, -0.17600000835955143, 1.0560000501573086, 0.0, 0.0, 0.0, 0.0, 0.0, 1.7103873731379845E9, 0.0, 2024-03-13 20:36:13.137
62.0, -98.83059622906148, 109.15459005674347, 114.26703329617158, -62.52551740920171, 0.01600000075995922, -0.17600000835955143, 1.0560000501573086, 0.0, 0.0, 0.0, 0.0, 0.0, 1.7103873731379845E9, 0.0, 2024-03-13 20:36:13.137
63.0, -55.67963054031134, -120.45843767281622, 127.25944574223831, -247.6374755660072, 0.01600000075995922, -0.17600000835955143, 1.0560000501573086, 0.0, 0.0, 0.0, 0.0, 0.0, 1.7103873731535952E9, 0.0, 2024-03-13 20:36:13.153
63.0, -160.55577504774556, -139.25330490013584, 17.26337819546461, -328.6829775557853, 0.01600000075995922, -0.17600000835955143, 1.0560000501573086, 0.0, 0.0, 0.0, 0.0, 0.0, 1.7103873731535952E9, 0.0, 2024-03-13 20:36:13.153
64.0, 36.26580987032503, -202.2593994536437, 259.3938510767184, -386.92817946569994, 0.01600000075995922, -0.17600000835955143, 1.0560000501573086, 0.0, 0.0, 0.0, 0.0, 0.0, 1.7103873731543276E9, 0.0, 2024-03-13 20:36:13.154
64.0, -151.75766040198505, -328.469803258311, 36.86232391325757, -455.0841162581928, 0.01600000075995922, -0.17600000835955143, 1.0560000501573086, 0.0, 0.0, 0.0, 0.0, 0.0, 1.7103873731543276E9, 0.0, 2024-03-13 20:36:13.154
65.0, -223.28137710457668, -164.93519789585844, -55.43653704319149, -338.5937124383636, 0.01600000075995922, -0.17600000835955143, 1.0560000501573086, 0.0, 0.0, 0.0, 0.0, 0.0, 1.7103873731680956E9, 0.0, 2024-03-13 20:36:13.168
65.0, -302.14464747020975, 41.75598300527781, -93.23570589534938, -161.06253149174154, 0.01600000075995922, -0.17600000835955143, 1.0560000501573086, 0.0, 0.0, 0.0, 0.0, 0.0, 1.7103873731680956E9, 0.0, 2024-03-13 20:36:13.168
66.0, -172.2261328594759, 68.14658704260364, 32.30712576722726, -80.19280479988083, 0.01600000075995922, -0.17600000835955143, 1.0560000501573086, 0.0, 0.0, 0.0, 0.0, 0.0, 1.7103873731835573E9, 0.0, 2024-03-13 20:36:13.183
66.0, -365.02732532517985, 150.7908962634392, -200.55961492378265, 1.3631935338489711, 0.01600000075995922, -0.17600000835955143, 1.0560000501573086, 0.0, 0.0, 0.0, 0.0, 0.0, 1.7103873731835573E9, 0.0, 2024-03-13 20:36:13.183
67.0, -175.38073847210035, 258.31301998952404, 11.215959967114031, 51.71720653725788, 0.01600000075995922, -0.17600000835955143, 1.0560000501573086, 0.0, 0.0, 0.0, 0.0, 0.0, 1.7103873731843135E9, 0.0, 2024-03-13 20:36:13.184
67.0, -89.88101563509554, 129.60436301445588, 118.46694094641134, -49.469526663888246, 0.01600000075995922, -0.17600000835955143, 1.0560000501573086, 0.0, 0.0, 0.0, 0.0, 0.0, 1.7103873731843135E9, 0.0, 2024-03-13 20:36:13.184
