%OpenBCI Raw EXG Data
%Number of channels = 4
%Sample Rate = 200 Hz
%Board = OpenBCI_GUI$BoardGanglionBLE
Sample Index, EXG Channel 0, EXG Channel 1, EXG Channel 2, EXG Channel 3, Accel Channel 0, Accel Channel 1, Accel Channel 2, Other, Other, Other, Other, Other, Timestamp, Other, Timestamp (Formatted)
2.0, -73.33382828114554, 144.98096168227494, -80.0207694019191, 107.77643692307174, 0.01600000075995922, 0.0, 0.0, 0.0, 0.0, 0.0, 0.0, 0.0, 1.7103873151401472E9, 0.0, 2024-03-13 20:35:15.140
2.0, -19.462439369410276, 386.81598246702924, -2.9507810650393367, -113.37880705669522, 0.01600000075995922, 0.0, 0.0, 0.0, 0.0, 0.0, 0.0, 0.0, 1.7103873151401472E9, 0.0, 2024-03-13 20:35:15.140
3.0, -190.08228519791737, 482.59482033224776, -213.87552871601656, -17.577529791742563, 0.01600000075995922, 0.0, 0.0, 0.0, 0.0, 0.0, 0.0, 0.0, 1.7103873151546304E9, 0.0, 2024-03-13 20:35:15.154
3.0, -20.964009201619774, 569.753188799601, -16.29661405691877, 7.883709106594324, 0.01600000075995922, 0.0, 0.0, 0.0, 0.0, 0.0, 0.0, 0.0, 1.7103873151546304E9, 0.0, 2024-03-13 20:35:15.154
4.0, 42.77697569318116, 421.38761765742674, 76.91478248871863, -91.5976297147572, 0.01600000075995922, 0.0, 0.0, 0.0, 0.0, 0.0, 0.0, 0.0, 1.7103873151553197E9, 0.0, 2024-03-13 20:35:15.155
4.0, 144.35265848971903, 235.50524010974914, 121.53552886005491, -248.45090380636975, 0.01600000075995922, 0.0, 0.0, 0.0, 0.0, 0.0, 0.0, 0.0, 1.7103873151553197E9, 0.0, 2024-03-13 20:35:15.155
5.0, -1.2696960349567235, 184.1433240682818, 0.5553751434199512, -355.70188478566706, 0.01600000075995922, 0.0, 0.0, 0.0, 0.0, 0.0, 0.0, 0.0, 1.7103873151689477E9, 0.0, 2024-03-13 20:35:15.168
5.0, 172.32711015827954, 107.94286247109994, 219.12821820378304, -437.9871636107564, 0.01600000075995922, 0.0, 0.0, 0.0, 0.0, 0.0, 0.0, 0.0, 1.7103873151689477E9, 0.0, 2024-03-13 20:35:15.168
6.0, -10.909288170747459, 6.404578674118966, 1.7914120787754655, -478.9353282256052, 0.01600000075995922, 0.0, 0.0, 0.0, 0.0, 0.0, 0.0, 0.0, 1.710387315184619E9, 0.0, 2024-03-13 20:35:15.184
6.0, -56.07418998563662, 165.52236218890175, -67.33502875221893, -360.88912602420896, 0.01600000075995922, 0.0, 0.0, 0.0, 0.0, 0.0, 0.0, 0.0, 1.710387315184619E9, 0.0, 2024-03-13 20:35:15.184
7.0, -153.17695243516937, 353.435505412519, -119.75720643112436, -205.8534433110617, 0.01600000075995922, 0.0, 0.0, 0.0, 0.0, 0.0, 0.0, 0.0, 1.710387315185326E9, 0.0, 2024-03-13 20:35:15.185
7.0, -20.89482105243951, 383.80536300269887, -3.0480184638872743, -118.27059619873762, 0.01600000075995922, 0.0, 0.0, 0.0, 0.0, 0.0, 0.0, 0.0, 1.710387315185326E9, 0.0, 2024-03-13 20:35:15.185
8.0, -202.27809895342216, 479.5094028688036, -220.865401733201, -23.643647519871593, 0.01600000075995922, 0.0, 0.0, 0.0, 0.0, 0.0, 0.0, 0.0, 1.7103873151990447E9, 0.0, 2024-03-13 20:35:15.199
8.0, -42.50209304643795, 553.4173057931475, -27.808026120532304, -5.875382830388844, 0.01600000075995922, 0.0, 0.0, 0.0, 0.0, 0.0, 0.0, 0.0, 1.7103873151990447E9, 0.0, 2024-03-13 20:35:15.199
9.0, 37.9450249504298, 418.56773309083655, 80.91273554135114, -99.58231612015516, 0.01600000075995922, 0.0, 0.0, 0.0, 0.0, 0.0, 0.0, 0.0, 1.7103873152149334E9, 0.0, 2024-03-13 20:35:15.214
9.0, 119.17939188797027, 219.7714809961617, 117.36928030941635, -255.2837010254152, 0.01600000075995922, 0.0, 0.0, 0.0, 0.0, 0.0, 0.0, 0.0, 1.7103873152149334E9, 0.0, 2024-03-13 20:35:15.214
10.0, -7.85939975688234, 187.46435522893444, 12.945663696620613, -348.70079206861556, 0.01600000075995922, 0.0, 1.0560000501573086, 0.0, 0.0, 0.0, 0.0, 0.0, 1.7103873152154925E9, 0.0, 2024-03-13 20:35:15.215
10.0, 188.03095007222146, 105.45208910061046, 220.59425898641348, -433.2113113673404, 0.01600000075995922, 0.0, 1.0560000501573086, 0.0, 0.0, 0.0, 0.0, 0.0, 1.7103873152154925E9, 0.0, 2024-03-13 20:35:15.215
11.0, -0.4861869942396879, -6.0156290787272155, 5.501392834819853, -490.3756821900606, 0.01600000075995922, -0.12800000607967377, 1.0560000501573086, 0.0, 0.0, 0.0, 0.0, 0.0, 1.710387315229241E9, 0.0, 2024-03-13 20:35:15.229
11.0, -73.79757587565109, 148.8685876862146, -80.77996909292415, -374.22560926619917, 0.01600000075995922, -0.12800000607967377, 1.0560000501573086, 0.0, 0.0, 0.0, 0.0, 0.0, 1.710387315229241E9, 0.0, 2024-03-13 20:35:15.229
12.0, -167.81492086173967, 342.6795531399548, -125.90186205832288, -214.02512471424416, 0.01600000075995922, -0.12800000607967377, 1.0560000501573086, 0.0, 0.0, 0.0, 0.0, 0.0, 1.7103873152447376E9, 0.0, 2024-03-13 20:35:15.244
12.0, -19.926186963915825, 390.4623849238269, 12.117275856435299, -100.04232381470501, 0.01600000075995922, -0.12800000607967377, 1.0560000501573086, 0.0, 0.0, 0.0, 0.0, 0.0, 1.7103873152447376E9, 0.0, 2024-03-13 20:35:15.244
13.0, -195.67717553162947, 481.5513882446103, -212.00183883821592, -19.454959569498897, 0.01600000075995922, -0.12800000607967377, 1.0560000501573086, 0.0, 0.0, 0.0, 0.0, 0.0, 1.7103873152456064E9, 0.0, 2024-03-13 20:35:15.245
13.0, -30.983201182913035, 566.9968825322576, -13.674944187980145, 5.108703339472413, 0.01600000075995922, -0.12800000607967377, 1.0560000501573086, 0.0, 0.0, 0.0, 0.0, 0.0, 1.7103873152456064E9, 0.0, 2024-03-13 20:35:15.245
14.0, 44.98725656699389, 431.83689813362435, 80.1871949499473, -89.35742964129895, 0.01600000075995922, -0.12800000607967377, 1.0560000501573086, 0.0, 0.0, 0.0, 0.0, 0.0, 1.710387315259314E9, 0.0, 2024-03-13 20:35:15.259
14.0, 129.1013464704156, 233.2949592359364, 116.69235841743648, -254.14677143888548, 0.01600000075995922, -0.12800000607967377, 1.0560000501573086, 0.0, 0.0, 0.0, 0.0, 0.0, 1.710387315259314E9, 0.0, 2024-03-13 20:35:15.259
15.0, 0.3347210460342467, 183.70575577346608, -0.41699884505942464, -363.312581195496, 0.01600000075995922, -0.12800000607967377, 1.0560000501573086, 0.0, 0.0, 0.0, 0.0, 0.0, 1.7103873152746708E9, 0.0, 2024-03-13 20:35:15.274
15.0, 177.3086568992585, 99.91329726623371, 202.25378960371017, -452.8532659346238, 0.01600000075995922, -0.12800000607967377, 1.0560000501573086, 0.0, 0.0, 0.0, 0.0, 0.0, 1.7103873152746708E9, 0.0, 2024-03-13 20:35:15.274
16.0, 17.379315094090998, 3.988603302743286, 13.089649844914675, -481.9235082902014, 0.01600000075995922, -0.12800000607967377, 1.0560000501573086, 0.0, 0.0, 0.0, 0.0, 0.0, 1.7103873152753968E9, 0.0, 2024-03-13 20:35:15.275
16.0, -69.75100412359461, 145.70463232370093, -77.5000768317841, -375.01472815684974, 0.01600000075995922, -0.12800000607967377, 1.0560000501573086, 0.0, 0.0, 0.0, 0.0, 0.0, 1.7103873152753968E9, 0.0, 2024-03-13 20:35:15.275
17.0, -160.32764115044847, 333.6738740466535, -128.3440167293884, -219.8668484450318, 0.01600000075995922, -0.12800000607967377, 1.0560000501573086, 0.0, 0.0, 0.0, 0.0, 0.0, 1.7103873152894633E9, 0.0, 2024-03-13 20:35:15.289
17.0, -26.837522082030773, 366.3437701095827, -3.8333974545821548, -124.392812426202, 0.01600000075995922, -0.12800000607967377, 1.0560000501573086, 0.0, 0.0, 0.0, 0.0, 0.0, 1.7103873152894633E9, 0.0, 2024-03-13 20:35:15.289
18.0, -208.05250448500738, 459.36256180750206, -217.6004690718837, -28.756090759299695, 0.01600000075995922, -0.12800000607967377, 1.0560000501573086, 0.0, 0.0, 0.0, 0.0, 0.0, 1.710387315304621E9, 0.0, 2024-03-13 20:35:15.304
18.0, -50.0791303566657, 548.6676328494214, -7.500369361136109, 1.8699499778449535, 0.01600000075995922, -0.12800000607967377, 1.0560000501573086, 0.0, 0.0, 0.0, 0.0, 0.0, 1.710387315304621E9, 0.0, 2024-03-13 20:35:15.304
19.0, 28.16892646625638, 414.6333583374508, 94.65686787851155, -93.20578669570386, 0.01600000075995922, -0.12800000607967377, 1.0560000501573086, 0.0, 0.0, 0.0, 0.0, 0.0, 1.710387315305348E9, 0.0, 2024-03-13 20:35:15.305
19.0, 98.11627533752471, 211.33052679616958, 122.66497864667326, -259.7753208721988, 0.01600000075995922, -0.12800000607967377, 1.0560000501573086, 0.0, 0.0, 0.0, 0.0, 0.0, 1.710387315305348E9, 0.0, 2024-03-13 20:35:15.305
20.0, -27.841685220133513, 175.64253146899864, 13.353312791790813, -353.9890106059611, 0.01600000075995922, -0.12800000607967377, 1.0560000501573086, 0.0, 0.0, 0.0, 0.0, 0.0, 1.710387315318939E9, 0.0, 2024-03-13 20:35:15.318
20.0, 161.28692548908293, 98.25652158586308, 228.90057678800076, -433.37586696539074, 0.01600000075995922, -0.12800000607967377, 1.0560000501573086, 0.0, 0.0, 0.0, 0.0, 0.0, 1.710387315318939E9, 0.0, 2024-03-13 20:35:15.318
21.0, -23.030303927138448, -13.297214292455465, 9.23755289055407, -491.24707887973636, 0.01600000075995922, -0.11200000531971455, 1.0560000501573086, 0.0, 0.0, 0.0, 0.0, 0.0, 1.7103873153346908E9, 0.0, 2024-03-13 20:35:15.334
21.0, -83.11740656523034, 144.39940723916516, -62.742431606631726, -366.6523118559271, 0.01600000075995922, -0.11200000531971455, 1.0560000501573086, 0.0, 0.0, 0.0, 0.0, 0.0, 1.7103873153346908E9, 0.0, 2024-03-13 20:35:15.334
22.0, -169.55023444117978, 338.5581833887845, -104.41987671284005, -204.4883798272349, 0.01600000075995922, -0.11200000531971455, 1.0560000501573086, 0.0, 0.0, 0.0, 0.0, 0.0, 1.7103873153354115E9, 0.0, 2024-03-13 20:35:15.335
22.0, -41.37077330984175, 362.02792556071654, 6.750519420020282, -123.29328183922917, 0.01600000075995922, -0.11200000531971455, 1.0560000501573086, 0.0, 0.0, 0.0, 0.0, 0.0, 1.7103873153354115E9, 0.0, 2024-03-13 20:35:15.335
23.0, -221.0523967309855, 460.6116883927025, -217.95949946762994, -27.667779872193933, 0.01600000075995922, -0.11200000531971455, 1.0560000501573086, 0.0, 0.0, 0.0, 0.0, 0.0, 1.710387315348961E9, 0.0, 2024-03-13 20:35:15.348
23.0, -52.51006532786414, 558.9486178276129, -0.15894574811682105, 12.4875259520486, 0.01600000075995922, -0.11200000531971455, 1.0560000501573086, 0.0, 0.0, 0.0, 0.0, 0.0, 1.710387315348961E9, 0.0, 2024-03-13 20:35:15.348
24.0, 22.237445136532187, 411.3198069767095, 85.99899948108941, -97.53285094443709, 0.01600000075995922, -0.11200000531971455, 1.0560000501573086, 0.0, 0.0, 0.0, 0.0, 0.0, 1.7103873153650107E9, 0.0, 2024-03-13 20:35:15.365
24.0, 105.02761045563966, 219.6181450979784, 118.14717950019985, -257.16487070312724, 0.01600000075995922, -0.11200000531971455, 1.0560000501573086, 0.0, 0.0, 0.0, 0.0, 0.0, 1.7103873153650107E9, 0.0, 2024-03-13 20:35:15.365
25.0, -12.27248170459643, 184.76414746092632, 2.458984220866114, -357.55687516368926, 0.01600000075995922, -0.11200000531971455, 1.0560000501573086, 0.0, 0.0, 0.0, 0.0, 0.0, 1.710387315365942E9, 0.0, 2024-03-13 20:35:15.365
25.0, 156.3726969473064, 99.2887339736335, 215.7735279435292, -442.961230551824, 0.01600000075995922, -0.11200000531971455, 1.0560000501573086, 0.0, 0.0, 0.0, 0.0, 0.0, 1.710387315365942E9, 0.0, 2024-03-13 20:35:15.365
26.0, -33.73389760032296, -13.51412848988548, 2.569311269558966, -495.1515344334766, 0.01600000075995922, -0.11200000531971455, 1.0560000501573086, 0.0, 0.0, 0.0, 0.0, 0.0, 1.7103873153794317E9, 0.0, 2024-03-13 20:35:15.379
26.0, -85.85127343283966, 152.06246224837378, -67.63048084871843, -365.16009177360684, 0.01600000075995922, -0.11200000531971455, 1.0560000501573086, 0.0, 0.0, 0.0, 0.0, 0.0, 1.7103873153794317E9, 0.0, 2024-03-13 20:35:15.379
27.0, -163.1363060171716, 339.8334892736748, -122.72294709598646, -209.8626160635613, 0.01600000075995922, -0.11200000531971455, 1.0560000501573086, 0.0, 0.0, 0.0, 0.0, 0.0, 1.7103873153950129E9, 0.0, 2024-03-13 20:35:15.395
27.0, -41.7223239056766, 356.9304419211112, -12.207033455371857, -130.6496650520712, 0.01600000075995922, -0.11200000531971455, 1.0560000501573086, 0.0, 0.0, 0.0, 0.0, 0.0, 1.7103873153950129E9, 0.0, 2024-03-13 20:35:15.395
28.0, -227.98617124883458, 459.95720590045676, -220.25579804042354, -27.993151168338954, 0.01600000075995922, -0.11200000531971455, 1.0560000501573086, 0.0, 0.0, 0.0, 0.0, 0.0, 1.7103873153956268E9, 0.0, 2024-03-13 20:35:15.395
28.0, -59.05863015027717, 552.7703031008132, -16.221816057804972, 7.393782212398946, 0.01600000075995922, -0.11200000531971455, 1.0560000501573086, 0.0, 0.0, 0.0, 0.0, 0.0, 1.7103873153956268E9, 0.0, 2024-03-13 20:35:15.395
29.0, 33.41974600404501, 411.2487488775514, 87.18080786708742, -95.76761816535145, 0.01600000075995922, -0.11200000531971455, 1.0560000501573086, 0.0, 0.0, 0.0, 0.0, 0.0, 1.7103873154090495E9, 0.0, 2024-03-13 20:35:15.409
29.0, 118.56604829523712, 221.94062297046185, 124.29183512739837, -253.23797574965283, 0.01600000075995922, -0.11200000531971455, 1.0560000501573086, 0.0, 0.0, 0.0, 0.0, 0.0, 1.7103873154090495E9, 0.0, 2024-03-13 20:35:15.409
30.0, -20.941569801885635, 175.44431677134708, -4.63560599507764, -363.5855938922614, 0.01600000075995922, -0.11200000531971455, 1.0560000501573086, 0.0, 0.0, 0.0, 0.0, 0.0, 1.710387315424683E9, 0.0, 2024-03-13 20:35:15.424
30.0, 162.02368578035384, 91.49104256602004, 223.036413657479, -433.85457415971905, 0.01600000075995922, -0.11200000531971455, 1.0560000501573086, 0.0, 0.0, 0.0, 0.0, 0.0, 1.710387315424683E9, 0.0, 2024-03-13 20:35:15.424
31.0, -12.05369755718857, -15.163424370344728, 13.190627143718302, -482.5592912826687, 0.01600000075995922, -0.11200000531971455, 1.0560000501573086, 0.0, 0.0, 0.0, 0.0, 0.0, 1.7103873154254105E9, 0.0, 2024-03-13 20:35:15.425
31.0, -74.6465331655927, 146.3441552161239, -77.48137733200565, -368.52600173372775, 0.01600000075995922, -0.11200000531971455, 1.0560000501573086, 0.0, 0.0, 0.0, 0.0, 0.0, 1.7103873154254105E9, 0.0, 2024-03-13 20:35:15.425
32.0, -114.02019989909604, 341.14619415812194, -120.68844152009115, -206.8183374996297, 0.01600000075995922, -0.11200000531971455, 1.0560000501573086, 0.0, 0.0, 0.0, 0.0, 0.0, 1.7103873154389997E9, 0.0, 2024-03-13 20:35:15.438
32.0, -49.77432851027697, 359.43617489142343, -9.944393982179463, -131.61081934068352, 0.01600000075995922, -0.11200000531971455, 1.0560000501573086, 0.0, 0.0, 0.0, 0.0, 0.0, 1.7103873154389997E9, 0.0, 2024-03-13 20:35:15.438
33.0, -242.69519777456298, 461.63268108060583, -223.31877610413358, -35.80580217577517, 0.01600000075995922, -0.11200000531971455, 1.0560000501573086, 0.0, 0.0, 0.0, 0.0, 0.0, 1.710387315454683E9, 0.0, 2024-03-13 20:35:15.454
33.0, -31.802239273209125, 554.9618844748475, -28.77666020905599, -7.573297410272062, 0.01600000075995922, -0.11200000531971455, 1.0560000501573086, 0.0, 0.0, 0.0, 0.0, 0.0, 1.710387315454683E9, 0.0, 2024-03-13 20:35:15.454
34.0, 53.57780676521361, 404.67774465540424, 65.6988225216046, -113.32644845731556, 0.01600000075995922, -0.11200000531971455, 1.0560000501573086, 0.0, 0.0, 0.0, 0.0, 0.0, 1.7103873154553523E9, 0.0, 2024-03-13 20:35:15.455
34.0, 114.12304714787751, 212.6544513804838, 105.98502484429628, -263.2197687313892, 0.01600000075995922, -0.11200000531971455, 1.0560000501573086, 0.0, 0.0, 0.0, 0.0, 0.0, 1.7103873154553523E9, 0.0, 2024-03-13 20:35:15.455
35.0, -16.954836449120194, 181.97792199393734, -3.2481031115166843, -355.1708189919591, 0.01600000075995922, -0.11200000531971455, 1.0560000501573086, 0.0, 0.0, 0.0, 0.0, 0.0, 1.7103873154689312E9, 0.0, 2024-03-13 20:35:15.468
35.0, 171.17522097192705, 102.26569433836266, 220.0257941931486, -440.00670958682895, 0.01600000075995922, -0.11200000531971455, 1.0560000501573086, 0.0, 0.0, 0.0, 0.0, 0.0, 1.7103873154689312E9, 0.0, 2024-03-13 20:35:15.468
36.0, 0.3590303957462311, 0.42821854492649436, 15.838476312346756, -481.9422077899799, 0.01600000075995922, -0.11200000531971455, 1.0560000501573086, 0.0, 0.0, 0.0, 0.0, 0.0, 1.7103873154846587E9, 0.0, 2024-03-13 20:35:15.484
36.0, -71.11980750737712, 157.3132817861624, -76.92039233865216, -369.2777216248214, 0.01600000075995922, -0.11200000531971455, 1.0560000501573086, 0.0, 0.0, 0.0, 0.0, 0.0, 1.7103873154846587E9, 0.0, 2024-03-13 20:35:15.484
37.0, -172.34393970808014, 339.2687643803656, -129.71656001312658, -216.72907238220796, 0.01600000075995922, -0.11200000531971455, 1.0560000501573086, 0.0, 0.0, 0.0, 0.0, 0.0, 1.7103873154853845E9, 0.0, 2024-03-13 20:35:15.485
37.0, -40.15156592428684, 367.1590682999231, -3.107856863178313, -122.45180434919894, 0.01600000075995922, -0.11200000531971455, 1.0560000501573086, 0.0, 0.0, 0.0, 0.0, 0.0, 1.7103873154853845E9, 0.0, 2024-03-13 20:35:15.485
38.0, -208.46389348013327, 469.37427398888394, -215.22563260002062, -20.404894158244133, 0.01600000075995922, -0.11200000531971455, 1.0560000501573086, 0.0, 0.0, 0.0, 0.0, 0.0, 1.7103873154994397E9, 0.0, 2024-03-13 20:35:15.499
38.0, -35.50474022934213, 567.0791603312828, -8.491442849393934, 15.505625216290355, 0.01600000075995922, -0.11200000531971455, 1.0560000501573086, 0.0, 0.0, 0.0, 0.0, 0.0, 1.7103873154994397E9, 0.0, 2024-03-13 20:35:15.499
39.0, 52.65779137611389, 423.6689566303976, 81.36900333594531, -96.38844155799598, 0.01600000075995922, -0.11200000531971455, 1.0560000501573086, 0.0, 0.0, 0.0, 0.0, 0.0, 1.7103873155146344E9, 0.0, 2024-03-13 20:35:15.514
39.0, 134.08289321139455, 216.37939173635095, 112.80660236347467, -261.521854151506, 0.01600000075995922, -0.11200000531971455, 1.0560000501573086, 0.0, 0.0, 0.0, 0.0, 0.0, 1.7103873155146344E9, 0.0, 2024-03-13 20:35:15.514
40.0, -32.32208536705002, 175.9903421648778, -7.956637155730277, -359.8307343367487, 0.01600000075995922, -0.11200000531971455, 1.0560000501573086, 0.0, 0.0, 0.0, 0.0, 0.0, 1.7103873155153646E9, 0.0, 2024-03-13 20:35:15.515
40.0, 170.50577887985855, 97.38138499623165, 207.17923784535378, -441.19599777273834, 0.01600000075995922, -0.11200000531971455, 1.0560000501573086, 0.0, 0.0, 0.0, 0.0, 0.0, 1.7103873155153646E9, 0.0, 2024-03-13 20:35:15.515
41.0, 19.72049246635288, -3.3229011106304824, 9.155275091528893, -486.7031004335731, 0.01600000075995922, -0.12800000607967377, 1.0560000501573086, 0.0, 0.0, 0.0, 0.0, 0.0, 1.710387315529329E9, 0.0, 2024-03-13 20:35:15.529
41.0, -55.04197759786621, 169.55771424109116, -65.31174287619069, -354.8379678959027, 0.01600000075995922, -0.12800000607967377, 1.0560000501573086, 0.0, 0.0, 0.0, 0.0, 0.0, 1.710387315529329E9, 0.0, 2024-03-13 20:35:15.529
42.0, -145.07258923118934, 361.08360082190484, -107.59879167517647, -192.86103086499497, 0.01600000075995922, -0.12800000607967377, 1.0560000501573086, 0.0, 0.0, 0.0, 0.0, 0.0, 1.7103873155446467E9, 0.0, 2024-03-13 20:35:15.544
42.0, -36.72955746483058, 370.0500109656714, 0.725540591403842, -117.88164660334587, 0.01600000075995922, -0.12800000607967377, 1.0560000501573086, 0.0, 0.0, 0.0, 0.0, 0.0, 1.7103873155446467E9, 0.0, 2024-03-13 20:35:15.544
43.0, -206.19751410698518, 470.33168837754056, -214.90774110378698, -19.926186963915825, 0.01600000075995922, -0.12800000607967377, 1.0560000501573086, 0.0, 0.0, 0.0, 0.0, 0.0, 1.7103873155457337E9, 0.0, 2024-03-13 20:35:15.545
43.0, -24.40845706081018, 564.2555358647369, -8.035175054799765, 11.021485169418156, 0.01600000075995922, -0.12800000607967377, 1.0560000501573086, 0.0, 0.0, 0.0, 0.0, 0.0, 1.7103873155457337E9, 0.0, 2024-03-13 20:35:15.545
44.0, 36.856714063324034, 411.27118827728555, 74.95881481189281, -100.66314720734954, 0.01600000075995922, -0.12800000607967377, 1.0560000501573086, 0.0, 0.0, 0.0, 0.0, 0.0, 1.7103873155589411E9, 0.0, 2024-03-13 20:35:15.558
44.0, 111.53129647858441, 205.3167676674202, 110.3120890930295, -266.27900689514354, 0.01600000075995922, -0.12800000607967377, 1.0560000501573086, 0.0, 0.0, 0.0, 0.0, 0.0, 1.7103873155589411E9, 0.0, 2024-03-13 20:35:15.558
45.0, 12.799807598348707, 191.15189658524469, 15.316760268528014, -338.03459739498794, 0.01600000075995922, -0.12800000607967377, 1.0560000501573086, 0.0, 0.0, 0.0, 0.0, 0.0, 1.7103873155746825E9, 0.0, 2024-03-13 20:35:15.574
45.0, 215.93060374166816, 119.70858773170039, 239.41717546340078, -414.91198088414967, 0.01600000075995922, -0.12800000607967377, 1.0560000501573086, 0.0, 0.0, 0.0, 0.0, 0.0, 1.7103873155746825E9, 0.0, 2024-03-13 20:35:15.574
46.0, 14.86610232386738, -11.139292018022388, 13.747872237116098, -479.84038401488215, 0.01600000075995922, -0.12800000607967377, 1.0560000501573086, 0.0, 0.0, 0.0, 0.0, 0.0, 1.710387315575411E9, 0.0, 2024-03-13 20:35:15.575
46.0, -62.802270005922765, 153.012396837119, -63.228618600871414, -354.9838239941746, 0.01600000075995922, -0.12800000607967377, 1.0560000501573086, 0.0, 0.0, 0.0, 0.0, 0.0, 1.710387315575411E9, 0.0, 2024-03-13 20:35:15.575
47.0, -167.49328946555033, 341.07139615900815, -118.58287784503773, -207.65233518974856, 0.01600000075995922, -0.12800000607967377, 1.0560000501573086, 0.0, 0.0, 0.0, 0.0, 0.0, 1.7103873155890176E9, 0.0, 2024-03-13 20:35:15.589
47.0, -54.66237775236368, 359.3464172924869, -5.718307032249868, -128.74979587458074, 0.01600000075995922, -0.12800000607967377, 1.0560000501573086, 0.0, 0.0, 0.0, 0.0, 0.0, 1.7103873155890176E9, 0.0, 2024-03-13 20:35:15.589
48.0, -228.45365874329582, 453.9771058713086, -231.65501310536638, -36.20971137098968, 0.01600000075995922, -0.12800000607967377, 1.0560000501573086, 0.0, 0.0, 0.0, 0.0, 0.0, 1.7103873156046617E9, 0.0, 2024-03-13 20:35:15.604
48.0, -46.84411689499393, 547.5232234629802, -28.84397840825841, -3.5678645577281713, 0.01600000075995922, -0.12800000607967377, 1.0560000501573086, 0.0, 0.0, 0.0, 0.0, 0.0, 1.7103873156046617E9, 0.0, 2024-03-13 20:35:15.604
49.0, 40.31238162238151, 404.74506285460666, 66.9928279062733, -108.64035381283611, 0.01600000075995922, -0.12800000607967377, 1.0560000501573086, 0.0, 0.0, 0.0, 0.0, 0.0, 1.7103873156053572E9, 0.0, 2024-03-13 20:35:15.605
49.0, 121.8010617569089, 207.05208124686033, 109.6837859004736, -266.79137318907306, 0.01600000075995922, -0.12800000607967377, 1.0560000501573086, 0.0, 0.0, 0.0, 0.0, 0.0, 1.7103873156053572E9, 0.0, 2024-03-13 20:35:15.605
50.0, 5.922131579834968, 189.39040370611474, 9.157145041506737, -347.59004178177565, 0.01600000075995922, -0.12800000607967377, 1.0560000501573086, 0.0, 0.0, 0.0, 0.0, 0.0, 1.7103873156195722E9, 0.0, 2024-03-13 20:35:15.619
50.0, 170.06447068508714, 93.360992543865, 216.98525552917272, -444.0981601383537, 0.01600000075995922, -0.12800000607967377, 1.0560000501573086, 0.0, 0.0, 0.0, 0.0, 0.0, 1.7103873156195722E9, 0.0, 2024-03-13 20:35:15.619
51.0, 2.2775990730151534, -17.687856840435416, 3.130296262912452, -492.21945286821574, 0.01600000075995922, -0.12800000607967377, 1.0560000501573086, 0.0, 0.0, 0.0, 0.0, 0.0, 1.7103873156350296E9, 0.0, 2024-03-13 20:35:15.635
51.0, -67.36120805190876, 156.82709479192272, -62.22258551279083, -361.3902726182714, 0.01600000075995922, -0.12800000607967377, 1.0560000501573086, 0.0, 0.0, 0.0, 0.0, 0.0, 1.7103873156350296E9, 0.0, 2024-03-13 20:35:15.635
52.0, -173.05078079970554, 337.59328920021653, -124.63777587329969, -216.7851708815433, 0.01600000075995922, -0.12800000607967377, 1.0560000501573086, 0.0, 0.0, 0.0, 0.0, 0.0, 1.7103873156355355E9, 0.0, 2024-03-13 20:35:15.635
52.0, -53.40577136725187, 360.61424337746575, -5.415375135838985, -134.25866850931197, 0.01600000075995922, -0.12800000607967377, 1.0560000501573086, 0.0, 0.0, 0.0, 0.0, 0.0, 1.7103873156355355E9, 0.0, 2024-03-13 20:35:15.635
53.0, -229.02960333647206, 454.95321975974366, -231.07532861223444, -41.269796011038125, 0.01600000075995922, -0.12800000607967377, 1.0560000501573086, 0.0, 0.0, 0.0, 0.0, 0.0, 1.7103873156492174E9, 0.0, 2024-03-13 20:35:15.649
53.0, -51.145001844037324, 554.6439929786138, -22.523547483142465, 1.249126585200429, 0.01600000075995922, -0.12800000607967377, 1.0560000501573086, 0.0, 0.0, 0.0, 0.0, 0.0, 1.7103873156492174E9, 0.0, 2024-03-13 20:35:15.649
54.0, 31.721831424161792, 407.5836469209753, 73.35813763085753, -108.75255081150681, 0.01600000075995922, -0.12800000607967377, 1.0560000501573086, 0.0, 0.0, 0.0, 0.0, 0.0, 1.710387315665013E9, 0.0, 2024-03-13 20:35:15.665
54.0, 105.91022684518248, 202.77737559750676, 98.96897252742201, -283.3740895926021, 0.01600000075995922, -0.12800000607967377, 1.0560000501573086, 0.0, 0.0, 0.0, 0.0, 0.0, 1.710387315665013E9, 0.0, 2024-03-13 20:35:15.665
55.0, -25.96051554242149, 171.95873001264408, -13.188757193740457, -363.2751821959391, 0.01600000075995922, -0.12800000607967377, 1.0560000501573086, 0.0, 0.0, 0.0, 0.0, 0.0, 1.7103873156653886E9, 0.0, 2024-03-13 20:35:15.665
55.0, 162.1171832792461, 101.6598305455409, 205.7618157621473, -448.6234390847385, 0.01600000075995922, -0.12800000607967377, 1.0560000501573086, 0.0, 0.0, 0.0, 0.0, 0.0, 1.7103873156653886E9, 0.0, 2024-03-13 20:35:15.665
56.0, -3.268672561272979, -19.12023852346465, -2.730126967653632, -502.65751364454627, 0.01600000075995922, -0.12800000607967377, 1.0560000501573086, 0.0, 0.0, 0.0, 0.0, 0.0, 1.7103873156793108E9, 0.0, 2024-03-13 20:35:15.679
56.0, -75.17759895930067, 150.22991127008572, -75.95175825012848, -370.9606766048819, 0.01600000075995922, -0.12800000607967377, 1.0560000501573086, 0.0, 0.0, 0.0, 0.0, 0.0, 1.7103873156793108E9, 0.0, 2024-03-13 20:35:15.679
57.0, -176.59994585765526, 340.91432036086917, -125.25111946603283, -211.80362414056435, 0.01600000075995922, -0.12800000607967377, 1.0560000501573086, 0.0, 0.0, 0.0, 0.0, 0.0, 1.7103873156946943E9, 0.0, 2024-03-13 20:35:15.694
57.0, -57.702916416339576, 359.24170009372756, -14.368695629760623, -141.45797592401505, 0.01600000075995922, -0.12800000607967377, 1.0560000501573086, 0.0, 0.0, 0.0, 0.0, 0.0, 1.7103873156946943E9, 0.0, 2024-03-13 20:35:15.694
58.0, -223.95455909660086, 453.81255027325824, -237.5752747352235, -46.075567454099655, 0.01600000075995922, -0.12800000607967377, 1.0560000501573086, 0.0, 0.0, 0.0, 0.0, 0.0, 1.7103873156956236E9, 0.0, 2024-03-13 20:35:15.695
58.0, -31.95557517139241, 578.0856859008782, -16.72670255182311, 10.954166970215738, 0.01600000075995922, -0.12800000607967377, 1.0560000501573086, 0.0, 0.0, 0.0, 0.0, 0.0, 1.7103873156956236E9, 0.0, 2024-03-13 20:35:15.695
59.0, 25.214405501261353, 413.45528985140845, 73.11878403369337, -107.72407832369208, 0.01600000075995922, -0.12800000607967377, 1.0560000501573086, 0.0, 0.0, 0.0, 0.0, 0.0, 1.710387315708995E9, 0.0, 2024-03-13 20:35:15.708
59.0, 112.66822606511414, 212.0261481879279, 106.7928432347253, -271.4849476334639, 0.01600000075995922, -0.12800000607967377, 1.0560000501573086, 0.0, 0.0, 0.0, 0.0, 0.0, 1.710387315708995E9, 0.0, 2024-03-13 20:35:15.708
60.0, -14.28828778071329, 179.67040372127667, -10.731642922852188, -362.41500520613045, 0.01600000075995922, -0.12800000607967377, 1.0560000501573086, 0.0, 0.0, 0.0, 0.0, 0.0, 1.710387315724658E9, 0.0, 2024-03-13 20:35:15.724
60.0, 173.81185044068843, 104.78264700854197, 214.03821436408907, -442.9200916523114, 0.01600000075995922, -0.12800000607967377, 1.0560000501573086, 0.0, 0.0, 0.0, 0.0, 0.0, 1.710387315724658E9, 0.0, 2024-03-13 20:35:15.724
61.0, -7.049711416475475, -17.687856840435416, -0.07105809915810823, -504.36664792429656, 0.01600000075995922, -0.11200000531971455, 1.0560000501573086, 0.0, 0.0, 0.0, 0.0, 0.0, 1.7103873157253816E9, 0.0, 2024-03-13 20:35:15.725
61.0, -60.760284630116075, 160.3874795497395, -74.25010377028957, -359.2921887431294, 0.01600000075995922, -0.11200000531971455, 1.0560000501573086, 0.0, 0.0, 0.0, 0.0, 0.0, 1.7103873157253816E9, 0.0, 2024-03-13 20:35:15.725
62.0, -134.5672102556564, 364.9843164756894, -113.4442553059198, -195.83051142981276, 0.01600000075995922, -0.11200000531971455, 1.0560000501573086, 0.0, 0.0, 0.0, 0.0, 0.0, 1.7103873157393088E9, 0.0, 2024-03-13 20:35:15.739
62.0, -51.19549049343914, 353.977790906094, -15.124155420809984, -141.3644784251228, 0.01600000075995922, -0.11200000531971455, 1.0560000501573086, 0.0, 0.0, 0.0, 0.0, 0.0, 1.7103873157393088E9, 0.0, 2024-03-13 20:35:15.739
63.0, -211.36605584574863, 469.4808611376211, -224.84839518601075, -28.430719463154674, 0.01600000075995922, -0.11200000531971455, 1.0560000501573086, 0.0, 0.0, 0.0, 0.0, 0.0, 1.710387315754609E9, 0.0, 2024-03-13 20:35:15.754
63.0, -34.4426086419262, 579.691972931847, -11.135552118066698, 17.472812592983246, 0.01600000075995922, -0.11200000531971455, 1.0560000501573086, 0.0, 0.0, 0.0, 0.0, 0.0, 1.710387315754609E9, 0.0, 2024-03-13 20:35:15.754
64.0, 32.06964212004095, 419.418560330756, 73.87798372469842, -103.69246617145836, 0.01600000075995922, -0.11200000531971455, 1.0560000501573086, 0.0, 0.0, 0.0, 0.0, 0.0, 1.71038731575532E9, 0.0, 2024-03-13 20:35:15.755
64.0, 107.00975743215531, 208.1198226842098, 111.30690248124301, -272.8238318176009, 0.01600000075995922, -0.11200000531971455, 1.0560000501573086, 0.0, 0.0, 0.0, 0.0, 0.0, 1.71038731575532E9, 0.0, 2024-03-13 20:35:15.755
65.0, 0.3422008459456265, 198.67096544615924, 2.0326356259174645, -348.48387787118554, 0.01600000075995922, -0.11200000531971455, 1.0560000501573086, 0.0, 0.0, 0.0, 0.0, 0.0, 1.7103873157691488E9, 0.0, 2024-03-13 20:35:15.769
65.0, 173.43412054516375, 103.65132727194577, 214.67773725651205, -439.26246949564666, 0.01600000075995922, -0.11200000531971455, 1.0560000501573086, 0.0, 0.0, 0.0, 0.0, 0.0, 1.7103873157691488E9, 0.0, 2024-03-13 20:35:15.769
66.0, 14.305117330513895, -2.131742974743247, 18.9725124752149, -482.73132668063045, 0.01600000075995922, -0.11200000531971455, 1.0560000501573086, 0.0, 0.0, 0.0, 0.0, 0.0, 1.7103873157846167E9, 0.0, 2024-03-13 20:35:15.784
66.0, -64.3094496880658, 152.71507479064167, -81.75234308140352, -370.1416385145858, 0.01600000075995922, -0.11200000531971455, 1.0560000501573086, 0.0, 0.0, 0.0, 0.0, 0.0, 1.7103873157846167E9, 0.0, 2024-03-13 20:35:15.784
67.0, -151.9839243493043, 358.84153079846874, -120.06387822749093, -203.08591734385118, 0.01600000075995922, -0.11200000531971455, 1.0560000501573086, 0.0, 0.0, 0.0, 0.0, 0.0, 1.7103873157853575E9, 0.0, 2024-03-13 20:35:15.785
67.0, -16.44808000512421, 381.5109343798831, 3.384609459899366, -125.41380511410534, 0.01600000075995922, -0.11200000531971455, 1.0560000501573086, 0.0, 0.0, 0.0, 0.0, 0.0, 1.7103873157853575E9, 0.0, 2024-03-13 20:35:15.785
68.0, -210.1505883601494, 468.1756360530853, -232.07388190040365, -38.11706034839153, 0.01600000075995922, -0.11200000531971455, 1.0560000501573086, 0.0, 0.0, 0.0, 0.0, 0.0, 1.7103873157992525E9, 0.0, 2024-03-13 20:35:15.799
68.0, -26.38686413737014, 591.5736350910738, -5.619199683424085, 24.51878410950303, 0.01600000075995922, -0.11200000531971455, 1.0560000501573086, 0.0, 0.0, 0.0, 0.0, 0.0, 1.7103873157992525E9, 0.0, 2024-03-13 20:35:15.799
69.0, 31.172066130675375, 429.4639316117391, 77.778699378483, -100.34899561107159, 0.01600000075995922, -0.11200000531971455, 1.0560000501573086, 0.0, 0.0, 0.0, 0.0, 0.0, 1.710387315814759E9, 0.0, 2024-03-13 20:35:15.814
69.0, 102.88464778102934, 215.68564029457048, 103.18757967744023, -274.42076909868047, 0.01600000075995922, -0.11200000531971455, 1.0560000501573086, 0.0, 0.0, 0.0, 0.0, 0.0, 1.710387315814759E9, 0.0, 2024-03-13 20:35:15.814
70.0, -6.180184676777571, 203.55153488833457, -0.028049249667674303, -345.3797609079629, 0.01600000075995922, -0.11200000531971455, 1.0560000501573086, 0.0, 0.0, 0.0, 0.0, 0.0, 1.7103873158153858E9, 0.0, 2024-03-13 20:35:15.815
70.0, 182.09946874249727, 130.75438225083053, 242.05754483211786, -413.4197608018294, 0.01600000075995922, -0.11200000531971455, 1.0560000501573086, 0.0, 0.0, 0.0, 0.0, 0.0, 1.7103873158153858E9, 0.0, 2024-03-13 20:35:15.815
71.0, -17.36435549426824, -17.74582528974861, 0.6694420920684934, -498.96623238828033, 0.01600000075995922, -0.11200000531971455, 1.0560000501573086, 0.0, 0.0, 0.0, 0.0, 0.0, 1.710387315828946E9, 0.0, 2024-03-13 20:35:15.828
71.0, -72.58958818996325, 156.42505554668605, -79.96093100262806, -370.4333507111296, 0.01600000075995922, -0.11200000531971455, 1.0560000501573086, 0.0, 0.0, 0.0, 0.0, 0.0, 1.710387315828946E9, 0.0, 2024-03-13 20:35:15.828
72.0, -163.1288262172602, 357.06507831951603, -121.04747191583738, -200.0715579795651, 0.01600000075995922, -0.11200000531971455, 1.0560000501573086, 0.0, 0.0, 0.0, 0.0, 0.0, 1.7103873158446312E9, 0.0, 2024-03-13 20:35:15.844
72.0, -35.40563288051635, 372.1686642905697, -0.2056944975629449, -123.90662543196231, 0.01600000075995922, -0.11200000531971455, 1.0560000501573086, 0.0, 0.0, 0.0, 0.0, 0.0, 1.7103873158446312E9, 0.0, 2024-03-13 20:35:15.844
73.0, -205.42335481615737, 474.8550973739475, -220.74198503466323, -27.293789876624942, 0.01600000075995922, -0.11200000531971455, 1.0560000501573086, 0.0, 0.0, 0.0, 0.0, 0.0, 1.710387315845536E9, 0.0, 2024-03-13 20:35:15.845
73.0, -25.414490148890764, 587.5943815382197, -10.884978821035475, 23.149980725720525, 0.01600000075995922, -0.11200000531971455, 1.0560000501573086, 0.0, 0.0, 0.0, 0.0, 0.0, 1.710387315845536E9, 0.0, 2024-03-13 20:35:15.845
74.0, 57.48226231895387, 438.5070097045973, 88.0073257572949, -90.04557123314589, 0.01600000075995922, -0.11200000531971455, 1.0560000501573086, 0.0, 0.0, 0.0, 0.0, 0.0, 1.7103873158589685E9, 0.0, 2024-03-13 20:35:15.858
74.0, 112.81782206334174, 204.98204662138596, 95.22159277182072, -278.6767752482556, 0.01600000075995922, -0.11200000531971455, 1.0560000501573086, 0.0, 0.0, 0.0, 0.0, 0.0, 1.7103873158589685E9, 0.0, 2024-03-13 20:35:15.858
75.0, -9.497475937474519, 200.10708702914417, 2.5936206192709506, -343.8576216259971, 0.01600000075995922, -0.11200000531971455, 1.0560000501573086, 0.0, 0.0, 0.0, 0.0, 0.0, 1.7103873158746495E9, 0.0, 2024-03-13 20:35:15.874
75.0, 184.22747181728482, 119.11581358872354, 208.96317012421787, -442.74805625434965, 0.01600000075995922, -0.11200000531971455, 1.0560000501573086, 0.0, 0.0, 0.0, 0.0, 0.0, 1.7103873158746495E9, 0.0, 2024-03-13 20:35:15.874
76.0, -1.649295880459249, -15.31489031855017, -11.728326261043549, -512.0671019330621, 0.01600000075995922, -0.11200000531971455, 1.0560000501573086, 0.0, 0.0, 0.0, 0.0, 0.0, 1.710387315875444E9, 0.0, 2024-03-13 20:35:15.875
76.0, -58.03015766246244, 162.20320097822696, -83.97010375512764, -371.3907650997862, 0.01600000075995922, -0.11200000531971455, 1.0560000501573086, 0.0, 0.0, 0.0, 0.0, 0.0, 1.710387315875444E9, 0.0, 2024-03-13 20:35:15.875
77.0, -142.36864156322554, 367.02817180147395, -131.3060174942948, -208.65462837787345, 0.01600000075995922, -0.11200000531971455, 1.0560000501573086, 0.0, 0.0, 0.0, 0.0, 0.0, 1.7103873158890407E9, 0.0, 2024-03-13 20:35:15.889
77.0, -0.8227779902517796, 389.4731813855469, -4.0465717520564795, -124.48630992509425, 0.01600000075995922, -0.11200000531971455, 1.0560000501573086, 0.0, 0.0, 0.0, 0.0, 0.0, 1.7103873158890407E9, 0.0, 2024-03-13 20:35:15.889
78.0, -218.18763336492702, 460.134851148352, -243.56285456428304, -50.963616696186364, 0.01600000075995922, -0.11200000531971455, 1.0560000501573086, 0.0, 0.0, 0.0, 0.0, 0.0, 1.710387315904633E9, 0.0, 2024-03-13 20:35:15.904
78.0, -19.643824517261237, 581.8124962067232, -30.295059591066092, 6.8627164186909795, 0.01600000075995922, -0.11200000531971455, 1.0560000501573086, 0.0, 0.0, 0.0, 0.0, 0.0, 1.710387315904633E9, 0.0, 2024-03-13 20:35:15.904
79.0, 65.04060012940317, 443.0659477505833, 76.91478248871863, -95.16923417244107, 0.01600000075995922, -0.11200000531971455, 1.0560000501573086, 0.0, 0.0, 0.0, 0.0, 0.0, 1.7103873159054518E9, 0.0, 2024-03-13 20:35:15.905
79.0, 121.64024605881423, 221.46378572611138, 108.57677551358938, -271.9973139273934, 0.01600000075995922, -0.11200000531971455, 1.0560000501573086, 0.0, 0.0, 0.0, 0.0, 0.0, 1.7103873159054518E9, 0.0, 2024-03-13 20:35:15.905
80.0, 15.47757596662268, 204.53512857668102, -7.111419765744358, -353.1363134160638, 0.01600000075995922, -0.11200000531971455, 1.0560000501573086, 0.0, 0.0, 0.0, 0.0, 0.0, 1.71038731591897E9, 0.0, 2024-03-13 20:35:15.918
80.0, 191.54271613061428, 121.60284705925733, 208.4358442304656, -440.0590681862086, 0.01600000075995922, -0.11200000531971455, 1.0560000501573086, 0.0, 0.0, 0.0, 0.0, 0.0, 1.71038731591897E9, 0.0, 2024-03-13 20:35:15.918
81.0, -13.474859540350735, -18.774297777563334, -14.88480182364583, -516.6671788785607, 0.01600000075995922, -0.11200000531971455, 1.0560000501573086, 0.0, 0.0, 0.0, 0.0, 0.0, 1.7103873159346385E9, 0.0, 2024-03-13 20:35:15.934
81.0, -49.75001916056499, 162.5210924744606, -86.29258162761107, -370.3697724118829, 0.01600000075995922, -0.11200000531971455, 1.0560000501573086, 0.0, 0.0, 0.0, 0.0, 0.0, 1.7103873159346385E9, 0.0, 2024-03-13 20:35:15.934
82.0, -127.263185642194, 372.5370444362052, -123.21287399018183, -201.9340281574987, 0.01600000075995922, -0.11200000531971455, 1.0560000501573086, 0.0, 0.0, 0.0, 0.0, 0.0, 1.7103873159353733E9, 0.0, 2024-03-13 20:35:15.935
82.0, -15.988072310574353, 373.52250807452947, -11.776944960467517, -135.38811829593033, 0.01600000075995922, -0.11200000531971455, 1.0560000501573086, 0.0, 0.0, 0.0, 0.0, 0.0, 1.7103873159353733E9, 0.0, 2024-03-13 20:35:15.935
83.0, -200.1463559786789, 471.69114201143384, -235.30889536207542, -38.850080739706755, 0.01600000075995922, -0.11200000531971455, 1.0560000501573086, 0.0, 0.0, 0.0, 0.0, 0.0, 1.7103873159492283E9, 0.0, 2024-03-13 20:35:15.949
83.0, -23.14437087578699, 592.6769055780023, -23.11445167614147, 13.29534434247762, 0.01600000075995922, -0.11200000531971455, 1.0560000501573086, 0.0, 0.0, 0.0, 0.0, 0.0, 1.7103873159492283E9, 0.0, 2024-03-13 20:35:15.949
84.0, 61.45029617194086, 439.15775229688734, 70.90102335996926, -102.80984978191555, 0.01600000075995922, -0.11200000531971455, 1.0560000501573086, 0.0, 0.0, 0.0, 0.0, 0.0, 1.7103873159651227E9, 0.0, 2024-03-13 20:35:15.965
84.0, 120.88852616772056, 208.86780267534778, 89.25645234249532, -289.47012652037665, 0.01600000075995922, -0.11200000531971455, 1.0560000501573086, 0.0, 0.0, 0.0, 0.0, 0.0, 1.7103873159651227E9, 0.0, 2024-03-13 20:35:15.965
85.0, 4.983416690956801, 198.79064224474132, -16.850119250360876, -359.3520271424204, 0.01600000075995922, -0.11200000531971455, 1.0560000501573086, 0.0, 0.0, 0.0, 0.0, 0.0, 1.7103873159655502E9, 0.0, 2024-03-13 20:35:15.965
85.0, 189.98691774904728, 130.36543265543878, 220.20904929097742, -429.40409321244806, 0.01600000075995922, -0.11200000531971455, 1.0560000501573086, 0.0, 0.0, 0.0, 0.0, 0.0, 1.7103873159655502E9, 0.0, 2024-03-13 20:35:15.965
86.0, -6.754259319975972, -16.661254302598536, 0.6170834926888347, -505.91870640590787, 0.01600000075995922, -0.11200000531971455, 1.0560000501573086, 0.0, 0.0, 0.0, 0.0, 0.0, 1.7103873159795997E9, 0.0, 2024-03-13 20:35:15.979
86.0, -51.141261944081634, 165.4157750401646, -81.2811156869866, -366.7196300551295, 0.01600000075995922, -0.11200000531971455, 1.0560000501573086, 0.0, 0.0, 0.0, 0.0, 0.0, 1.7103873159795997E9, 0.0, 2024-03-13 20:35:15.979
87.0, -130.8609693995677, 377.48119217762724, -122.51725259842351, -198.68779499595985, 0.01600000075995922, -0.11200000531971455, 1.0560000501573086, 0.0, 0.0, 0.0, 0.0, 0.0, 1.7103873159946845E9, 0.0, 2024-03-13 20:35:15.994
87.0, -33.51698340289295, 363.445347643923, -20.307656759396195, -145.29885317850858, 0.01600000075995922, -0.11200000531971455, 1.0560000501573086, 0.0, 0.0, 0.0, 0.0, 0.0, 1.7103873159946845E9, 0.0, 2024-03-13 20:35:15.994
88.0, -215.13961490103975, 459.96094580041245, -249.42701769480482, -52.69519037567079, 0.01600000075995922, -0.11200000531971455, 1.0560000501573086, 0.0, 0.0, 0.0, 0.0, 0.0, 1.7103873159953802E9, 0.0, 2024-03-13 20:35:15.995
88.0, -33.16356285708025, 580.6774365701713, -29.696675598155707, 6.481246623210609, 0.01600000075995922, -0.11200000531971455, 1.0560000501573086, 0.0, 0.0, 0.0, 0.0, 0.0, 1.7103873159953802E9, 0.0, 2024-03-13 20:35:15.995
89.0, 39.994490126147866, 425.075159013737, 68.72440158575773, -107.89237382169813, 0.01600000075995922, -0.11200000531971455, 1.0560000501573086, 0.0, 0.0, 0.0, 0.0, 0.0, 1.7103873160092726E9, 0.0, 2024-03-13 20:35:16.009
89.0, 111.98382437322289, 204.2808153796941, 89.15921494364738, -290.4163212091662, 0.01600000075995922, -0.11200000531971455, 1.0560000501573086, 0.0, 0.0, 0.0, 0.0, 0.0, 1.7103873160092726E9, 0.0, 2024-03-13 20:35:16.009
90.0, 3.509896108414978, 205.54864146467298, -12.29118120437488, -351.41221953649074, 0.01600000075995922, -0.11200000531971455, 1.0560000501573086, 0.0, 0.0, 0.0, 0.0, 0.0, 1.710387316024634E9, 0.0, 2024-03-13 20:35:16.024
90.0, 202.80729479715228, 127.6914041871205, 217.22834902629256, -426.0082640526816, 0.01600000075995922, -0.11200000531971455, 1.0560000501573086, 0.0, 0.0, 0.0, 0.0, 0.0, 1.710387316024634E9, 0.0, 2024-03-13 20:35:16.024
91.0, -24.069996114820242, -16.49295880459249, -6.305471325293183, -509.0228233691305, 0.01600000075995922, -0.12800000607967377, 1.0560000501573086, 0.0, 0.0, 0.0, 0.0, 0.0, 1.7103873160253844E9, 0.0, 2024-03-13 20:35:16.025
91.0, -86.05322803044692, 162.27425907738507, -83.11740656523034, -370.66896440833807, 0.01600000075995922, -0.12800000607967377, 1.0560000501573086, 0.0, 0.0, 0.0, 0.0, 0.0, 1.7103873160253844E9, 0.0, 2024-03-13 20:35:16.025
92.0, -154.75145031651482, 371.5609305477701, -124.53679857449606, -200.46798737486824, 0.01600000075995922, -0.12800000607967377, 1.0560000501573086, 0.0, 0.0, 0.0, 0.0, 0.0, 1.7103873160393038E9, 0.0, 2024-03-13 20:35:16.039
92.0, -18.90893417596817, 378.49657501559705, -5.819284331053495, -127.36977279093117, 0.01600000075995922, -0.12800000607967377, 1.0560000501573086, 0.0, 0.0, 0.0, 0.0, 0.0, 1.7103873160393038E9, 0.0, 2024-03-13 20:35:16.039
93.0, -203.76657913578674, 470.7150281229988, -232.88170029083267, -32.73534431215376, 0.01600000075995922, -0.12800000607967377, 1.0560000501573086, 0.0, 0.0, 0.0, 0.0, 0.0, 1.7103873160546443E9, 0.0, 2024-03-13 20:35:16.054
93.0, -12.751188898924738, 600.4184984862804, -2.818014616612345, 39.85237392783165, 0.01600000075995922, -0.12800000607967377, 1.0560000501573086, 0.0, 0.0, 0.0, 0.0, 0.0, 1.7103873160546443E9, 0.0, 2024-03-13 20:35:16.054
94.0, 51.50216228980571, 433.45440486446023, 70.07824536971748, -97.25983824767172, 0.01600000075995922, -0.12800000607967377, 1.0560000501573086, 0.0, 0.0, 0.0, 0.0, 0.0, 1.7103873160553615E9, 0.0, 2024-03-13 20:35:16.055
94.0, 115.33477473352104, 210.27400505868718, 101.19047310110182, -273.57555170869455, 0.01600000075995922, -0.12800000607967377, 1.0560000501573086, 0.0, 0.0, 0.0, 0.0, 0.0, 1.7103873160553615E9, 0.0, 2024-03-13 20:35:16.055
95.0, 9.179584441240877, 206.90622514858842, -8.020215454977006, -343.4911114303395, 0.01600000075995922, -0.12800000607967377, 1.0560000501573086, 0.0, 0.0, 0.0, 0.0, 0.0, 1.7103873160695305E9, 0.0, 2024-03-13 20:35:16.069
95.0, 202.870873096399, 142.97263540606946, -252.45259675895795, -407.06567077711225, 0.01600000075995922, -0.12800000607967377, 1.0560000501573086, 0.0, 0.0, 0.0, 0.0, 0.0, 1.7103873160695305E9, 0.0, 2024-03-13 20:35:16.069
96.0, 8.141762203536928, -4.495359746739268, -480.78470875369385, -492.529864564538, 0.01600000075995922, -0.12800000607967377, 1.0560000501573086, 0.0, 0.0, 0.0, 0.0, 0.0, 1.7103873160846393E9, 0.0, 2024-03-13 20:35:16.084
96.0, -72.34275479288772, 156.9598612403497, -575.7912572780624, -368.63445883244276, 0.01600000075995922, -0.12800000607967377, 1.0560000501573086, 0.0, 0.0, 0.0, 0.0, 0.0, 1.7103873160846393E9, 0.0, 2024-03-13 20:35:16.084
97.0, -135.8649555402808, 375.4616462015547, -607.3934119036421, -185.10073845693842, 0.01600000075995922, -0.12800000607967377, 1.0560000501573086, 0.0, 0.0, 0.0, 0.0, 0.0, 1.7103873160853758E9, 0.0, 2024-03-13 20:35:16.085
97.0, -27.147933778353035, 370.13976856460795, -499.0615998371504, -133.67150421626866, 0.01600000075995922, -0.12800000607967377, 1.0560000501573086, 0.0, 0.0, 0.0, 0.0, 0.0, 1.7103873160853758E9, 0.0, 2024-03-13 20:35:16.085
98.0, -215.8277564928867, 458.7192990151234, -727.3507029823959, -39.77757592871785, 0.01600000075995922, -0.12800000607967377, 1.0560000501573086, 0.0, 0.0, 0.0, 0.0, 0.0, 1.7103873160990937E9, 0.0, 2024-03-13 20:35:16.099
98.0, -43.21267403801903, 587.5139736891724, -502.07782915141433, 28.247464365325868, 0.01600000075995922, -0.12800000607967377, 1.0560000501573086, 0.0, 0.0, 0.0, 0.0, 0.0, 1.7103873160990937E9, 0.0, 2024-03-13 20:35:16.099
99.0, 72.3296651430428, 452.9673328832723, -392.45201170025393, -78.45936117041856, 0.01600000075995922, -0.12800000607967377, 1.0560000501573086, 0.0, 0.0, 0.0, 0.0, 0.0, 1.7103873161147592E9, 0.0, 2024-03-13 20:35:16.114
99.0, 120.70153116993606, 209.1726045217365, -383.14714061049744, -276.53381257364526, 0.01600000075995922, -0.12800000607967377, 1.0560000501573086, 0.0, 0.0, 0.0, 0.0, 0.0, 1.7103873161147592E9, 0.0, 2024-03-13 20:35:16.114
100.0, -3.5921739074401557, 185.00350105809048, -502.44807924702764, -358.97429724689573, 0.01600000075995922, -0.12800000607967377, 1.0560000501573086, 0.0, 0.0, 0.0, 0.0, 0.0, 1.7103873161153696E9, 0.0, 2024-03-13 20:35:16.115
100.0, 200.70921092201024, 135.70039994223043, -262.7335817371495, -417.2793375561014, 0.01600000075995922, -0.12800000607967377, 1.0560000501573086, 0.0, 0.0, 0.0, 0.0, 0.0, 1.7103873161153696E9, 0.0, 2024-03-13 20:35:16.115
0.0, -641.7574826464988, -325.46479364391416, -458.2649011705071, -460.4789219442755, 0.01600000075995922, -0.12800000607967377, 1.0560000501573086, 0.0, 0.0, 0.0, 0.0, 0.0, 1.7103873161300547E9, 0.0, 2024-03-13 20:35:16.130
1.0, -686.0734271714464, -141.37943802494556, -533.2442854321562, -316.87050354573876, 0.01600000075995922, -0.11200000531971455, 1.0560000501573086, 0.0, 0.0, 0.0, 0.0, 0.0, 1.7103873161305656E9, 0.0, 2024-03-13 20:35:16.130
1.0, -738.3086098525673, 91.52096176566556, -556.5289025562815, -127.72319333674386, 0.01600000075995922, -0.11200000531971455, 1.0560000501573086, 0.0, 0.0, 0.0, 0.0, 0.0, 1.7103873161305656E9, 0.0, 2024-03-13 20:35:16.130
2.0, -627.99465080956, 83.9102653558366, -451.6901570484042, -77.07933808676898, 0.01600000075995922, -0.11200000531971455, 1.0560000501573086, 0.0, 0.0, 0.0, 0.0, 0.0, 1.7103873161442344E9, 0.0, 2024-03-13 20:35:16.144
2.0, -830.5981210591272, 153.97355112573132, -686.4343275171705, 3.2088341619819403, 0.01600000075995922, -0.11200000531971455, 1.0560000501573086, 0.0, 0.0, 0.0, 0.0, 0.0, 1.7103873161442344E9, 0.0, 2024-03-13 20:35:16.144
3.0, -657.4893718101084, 277.6632623602636, -477.07098809769377, 62.29551356192678, 0.01600000075995922, -0.11200000531971455, 1.0560000501573086, 0.0, 0.0, 0.0, 0.0, 0.0, 1.710387316159737E9, 0.0, 2024-03-13 20:35:16.159
3.0, -567.872019121889, 134.53355115605518, -377.4681025277823, -46.29248165152967, 0.01600000075995922, -0.11200000531971455, 1.0560000501573086, 0.0, 0.0, 0.0, 0.0, 0.0, 1.710387316159737E9, 0.0, 2024-03-13 20:35:16.159
4.0, -505.48300806107, -99.58605602011085, -354.00023030582815, -234.69181186938658, 0.01600000075995922, -0.11200000531971455, 1.0560000501573086, 0.0, 0.0, 0.0, 0.0, 0.0, 1.7103873161606593E9, 0.0, 2024-03-13 20:35:16.160
4.0, -612.0234080487862, -95.31883017066866, -458.0535968230106, -295.86348549462855, 0.01600000075995922, -0.11200000531971455, 1.0560000501573086, 0.0, 0.0, 0.0, 0.0, 0.0, 1.7103873161606593E9, 0.0, 2024-03-13 20:35:16.160
5.0, -417.3335661054589, -158.61289702076465, -701.2480712416582, -358.5404688520357, 0.01600000075995922, -0.11200000531971455, 1.0560000501573086, 0.0, 0.0, 0.0, 0.0, 0.0, 1.7103873161739786E9, 0.0, 2024-03-13 20:35:16.173
5.0, -604.5379982874729, -314.8098186701536, -939.917266713921, -452.6961901364848, 0.01600000075995922, -0.11200000531971455, 1.0560000501573086, 0.0, 0.0, 0.0, 0.0, 0.0, 1.7103873161739786E9, 0.0, 2024-03-13 20:35:16.173
6.0, -688.1789908464998, -141.60009212233126, -1030.7949656872079, -316.0813846550882, 0.01600000075995922, -0.11200000531971455, 1.0560000501573086, 0.0, 0.0, 0.0, 0.0, 0.0, 1.7103873161896343E9, 0.0, 2024-03-13 20:35:16.189
6.0, -761.6268860762939, 81.40827228548005, -1055.1267547989264, -130.70015370147303, 0.01600000075995922, -0.11200000531971455, 1.0560000501573086, 0.0, 0.0, 0.0, 0.0, 0.0, 1.7103873161896343E9, 0.0, 2024-03-13 20:35:16.189
7.0, -664.0024075829424, 79.7627163049765, -938.4026072318666, -69.95108877122402, 0.01600000075995922, -0.11200000531971455, 1.0560000501573086, 0.0, 0.0, 0.0, 0.0, 0.0, 1.7103873161903965E9, 0.0, 2024-03-13 20:35:16.190
7.0, -860.4537424053997, 151.67351265298203, -1173.3711716979742, 9.6339822858572, 0.01600000075995922, -0.11200000531971455, 1.0560000501573086, 0.0, 0.0, 0.0, 0.0, 0.0, 1.7103873161903965E9, 0.0, 2024-03-13 20:35:16.190
8.0, -650.9370670877397, 277.9998533562757, -951.9429150214419, 75.26174670830369, 0.01600000075995922, -0.11200000531971455, 1.0560000501573086, 0.0, 0.0, 0.0, 0.0, 0.0, 1.7103873162039416E9, 0.0, 2024-03-13 20:35:16.203
8.0, -560.6427925075404, 140.349095587153, -847.713773206342, -36.826794863678515, 0.01600000075995922, -0.11200000531971455, 1.0560000501573086, 0.0, 0.0, 0.0, 0.0, 0.0, 1.7103873162039416E9, 0.0, 2024-03-13 20:35:16.203
9.0, -482.5013228333555, -78.94180826470256, -826.6730960556306, -217.99689846718684, 0.01600000075995922, -0.11200000531971455, 1.0560000501573086, 0.0, 0.0, 0.0, 0.0, 0.0, 1.7103873162196891E9, 0.0, 2024-03-13 20:35:16.219
9.0, -618.8262860681862, -90.88517877319828, -941.291679947637, -290.5042088581249, 0.01600000075995922, -0.11200000531971455, 1.0560000501573086, 0.0, 0.0, 0.0, 0.0, 0.0, 1.7103873162196891E9, 0.0, 2024-03-13 20:35:16.219
10.0, -390.70547842094675, -137.8957212162204, -1181.2287015048787, -343.9137201253325, 0.01600000075995922, -0.11200000531971455, 1.0560000501573086, 0.0, 0.0, 0.0, 0.0, 0.0, 1.7103873162204883E9, 0.0, 2024-03-13 20:35:16.220
10.0, -611.6288486034609, -306.4679718189873, -938.3016299330629, -447.0339816035703, 0.01600000075995922, -0.11200000531971455, 1.0560000501573086, 0.0, 0.0, 0.0, 0.0, 0.0, 1.7103873162204883E9, 0.0, 2024-03-13 20:35:16.220
11.0, -686.7353894636035, -140.30047688772902, -1020.4878014093265, -312.8538509933278, 0.01600000075995922, -0.11200000531971455, 1.0560000501573086, 0.0, 0.0, 0.0, 0.0, 0.0, 1.7103873162343707E9, 0.0, 2024-03-13 20:35:16.234
11.0, -749.4609915204346, 92.30821070633829, -1044.7747117215768, -122.36391670024022, 0.01600000075995922, -0.11200000531971455, 1.0560000501573086, 0.0, 0.0, 0.0, 0.0, 0.0, 1.7103873162343707E9, 0.0, 2024-03-13 20:35:16.234
12.0, -631.8130886643194, 87.39772206451744, -935.6575206643902, -69.67433617450297, 0.01600000075995922, -0.11200000531971455, 1.0560000501573086, 0.0, 0.0, 0.0, 0.0, 0.0, 1.7103873162496977E9, 0.0, 2024-03-13 20:35:16.249
12.0, -814.4043542509899, 165.79724483564496, -1168.7860543522984, 14.379915329627693, 0.01600000075995922, -0.11200000531971455, 1.0560000501573086, 0.0, 0.0, 0.0, 0.0, 0.0, 1.7103873162496977E9, 0.0, 2024-03-13 20:35:16.249
13.0, -624.8737042965367, 294.59565940964967, -957.163815359585, 81.61209683306515, 0.01600000075995922, -0.11200000531971455, 1.0560000501573086, 0.0, 0.0, 0.0, 0.0, 0.0, 1.7103873162503655E9, 0.0, 2024-03-13 20:35:16.250
13.0, -580.5128809721209, 143.27556730248034, -852.2502718525939, -34.466917991638184, 0.01600000075995922, -0.11200000531971455, 1.0560000501573086, 0.0, 0.0, 0.0, 0.0, 0.0, 1.7103873162503655E9, 0.0, 2024-03-13 20:35:16.250
14.0, -513.5686717652716, 386.7841933174059, -845.735366129782, -236.63655984634534, 0.01600000075995922, -0.11200000531971455, 1.0560000501573086, 0.0, 0.0, 0.0, 0.0, 0.0, 1.7103873162639627E9, 0.0, 2024-03-13 20:35:16.263
14.0, -611.4549432555214, 396.2648397050798, -930.5319877751172, -282.0295955585316, 0.01600000075995922, -0.11200000531971455, 1.0560000501573086, 0.0, 0.0, 0.0, 0.0, 0.0, 1.7103873162639627E9, 0.0, 2024-03-13 20:35:16.263
15.0, -400.73963000206277, 340.88440116122365, -697.2052393895574, -347.4180063838139, 0.01600000075995922, -0.11200000531971455, 1.0560000501573086, 0.0, 0.0, 0.0, 0.0, 0.0, 1.7103873162798383E9, 0.0, 2024-03-13 20:35:16.279
15.0, -624.6623999490403, 167.19970731902868, -456.60438559018075, -453.8443394228816, 0.01600000075995922, -0.11200000531971455, 1.0560000501573086, 0.0, 0.0, 0.0, 0.0, 0.0, 1.7103873162798383E9, 0.0, 2024-03-13 20:35:16.279
16.0, -674.6368131069466, 358.476890552789, -521.463600571733, -298.6272715618834, 0.01600000075995922, -0.11200000531971455, 1.0560000501573086, 0.0, 0.0, 0.0, 0.0, 0.0, 1.71038731628078E9, 0.0, 2024-03-13 20:35:16.280
16.0, -752.3332346864045, 584.9222230198793, -554.9020460755564, -115.4451017822139, 0.01600000075995922, -0.11200000531971455, 1.0560000501573086, 0.0, 0.0, 0.0, 0.0, 0.0, 1.71038731628078E9, 0.0, 2024-03-13 20:35:16.280
17.0, -652.5209147189744, 574.4654627437703, -442.69569765497, -69.03481328208, 0.01600000075995922, -0.11200000531971455, 1.0560000501573086, 0.0, 0.0, 0.0, 0.0, 0.0, 1.710387316294218E9, 0.0, 2024-03-13 20:35:16.294
17.0, -840.9314646366984, 648.3845853679813, -683.7453394490294, 12.165894555859268, 0.01600000075995922, -0.11200000531971455, 1.0560000501573086, 0.0, 0.0, 0.0, 0.0, 0.0, 1.710387316294218E9, 0.0, 2024-03-13 20:35:16.294
18.0, -637.1704953508452, 792.404392761644, -454.25759836798534, 89.44718724023551, 0.01600000075995922, -0.11200000531971455, 1.0560000501573086, 0.0, 0.0, 0.0, 0.0, 0.0, 1.710387316309714E9, 0.0, 2024-03-13 20:35:16.309
18.0, -555.6051472672261, 643.3170209280215, -348.85412796679884, -24.735698306933045, 0.01600000075995922, -0.11200000531971455, 1.0560000501573086, 0.0, 0.0, 0.0, 0.0, 0.0, 1.710387316309714E9, 0.0, 2024-03-13 20:35:16.309
19.0, -509.31266561569646, 399.09594397153705, -359.0154361464083, -233.51000348338857, 0.01600000075995922, -0.11200000531971455, 1.0560000501573086, 0.0, 0.0, 0.0, 0.0, 0.0, 1.7103873163106077E9, 0.0, 2024-03-13 20:35:16.310
19.0, -599.0160360028967, 418.98847183585167, -439.9001224380918, -272.3170753736049, 0.01600000075995922, -0.11200000531971455, 1.0560000501573086, 0.0, 0.0, 0.0, 0.0, 0.0, 1.7103873163106077E9, 0.0, 2024-03-13 20:35:16.310
20.0, -408.3316269121133, 342.230765145272, -219.27407430205494, -354.92772549483925, 0.01600000075995922, -0.11200000531971455, 1.0560000501573086, 0.0, 0.0, 0.0, 0.0, 0.0, 1.71038731632401E9, 0.0, 2024-03-13 20:35:16.324
20.0, -615.6043622563593, 179.8630085689947, -444.85361992940307, -451.6265787491575, 0.01600000075995922, -0.11200000531971455, 1.0560000501573086, 0.0, 0.0, 0.0, 0.0, 0.0, 1.71038731632401E9, 0.0, 2024-03-13 20:35:16.324
21.0, -676.30854838714, 354.5051167998463, -534.6205686158501, -311.5822850083932, 0.01600000075995922, -0.11200000531971455, 1.0560000501573086, 0.0, 0.0, 0.0, 0.0, 0.0, 1.7103873163396566E9, 0.0, 2024-03-13 20:35:16.339
21.0, -752.9839772786945, 579.7985600805841, -568.5190218142234, -127.34920334117487, 0.01600000075995922, -0.11200000531971455, 1.0560000501573086, 0.0, 0.0, 0.0, 0.0, 0.0, 1.7103873163396566E9, 0.0, 2024-03-13 20:35:16.339
22.0, -647.520668478217, 569.4801761028357, -451.813573746942, -74.83165821339935, 0.01600000075995922, -0.11200000531971455, 1.0560000501573086, 0.0, 0.0, 0.0, 0.0, 0.0, 1.7103873163403535E9, 0.0, 2024-03-13 20:35:16.340
22.0, -848.1045927517116, 645.6320190005936, -694.8790216171183, 3.702500956133008, 0.01600000075995922, -0.11200000531971455, 1.0560000501573086, 0.0, 0.0, 0.0, 0.0, 0.0, 1.7103873163403535E9, 0.0, 2024-03-13 20:35:16.340
23.0, -637.0956973517314, 799.0539348828606, -452.98977228300646, 90.02313183341175, 0.01600000075995922, -0.11200000531971455, 1.0560000501573086, 0.0, 0.0, 0.0, 0.0, 0.0, 1.710387316353984E9, 0.0, 2024-03-13 20:35:16.353
23.0, -546.7528040721081, 646.1743044941686, -357.33622106630355, -28.5316967619583, 0.01600000075995922, -0.11200000531971455, 1.0560000501573086, 0.0, 0.0, 0.0, 0.0, 0.0, 1.710387316353984E9, 0.0, 2024-03-13 20:35:16.353
24.0, -501.97872180258855, 876.4025457664393, -359.8045550370589, -241.15435899281874, 0.01600000075995922, -0.11200000531971455, 1.0560000501573086, 0.0, 0.0, 0.0, 0.0, 0.0, 1.7103873163696263E9, 0.0, 2024-03-13 20:35:16.369
24.0, -609.2334426818416, 889.6866704090498, -455.9442932480015, -291.0988529510796, 0.01600000075995922, -0.11200000531971455, 1.0560000501573086, 0.0, 0.0, 0.0, 0.0, 0.0, 1.7103873163696263E9, 0.0, 2024-03-13 20:35:16.369
25.0, -419.9178369748406, 823.1613299972378, -214.3598457602784, -361.6632853150368, 0.01600000075995922, -0.11200000531971455, 1.0560000501573086, 0.0, 0.0, 0.0, 0.0, 0.0, 1.71038731637035E9, 0.0, 2024-03-13 20:35:16.370
25.0, -633.7017381419428, 658.0073479539715, -452.89440483413637, -462.3413921222091, 0.01600000075995922, -0.11200000531971455, 1.0560000501573086, 0.0, 0.0, 0.0, 0.0, 0.0, 1.71038731637035E9, 0.0, 2024-03-13 20:35:16.370
26.0, -700.4683021008968, 840.6004834906198, -528.2627386911772, -312.7416539946571, 0.01600000075995922, -0.11200000531971455, 1.0560000501573086, 0.0, 0.0, 0.0, 0.0, 0.0, 1.710387316383952E9, 0.0, 2024-03-13 20:35:16.383
26.0, -744.3335886811838, 1079.3276474121958, -557.523715944495, -125.02672546869144, 0.01600000075995922, -0.11200000531971455, 1.0560000501573086, 0.0, 0.0, 0.0, 0.0, 0.0, 1.710387316383952E9, 0.0, 2024-03-13 20:35:16.383
27.0, -635.0368824261241, 1053.6307948166505, -458.27986077032983, -87.09479016810656, 0.01600000075995922, -0.11200000531971455, 1.0560000501573086, 0.0, 0.0, 0.0, 0.0, 0.0, 1.7103873163999364E9, 0.0, 2024-03-13 20:35:16.399
27.0, -827.2022918993607, 1138.567662710324, -681.7332732728682, 8.661608297377825, 0.01600000075995922, -0.11200000531971455, 1.0560000501573086, 0.0, 0.0, 0.0, 0.0, 0.0, 1.7103873163999364E9, 0.0, 2024-03-13 20:35:16.399
28.0, -633.2249008975923, 1288.2160195372999, -447.29016475053504, 92.52886480372399, 0.01600000075995922, -0.11200000531971455, 1.0560000501573086, 0.0, 0.0, 0.0, 0.0, 0.0, 1.7103873164005525E9, 0.0, 2024-03-13 20:35:16.400
28.0, -561.0167825031094, 1122.1569817047566, -358.85088054835796, -36.17605227138847, 0.01600000075995922, -0.11200000531971455, 1.0560000501573086, 0.0, 0.0, 0.0, 0.0, 0.0, 1.7103873164005525E9, 0.0, 2024-03-13 20:35:16.400
29.0, -511.43318889057264, 1366.9296939047053, -349.7891029557213, -236.30370875028893, 0.01600000075995922, -0.11200000531971455, 1.0560000501573086, 0.0, 0.0, 0.0, 0.0, 0.0, 1.7103873164139621E9, 0.0, 2024-03-13 20:35:16.413
29.0, -626.631457275711, 1376.7132721887901, -447.05829095328227, -288.9222311768681, 0.01600000075995922, -0.11200000531971455, 1.0560000501573086, 0.0, 0.0, 0.0, 0.0, 0.0, 1.7103873164139621E9, 0.0, 2024-03-13 20:35:16.413
30.0, -417.38592470483854, 1316.7215369995683, -212.03362798783928, -357.2053245678544, 0.01600000075995922, -0.11200000531971455, 1.0560000501573086, 0.0, 0.0, 0.0, 0.0, 0.0, 1.7103873164300356E9, 0.0, 2024-03-13 20:35:16.430
30.0, -591.1753357457928, 1148.287662695162, -455.38891810458153, -462.27781382296234, 0.01600000075995922, -0.11200000531971455, 1.0560000501573086, 0.0, 0.0, 0.0, 0.0, 0.0, 1.7103873164300356E9, 0.0, 2024-03-13 20:35:16.430
31.0, -684.7682020869106, 1323.745069116354, -541.9507725290023, -322.79824497550726, 0.01600000075995922, -0.12800000607967377, 1.0560000501573086, 0.0, 0.0, 0.0, 0.0, 0.0, 1.7103873164306607E9, 0.0, 2024-03-13 20:35:16.430
31.0, -768.6765974927694, 1557.4869463969953, -562.6660783835687, -131.92310098698363, 0.01600000075995922, -0.12800000607967377, 1.0560000501573086, 0.0, 0.0, 0.0, 0.0, 0.0, 1.7103873164306607E9, 0.0, 2024-03-13 20:35:16.430
32.0, -637.763269493822, 1562.5750802867115, -443.769048942253, -68.19333579204977, 0.01600000075995922, -0.12800000607967377, 1.0560000501573086, 0.0, 0.0, 0.0, 0.0, 0.0, 1.710387316444112E9, 0.0, 2024-03-13 20:35:16.444
32.0, -854.9411298707128, 1615.0346569651738, -201.93215820752084, -6.268072325736284, 0.01600000075995922, -0.12800000607967377, 1.0560000501573086, 0.0, 0.0, 0.0, 0.0, 0.0, 1.710387316444112E9, 0.0, 2024-03-13 20:35:16.444
33.0, -679.7866553459316, 1760.7187198391184, 25.78661019448191, 80.35549044795334, 0.01600000075995922, -0.12800000607967377, 1.0560000501573086, 0.0, 0.0, 0.0, 0.0, 0.0, 1.710387316459703E9, 0.0, 2024-03-13 20:35:16.459
33.0, -551.6258937143721, 1622.7799897734076, 142.66035375976935, -29.100161555223167, 0.01600000075995922, -0.12800000607967377, 1.0560000501573086, 0.0, 0.0, 0.0, 0.0, 0.0, 1.710387316459703E9, 0.0, 2024-03-13 20:35:16.459
34.0, -499.49168833205476, 1861.2771498477086, 137.59652921976522, -237.91560563119128, 0.01600000075995922, -0.12800000607967377, 1.0560000501573086, 0.0, 0.0, 0.0, 0.0, 0.0, 1.7103873164603722E9, 0.0, 2024-03-13 20:35:16.460
34.0, -608.227409593761, 1870.4249451393262, 36.2022315710783, -286.6521119037643, 0.01600000075995922, -0.12800000607967377, 1.0560000501573086, 0.0, 0.0, 0.0, 0.0, 0.0, 1.7103873164603722E9, 0.0, 2024-03-13 20:35:16.460
35.0, -405.2424695487134, 1819.4650683430955, -205.96751025971025, -344.4148667193949, 0.01600000075995922, -0.12800000607967377, 1.0560000501573086, 0.0, 0.0, 0.0, 0.0, 0.0, 1.7103873164741662E9, 0.0, 2024-03-13 20:35:16.474
35.0, -611.4418536056764, 1640.286461465992, -445.7698954185471, -455.20192310679704, 0.01600000075995922, -0.12800000607967377, 1.0560000501573086, 0.0, 0.0, 0.0, 0.0, 0.0, 1.7103873164741662E9, 0.0, 2024-03-13 20:35:16.474
36.0, -706.3773440308869, 1806.2220825999975, -526.2544124149717, -314.2937124762684, 0.01600000075995922, -0.12800000607967377, 1.0560000501573086, 0.0, 0.0, 0.0, 0.0, 0.0, 1.7103873164896631E9, 0.0, 2024-03-13 20:35:16.489
36.0, -760.1982442932203, 2050.0242907614447, -552.0260630096309, -116.74658696679398, 0.01600000075995922, -0.12800000607967377, 1.0560000501573086, 0.0, 0.0, 0.0, 0.0, 0.0, 1.7103873164896631E9, 0.0, 2024-03-13 20:35:16.489
37.0, -638.3167746872641, 2039.1636212901212, -442.45634405780584, -72.03795294649899, 0.01600000075995922, -0.12800000607967377, 1.0560000501573086, 0.0, 0.0, 0.0, 0.0, 0.0, 1.710387316490362E9, 0.0, 2024-03-13 20:35:16.490
37.0, -851.9566897060722, 2104.4660144164227, -198.61860684677958, 1.9223085772246122, 0.01600000075995922, -0.12800000607967377, 1.0560000501573086, 0.0, 0.0, 0.0, 0.0, 0.0, 1.710387316490362E9, 0.0, 2024-03-13 20:35:16.490
38.0, -632.5928578050807, 2274.6314624003135, 44.875059568323195, 101.5644630966708, 0.01600000075995922, -0.12800000607967377, 1.0560000501573086, 0.0, 0.0, 0.0, 0.0, 0.0, 1.710387316503981E9, 0.0, 2024-03-13 20:35:16.503
38.0, -554.0493488856591, 2109.6569955549203, 134.09224296128377, -27.592981873080134, 0.01600000075995922, -0.12800000607967377, 1.0560000501573086, 0.0, 0.0, 0.0, 0.0, 0.0, 1.710387316503981E9, 0.0, 2024-03-13 20:35:16.503
39.0, -521.7253935686313, 2340.3714238214307, 130.857229499612, -245.60857984004542, 0.01600000075995922, -0.12800000607967377, 1.0560000501573086, 0.0, 0.0, 0.0, 0.0, 0.0, 1.7103873165196633E9, 0.0, 2024-03-13 20:35:16.519
39.0, -624.9223229959607, 2353.8687227615155, 37.43639855645597, -288.7988144783303, 0.01600000075995922, -0.12800000607967377, 1.0560000501573086, 0.0, 0.0, 0.0, 0.0, 0.0, 1.7103873165196633E9, 0.0, 2024-03-13 20:35:16.519
40.0, -405.56784084485844, 2310.4410044760443, -206.4275179542601, -351.0905881403014, 0.01600000075995922, -0.12800000607967377, 1.0560000501573086, 0.0, 0.0, 0.0, 0.0, 0.0, 1.710387316520367E9, 0.0, 2024-03-13 20:35:16.520
40.0, -629.7972825882025, 2127.6459143417887, -447.7296029953286, -461.94870262686163, 0.01600000075995922, -0.12800000607967377, 1.0560000501573086, 0.0, 0.0, 0.0, 0.0, 0.0, 1.710387316520367E9, 0.0, 2024-03-13 20:35:16.520
41.0, -655.1594141377136, 2306.3981726239435, -536.2324654967524, -321.1564288949594, 0.01600000075995922, -0.11200000531971455, 1.0560000501573086, 0.0, 0.0, 0.0, 0.0, 0.0, 1.710387316533985E9, 0.0, 2024-03-13 20:35:16.533
41.0, -709.2495871968567, 2550.27891868446, -550.6310803261586, -115.41892248252407, 0.01600000075995922, -0.11200000531971455, 1.0560000501573086, 0.0, 0.0, 0.0, 0.0, 0.0, 1.710387316533985E9, 0.0, 2024-03-13 20:35:16.533
42.0, -653.20157651091, 2523.6583107998595, -445.3921655230224, -78.95302796456963, 0.01600000075995922, -0.11200000531971455, 1.0560000501573086, 0.0, 0.0, 0.0, 0.0, 0.0, 1.7103873165501077E9, 0.0, 2024-03-13 20:35:16.550
42.0, -844.0206220000982, 2600.7713079862297, -687.8966283998452, -0.3141515962779522, 0.01600000075995922, -0.11200000531971455, 1.0560000501573086, 0.0, 0.0, 0.0, 0.0, 0.0, 1.7103873165501077E9, 0.0, 2024-03-13 20:35:16.550
43.0, -635.0836311755702, 2757.1402650335804, -457.6908265273087, 95.06077707372606, 0.01600000075995922, -0.11200000531971455, 1.0560000501573086, 0.0, 0.0, 0.0, 0.0, 0.0, 1.7103873165505393E9, 0.0, 2024-03-13 20:35:16.550
43.0, -550.7769364244305, 2599.466082901694, -354.56495519913733, -34.407079592347145, 0.01600000075995922, -0.11200000531971455, 1.0560000501573086, 0.0, 0.0, 0.0, 0.0, 0.0, 1.7103873165505393E9, 0.0, 2024-03-13 20:35:16.550
44.0, -506.42172294994816, 2839.4779024580494, -354.44153850059956, -240.6906113983132, 0.01600000075995922, -0.11200000531971455, 1.0560000501573086, 0.0, 0.0, 0.0, 0.0, 0.0, 1.7103873165642161E9, 0.0, 2024-03-13 20:35:16.564
44.0, -596.1250933371484, 2857.474301044829, -443.4081485965289, -287.3664327953011, 0.01600000075995922, -0.11200000531971455, 1.0560000501573086, 0.0, 0.0, 0.0, 0.0, 0.0, 1.7103873165642161E9, 0.0, 2024-03-13 20:35:16.564
45.0, -406.48785623395815, 2792.9685066090897, -206.68183115124702, -350.86619414296, 0.01600000075995922, -0.11200000531971455, 1.0560000501573086, 0.0, 0.0, 0.0, 0.0, 0.0, 1.7103873165796244E9, 0.0, 2024-03-13 20:35:16.579
45.0, -630.7846161765046, 2605.255448033102, 36.78004611423239, -467.9587218556553, 0.01600000075995922, -0.11200000531971455, 1.0560000501573086, 0.0, 0.0, 0.0, 0.0, 0.0, 1.7103873165796244E9, 0.0, 2024-03-13 20:35:16.579
46.0, -718.0570515925065, 2779.6544627668336, -55.294420844875276, -333.4831391489133, 0.01600000075995922, -0.11200000531971455, 1.0560000501573086, 0.0, 0.0, 0.0, 0.0, 0.0, 1.7103873165803878E9, 0.0, 2024-03-13 20:35:16.580
46.0, -760.5310953892767, 2540.113870604895, -58.843585902825, -118.19392824964598, 0.01600000075995922, -0.11200000531971455, 1.0560000501573086, 0.0, 0.0, 0.0, 0.0, 0.0, 1.7103873165803878E9, 0.0, 2024-03-13 20:35:16.580
47.0, -651.5784599301405, 2517.177064176649, 37.456968006212264, -84.41328189987689, 0.01600000075995922, -0.11200000531971455, 1.0560000501573086, 0.0, 0.0, 0.0, 0.0, 0.0, 1.7103873165942554E9, 0.0, 2024-03-13 20:35:16.594
47.0, -862.9332960760221, 2583.5116696907207, 272.53211962105706, -14.159261232241988, 0.01600000075995922, -0.11200000531971455, 1.0560000501573086, 0.0, 0.0, 0.0, 0.0, 0.0, 1.7103873165942554E9, 0.0, 2024-03-13 20:35:16.594
48.0, -650.3312032949179, 2745.2249437747523, 512.93662867276, 82.28901872504503, 0.01600000075995922, -0.11200000531971455, 1.0560000501573086, 0.0, 0.0, 0.0, 0.0, 0.0, 1.7103873166261125E9, 0.0, 2024-03-13 20:35:16.626
48.0, -556.2596297594719, 2591.249522699043, 622.4502491252497, -38.60324734263122, 0.01600000075995922, -0.11200000531971455, 1.0560000501573086, 0.0, 0.0, 0.0, 0.0, 0.0, 1.7103873166261125E9, 0.0, 2024-03-13 20:35:16.626
49.0, -518.8755898023956, 2829.6120463749394, 622.4539890252054, -246.37525933096185, 0.01600000075995922, -0.11200000531971455, 1.0560000501573086, 0.0, 0.0, 0.0, 0.0, 0.0, 1.710387316626758E9, 0.0, 2024-03-13 20:35:16.626
49.0, -604.0125423436984, 2853.121057496406, 529.6689410745166, -280.97494377102703, 0.01600000075995922, -0.11200000531971455, 1.0560000501573086, 0.0, 0.0, 0.0, 0.0, 0.0, 1.710387316626758E9, 0.0, 2024-03-13 20:35:16.626
50.0, -420.3030466702767, 2791.1621349304914, 770.3707721726969, -350.40244654845446, 0.01600000075995922, -0.11200000531971455, 1.0560000501573086, 0.0, 0.0, 0.0, 0.0, 0.0, 1.710387316627514E9, 0.0, 2024-03-13 20:35:16.627
50.0, -639.5135426730849, 2608.546559994109, 530.7927810112014, -465.8082793811336, 0.01600000075995922, -0.11200000531971455, 1.0560000501573086, 0.0, 0.0, 0.0, 0.0, 0.0, 1.710387316627514E9, 0.0, 2024-03-13 20:35:16.627
51.0, -701.4257164895535, 2779.2318540718406, 431.91169613273814, -327.2749052224681, 0.01600000075995922, -0.11200000531971455, 1.0560000501573086, 0.0, 0.0, 0.0, 0.0, 0.0, 1.7103873166283147E9, 0.0, 2024-03-13 20:35:16.628
51.0, -735.6719803838059, 2553.9440206410363, 427.8052859813906, -109.74923414969817, 0.01600000075995922, -0.11200000531971455, 1.0560000501573086, 0.0, 0.0, 0.0, 0.0, 0.0, 1.7103873166283147E9, 0.0, 2024-03-13 20:35:16.628
52.0, -623.1327808671631, 2539.9268756071106, 539.1327579123899, -68.13723729271442, 0.01600000075995922, -0.11200000531971455, 1.0560000501573086, 0.0, 0.0, 0.0, 0.0, 0.0, 1.7103873166390224E9, 0.0, 2024-03-13 20:35:16.639
52.0, -867.3164588240907, 2582.038149108179, 771.2159895626828, -11.23839936684817, 0.01600000075995922, -0.11200000531971455, 1.0560000501573086, 0.0, 0.0, 0.0, 0.0, 0.0, 1.7103873166390224E9, 0.0, 2024-03-13 20:35:16.639
53.0, -658.386947799474, 2743.8374408911914, 1006.8670857707039, 86.522585474886, 0.01600000075995922, -0.11200000531971455, 1.0560000501573086, 0.0, 0.0, 0.0, 0.0, 0.0, 1.710387316653924E9, 0.0, 2024-03-13 20:35:16.653
53.0, -573.1714573591016, 2589.30851462204, 1113.6206600558944, -35.55522887874395, 0.01600000075995922, -0.11200000531971455, 1.0560000501573086, 0.0, 0.0, 0.0, 0.0, 0.0, 1.710387316653924E9, 0.0, 2024-03-13 20:35:16.653
54.0, -533.0124116349034, 2818.9159325016662, 1105.2582437549718, -253.6231854450889, 0.01600000075995922, -0.11200000531971455, 1.0560000501573086, 0.0, 0.0, 0.0, 0.0, 0.0, 1.710387316670031E9, 0.0, 2024-03-13 20:35:16.670
54.0, -640.1624153153971, 2836.8375330893323, 1009.5635536387563, -295.2987606013194, 0.01600000075995922, -0.11200000531971455, 1.0560000501573086, 0.0, 0.0, 0.0, 0.0, 0.0, 1.710387316670031E9, 0.0, 2024-03-13 20:35:16.670
55.0, -405.38458574702963, 2800.2687913225964, 778.3143196785823, -342.99370473623276, 0.01600000075995922, -0.11200000531971455, 1.0560000501573086, 0.0, 0.0, 0.0, 0.0, 0.0, 1.7103873166705184E9, 0.0, 2024-03-13 20:35:16.670
55.0, -645.6357589005493, 2601.163997481577, 1010.1413681819104, -473.32173839211464, 0.01600000075995922, -0.11200000531971455, 1.0560000501573086, 0.0, 0.0, 0.0, 0.0, 0.0, 1.7103873166705184E9, 0.0, 2024-03-13 20:35:16.670
56.0, -703.0937118697912, 2790.986359632574, 935.2480016192421, -315.97666745632887, 0.01600000075995922, -0.11200000531971455, 1.0560000501573086, 0.0, 0.0, 0.0, 0.0, 0.0, 1.7103873166839263E9, 0.0, 2024-03-13 20:35:16.683
56.0, -777.4092638893053, 3030.4689833451994, 917.4685172298923, -115.57225838070735, 0.01600000075995922, -0.11200000531971455, 1.0560000501573086, 0.0, 0.0, 0.0, 0.0, 0.0, 1.7103873166839263E9, 0.0, 2024-03-13 20:35:16.683
57.0, -644.1472787181847, 3019.208144578617, 1032.0796213219874, -71.49192755296826, 0.01600000075995922, -0.11200000531971455, 1.0560000501573086, 0.0, 0.0, 0.0, 0.0, 0.0, 1.7103873166997545E9, 0.0, 2024-03-13 20:35:16.699
57.0, -857.4543426409364, 3074.697040221188, 1256.447439363692, -16.08530970942229, 0.01600000075995922, -0.11200000531971455, 1.0560000501573086, 0.0, 0.0, 0.0, 0.0, 0.0, 1.7103873166997545E9, 0.0, 2024-03-13 20:35:16.699
58.0, -631.7177212154493, 3262.9972630902193, 1028.6632227124646, 107.59318182524294, 0.01600000075995922, -0.11200000531971455, 1.0560000501573086, 0.0, 0.0, 0.0, 0.0, 0.0, 1.71038731670049E9, 0.0, 2024-03-13 20:35:16.700
58.0, -535.4209072063677, 3113.1768708652817, 1133.995635014493, -14.664147726260126, 0.01600000075995922, -0.11200000531971455, 1.0560000501573086, 0.0, 0.0, 0.0, 0.0, 0.0, 1.71038731670049E9, 0.0, 2024-03-13 20:35:16.700
59.0, -514.6382831525989, 3320.9320533038117, 1113.987170251552, -247.38129241904244, 0.01600000075995922, -0.11200000531971455, 1.0560000501573086, 0.0, 0.0, 0.0, 0.0, 0.0, 1.710387316713966E9, 0.0, 2024-03-13 20:35:16.713
59.0, -628.2620536563918, 3335.603680829983, 1013.4493096927181, -291.45788334682584, 0.01600000075995922, -0.11200000531971455, 1.0560000501573086, 0.0, 0.0, 0.0, 0.0, 0.0, 1.710387316713966E9, 0.0, 2024-03-13 20:35:16.713
60.0, -407.22461652522907, 3293.7355008260347, 782.7648006258532, -340.0055246716365, 0.01600000075995922, -0.11200000531971455, 1.0560000501573086, 0.0, 0.0, 0.0, 0.0, 0.0, 1.7103873167300746E9, 0.0, 2024-03-13 20:35:16.730
60.0, -625.750710836146, 3100.775362612214, 1021.8173358435743, -462.90611701551825, 0.01600000075995922, -0.11200000531971455, 1.0560000501573086, 0.0, 0.0, 0.0, 0.0, 0.0, 1.7103873167300746E9, 0.0, 2024-03-13 20:35:16.730
61.0, -708.064038910903, 3282.126851363573, 932.3757584532723, -321.6613153889775, 0.01600000075995922, -0.11200000531971455, 1.0560000501573086, 0.0, 0.0, 0.0, 0.0, 0.0, 1.7103873167305954E9, 0.0, 2024-03-13 20:35:16.730
61.0, -745.6649930654094, 3042.219749005977, 918.5605680169538, -118.74743344308808, 0.01600000075995922, -0.11200000531971455, 1.0560000501573086, 0.0, 0.0, 0.0, 0.0, 0.0, 1.7103873167305954E9, 0.0, 2024-03-13 20:35:16.730
62.0, -638.571087884251, 3014.1144008389674, 1025.6582130980678, -80.89777594152838, 0.01600000075995922, -0.11200000531971455, 1.0560000501573086, 0.0, 0.0, 0.0, 0.0, 0.0, 1.710387316743963E9, 0.0, 2024-03-13 20:35:16.743
62.0, -849.7314492324367, 3074.5250048232265, 1259.8320488235913, -10.180007679387927, 0.01600000075995922, -0.11200000531971455, 1.0560000501573086, 0.0, 0.0, 0.0, 0.0, 0.0, 1.710387316743963E9, 0.0, 2024-03-13 20:35:16.743
63.0, -647.6010763272643, 3249.4663050505333, 1500.468431672547, 92.57374360319227, 0.01600000075995922, -0.11200000531971455, 1.0560000501573086, 0.0, 0.0, 0.0, 0.0, 0.0, 1.710387316759644E9, 0.0, 2024-03-13 20:35:16.759
63.0, -555.5789679675363, 3090.40088013513, 1608.4973118426278, -33.621700601652265, 0.01600000075995922, -0.11200000531971455, 1.0560000501573086, 0.0, 0.0, 0.0, 0.0, 0.0, 1.710387316759644E9, 0.0, 2024-03-13 20:35:16.759
64.0, -530.0317113702185, 3305.6321225850843, 1598.6613749591634, -255.72126932023093, 0.01600000075995922, -0.11200000531971455, 1.0560000501573086, 0.0, 0.0, 0.0, 0.0, 0.0, 1.7103873167605147E9, 0.0, 2024-03-13 20:35:16.760
64.0, -627.6524499636143, 3337.967297601979, 1503.8119022329338, -291.30828734859824, 0.01600000075995922, -0.11200000531971455, 1.0560000501573086, 0.0, 0.0, 0.0, 0.0, 0.0, 1.7103873167605147E9, 0.0, 2024-03-13 20:35:16.760
65.0, -393.2448704908602, 3307.333777064923, 1286.7817679042928, -326.84855662751943, 0.01600000075995922, -0.11200000531971455, 1.0560000501573086, 0.0, 0.0, 0.0, 0.0, 0.0, 1.7103873167739465E9, 0.0, 2024-03-13 20:35:16.773
65.0, -607.140968656633, 3108.4047585218213, 1513.5038529681042, -464.01686730235815, 0.01600000075995922, -0.11200000531971455, 1.0560000501573086, 0.0, 0.0, 0.0, 0.0, 0.0, 1.7103873167739465E9, 0.0, 2024-03-13 20:35:16.773
66.0, -730.3426229469478, 3263.988336578477, 1404.166007813532, -337.03604410681874, 0.01600000075995922, -0.11200000531971455, 1.0560000501573086, 0.0, 0.0, 0.0, 0.0, 0.0, 1.7103873167896872E9, 0.0, 2024-03-13 20:35:16.789
66.0, -752.5651084836572, 3035.042880991008, 1409.1138954549097, -116.20056157326326, 0.01600000075995922, -0.11200000531971455, 1.0560000501573086, 0.0, 0.0, 0.0, 0.0, 0.0, 1.7103873167896872E9, 0.0, 2024-03-13 20:35:16.789
67.0, -640.018429167103, 3011.017763675656, 1507.669609037228, -83.56806450989097, 0.01600000075995922, -0.11200000531971455, 1.0560000501573086, 0.0, 0.0, 0.0, 0.0, 0.0, 1.7103873167904105E9, 0.0, 2024-03-13 20:35:16.790
67.0, -837.3636000789702, 3082.7153857261874, 1264.3124489705078, -8.05574450455606, 0.01600000075995922, -0.11200000531971455, 1.0560000501573086, 0.0, 0.0, 0.0, 0.0, 0.0, 1.7103873167904105E9, 0.0, 2024-03-13 20:35:16.790
68.0, -641.8378904955462, 3241.9004874401726, 1503.1686394405551, 91.98283941019326, 0.01600000075995922, -0.11200000531971455, 1.0560000501573086, 0.0, 0.0, 0.0, 0.0, 0.0, 1.7103873168040094E9, 0.0, 2024-03-13 20:35:16.804
68.0, -563.2644623764791, 3090.3597412356175, 1611.0142645128071, -32.28281641751528, 0.01600000075995922, -0.11200000531971455, 1.0560000501573086, 0.0, 0.0, 0.0, 0.0, 0.0, 1.7103873168040094E9, 0.0, 2024-03-13 20:35:16.804
69.0, -535.7126194029115, 3298.3318378715776, 1602.5882699126378, -261.3273793538101, 0.01600000075995922, -0.11200000531971455, 1.0560000501573086, 0.0, 0.0, 0.0, 0.0, 0.0, 1.7103873168196812E9, 0.0, 2024-03-13 20:35:16.819
69.0, -628.1161975581199, 3331.362634280231, 1508.3484008791856, -287.60578639246523, 0.01600000075995922, -0.11200000531971455, 1.0560000501573086, 0.0, 0.0, 0.0, 0.0, 0.0, 1.7103873168196812E9, 0.0, 2024-03-13 20:35:16.819
70.0, -415.4823156273924, 3279.8903911900707, 1751.4288083491847, -349.9873176533729, 0.01600000075995922, -0.11200000531971455, 1.0560000501573086, 0.0, 0.0, 0.0, 0.0, 0.0, 1.7103873168204277E9, 0.0, 2024-03-13 20:35:16.820
70.0, -635.2350971237756, 3089.907213340979, 1994.2549026221968, -482.1553820874542, 0.01600000075995922, -0.11200000531971455, 1.0560000501573086, 0.0, 0.0, 0.0, 0.0, 0.0, 1.7103873168204277E9, 0.0, 2024-03-13 20:35:16.820
71.0, -707.1814225213602, 3271.0754469945095, 1904.2972190380096, -328.2697186106816, 0.01600000075995922, -0.12800000607967377, 1.0560000501573086, 0.0, 0.0, 0.0, 0.0, 0.0, 1.7103873168341691E9, 0.0, 2024-03-13 20:35:16.834
71.0, -742.3439619047567, 3048.0988717363216, 1909.3311243783683, -107.01162738213316, 0.01600000075995922, -0.12800000607967377, 1.0560000501573086, 0.0, 0.0, 0.0, 0.0, 0.0, 1.7103873168341691E9, 0.0, 2024-03-13 20:35:16.834
72.0, -652.6555511173792, 3007.4461592179723, 2007.1799968690611, -82.54707182198763, 0.01600000075995922, -0.12800000607967377, 1.0560000501573086, 0.0, 0.0, 0.0, 0.0, 0.0, 1.7103873168497517E9, 0.0, 2024-03-13 20:35:16.849
72.0, -860.8501718007028, 3072.4531002477743, 2246.8701850292273, -9.978053081780672, 0.01600000075995922, -0.12800000607967377, 1.0560000501573086, 0.0, 0.0, 0.0, 0.0, 0.0, 1.7103873168497517E9, 0.0, 2024-03-13 20:35:16.849
73.0, -635.0125730764121, 3247.166266577784, 2489.3839976559393, 100.58086940832436, 0.01600000075995922, -0.12800000607967377, 1.0560000501573086, 0.0, 0.0, 0.0, 0.0, 0.0, 1.7103873168506937E9, 0.0, 2024-03-13 20:35:16.850
73.0, -564.711803659331, 3090.535516533535, 2595.980496142991, -27.125494378618896, 0.01600000075995922, -0.12800000607967377, 1.0560000501573086, 0.0, 0.0, 0.0, 0.0, 0.0, 1.7103873168506937E9, 0.0, 2024-03-13 20:35:16.850
74.0, -537.2534581846558, 3305.4002487878315, 2587.1431125476956, -259.19563637906685, 0.01600000075995922, -0.12800000607967377, 1.0560000501573086, 0.0, 0.0, 0.0, 0.0, 0.0, 1.710387316864405E9, 0.0, 2024-03-13 20:35:16.864
74.0, -622.4801683248952, 3335.379286832642, 2495.465074983891, -286.3267406076193, 0.01600000075995922, -0.12800000607967377, 1.0560000501573086, 0.0, 0.0, 0.0, 0.0, 0.0, 1.710387316864405E9, 0.0, 2024-03-13 20:35:16.864
75.0, -410.71020328393206, 3281.719202268403, 2739.970384337008, -346.0192838003859, 0.01600000075995922, -0.12800000607967377, 1.0560000501573086, 0.0, 0.0, 0.0, 0.0, 0.0, 1.7103873168796835E9, 0.0, 2024-03-13 20:35:16.879
75.0, -636.0915342136286, 3079.547690463718, 2980.182288540993, -476.7848857510835, 0.01600000075995922, -0.12800000607967377, 1.0560000501573086, 0.0, 0.0, 0.0, 0.0, 0.0, 1.7103873168796835E9, 0.0, 2024-03-13 20:35:16.879
76.0, -709.6460165921599, 3256.6169937658124, 2886.641780799255, -332.24897216353565, 0.01600000075995922, -0.12800000607967377, 1.0560000501573086, 0.0, 0.0, 0.0, 0.0, 0.0, 1.7103873168804057E9, 0.0, 2024-03-13 20:35:16.880
76.0, -746.3344351574779, 3038.9959552441724, 2889.278410268016, -108.65344346268103, 0.01600000075995922, -0.12800000607967377, 1.0560000501573086, 0.0, 0.0, 0.0, 0.0, 0.0, 1.7103873168804057E9, 0.0, 2024-03-13 20:35:16.880
77.0, -639.3527269749902, 3010.221164985094, 2996.1928002513014, -78.95302796456963, 0.01600000075995922, -0.12800000607967377, 1.0560000501573086, 0.0, 0.0, 0.0, 0.0, 0.0, 1.7103873168940141E9, 0.0, 2024-03-13 20:35:16.894
77.0, -879.0148658854887, 3057.7104146224447, 3222.165035373997, -23.29209692403674, 0.01600000075995922, -0.12800000607967377, 1.0560000501573086, 0.0, 0.0, 0.0, 0.0, 0.0, 1.7103873168940141E9, 0.0, 2024-03-13 20:35:16.894
78.0, -647.761892025359, 3244.1107683139853, 2983.258356254548, 96.99430535081774, 0.01600000075995922, -0.12800000607967377, 1.0560000501573086, 0.0, 0.0, 0.0, 0.0, 0.0, 1.7103873169097002E9, 0.0, 2024-03-13 20:35:16.909
78.0, -560.6278329077177, 3086.111214885954, 3086.5749624804594, -32.05842242017388, 0.01600000075995922, -0.12800000607967377, 1.0560000501573086, 0.0, 0.0, 0.0, 0.0, 0.0, 1.7103873169097002E9, 0.0, 2024-03-13 20:35:16.909
79.0, -521.5421384708025, 3306.417501575779, 3068.4925461946987, -262.34837204171345, 0.01600000075995922, -0.12800000607967377, 1.0560000501573086, 0.0, 0.0, 0.0, 0.0, 0.0, 1.7103873169104056E9, 0.0, 2024-03-13 20:35:16.910
79.0, -634.0476788878441, 3331.141980182845, 2977.63354672119, -292.8117271307856, 0.01600000075995922, -0.12800000607967377, 1.0560000501573086, 0.0, 0.0, 0.0, 0.0, 0.0, 1.7103873169104056E9, 0.0, 2024-03-13 20:35:16.910
80.0, -397.4372983411886, 3297.8045119778253, 2745.5951938703656, -336.598475812003, 0.01600000075995922, -0.12800000607967377, 1.0560000501573086, 0.0, 0.0, 0.0, 0.0, 0.0, 1.7103873169239848E9, 0.0, 2024-03-13 20:35:16.923
80.0, -168.20200050715357, 3091.463011722546, 2974.6285371067934, -475.4460015669465, 0.01600000075995922, -0.12800000607967377, 1.0560000501573086, 0.0, 0.0, 0.0, 0.0, 0.0, 1.7103873169239848E9, 0.0, 2024-03-13 20:35:16.923
81.0, -228.9398457375355, 3262.469937196467, 2884.820449520834, -332.6416616588831, 0.01600000075995922, -0.12800000607967377, 1.0560000501573086, 0.0, 0.0, 0.0, 0.0, 0.0, 1.7103873169397056E9, 0.0, 2024-03-13 20:35:16.939
81.0, -259.45742937596515, 3036.250868676696, 2888.2761170798913, -108.56368586374447, 0.01600000075995922, -0.12800000607967377, 1.0560000501573086, 0.0, 0.0, 0.0, 0.0, 0.0, 1.7103873169397056E9, 0.0, 2024-03-13 20:35:16.939
82.0, -155.43398205842823, 3007.5770557164215, 2999.214639415499, -78.07041157502681, 0.01600000075995922, -0.12800000607967377, 1.0560000501573086, 0.0, 0.0, 0.0, 0.0, 0.0, 1.7103873169403596E9, 0.0, 2024-03-13 20:35:16.940
82.0, -376.11238879384473, 3064.4048355431296, 3225.5683443336748, -18.351689082570374, 0.01600000075995922, -0.12800000607967377, 1.0560000501573086, 0.0, 0.0, 0.0, 0.0, 0.0, 1.7103873169403596E9, 0.0, 2024-03-13 20:35:16.940
83.0, -162.28734872722998, 3242.255777935963, 3464.2412797058932, 96.28372435923666, 0.01600000075995922, -0.12800000607967377, 1.0560000501573086, 0.0, 0.0, 0.0, 0.0, 0.0, 1.7103873169540088E9, 0.0, 2024-03-13 20:35:16.954
83.0, -81.02119264006615, 3086.0401567867957, 3571.1182706896216, -29.04032315593213, 0.01600000075995922, -0.12800000607967377, 1.0560000501573086, 0.0, 0.0, 0.0, 0.0, 0.0, 1.7103873169540088E9, 0.0, 2024-03-13 20:35:16.954
84.0, -31.968664821237326, 3296.4656277936883, 3551.502495422028, -266.09575179731473, 0.01600000075995922, -0.12800000607967377, 1.0560000501573086, 0.0, 0.0, 0.0, 0.0, 0.0, 1.7103873169696913E9, 0.0, 2024-03-13 20:35:16.969
84.0, -153.02361653698608, 3328.5203103139065, 3462.1544155306183, -292.22830273769796, 0.01600000075995922, -0.12800000607967377, 1.0560000501573086, 0.0, 0.0, 0.0, 0.0, 0.0, 1.7103873169696913E9, 0.0, 2024-03-13 20:35:16.969
85.0, 77.04193908721209, 3293.81777862506, 3236.0026652100496, -340.3121964680031, 0.01600000075995922, -0.12800000607967377, 1.0560000501573086, 0.0, 0.0, 0.0, 0.0, 0.0, 1.7103873169705396E9, 0.0, 2024-03-13 20:35:16.970
85.0, -122.69863774627447, 3102.89588588709, 3480.60895186197, -465.0640392899513, 0.01600000075995922, -0.12800000607967377, 1.0560000501573086, 0.0, 0.0, 0.0, 0.0, 0.0, 1.7103873169705396E9, 0.0, 2024-03-13 20:35:16.970
86.0, -213.84186961641535, 3269.8450199090876, 3374.162049373146, -329.0550976013765, 0.01600000075995922, -0.12800000607967377, 1.0560000501573086, 0.0, 0.0, 0.0, 0.0, 0.0, 1.7103873169839811E9, 0.0, 2024-03-13 20:35:16.983
86.0, -268.2948129712604, 3045.8586716628633, 3373.1223571854644, -107.1051248810254, 0.01600000075995922, -0.12800000607967377, 1.0560000501573086, 0.0, 0.0, 0.0, 0.0, 0.0, 1.7103873169839811E9, 0.0, 2024-03-13 20:35:16.983
87.0, -150.2916196193546, 3014.252777137328, 3476.386604811996, -80.31061164848506, 0.01600000075995922, -0.12800000607967377, 1.0560000501573086, 0.0, 0.0, 0.0, 0.0, 0.0, 1.7103873169997144E9, 0.0, 2024-03-13 20:35:16.999
87.0, -362.6337893535383, 3075.287944414187, 3711.4093978274614, -14.361215829849243, 0.01600000075995922, -0.12800000607967377, 1.0560000501573086, 0.0, 0.0, 0.0, 0.0, 0.0, 1.7103873169997144E9, 0.0, 2024-03-13 20:35:16.999
88.0, -160.7988685448654, 3247.3270822758786, 3470.6776475296356, 105.61103484872729, 0.01600000075995922, -0.12800000607967377, 1.0560000501573086, 0.0, 0.0, 0.0, 0.0, 0.0, 1.7103873170004327E9, 0.0, 2024-03-13 20:35:17.000
88.0, -62.01502106525004, 3099.0924076321535, 3586.526658507064, -10.153828379698098, 0.01600000075995922, -0.12800000607967377, 1.0560000501573086, 0.0, 0.0, 0.0, 0.0, 0.0, 1.7103873170004327E9, 0.0, 2024-03-13 20:35:17.000
89.0, -37.82160825189203, 3305.7405796837993, 3565.758994053118, -250.59012658102438, 0.01600000075995922, -0.12800000607967377, 1.0560000501573086, 0.0, 0.0, 0.0, 0.0, 0.0, 1.7103873170140977E9, 0.0, 2024-03-13 20:35:17.014
89.0, -149.0181836844422, 3330.3566011921503, 3457.9919068799354, -292.2208229377866, 0.01600000075995922, -0.12800000607967377, 1.0560000501573086, 0.0, 0.0, 0.0, 0.0, 0.0, 1.7103873170140977E9, 0.0, 2024-03-13 20:35:17.014
90.0, -390.36888742493466, 3304.9925996926613, 3241.6087752436288, -326.1491953358054, 0.01600000075995922, -0.12800000607967377, 1.0560000501573086, 0.0, 0.0, 0.0, 0.0, 0.0, 1.7103873170296535E9, 0.0, 2024-03-13 20:35:17.029
90.0, -150.4374757176265, 3100.0760013205, 3478.3126532891765, -464.17020320054144, 0.01600000075995922, -0.12800000607967377, 1.0560000501573086, 0.0, 0.0, 0.0, 0.0, 0.0, 1.7103873170296535E9, 0.0, 2024-03-13 20:35:17.029
91.0, -216.05589039018378, 3274.6919302516617, 3381.2229804894887, -320.2700726054609, 0.01600000075995922, -0.11200000531971455, 1.0560000501573086, 0.0, 0.0, 0.0, 0.0, 0.0, 1.7103873170303848E9, 0.0, 2024-03-13 20:35:17.030
91.0, -249.30360099626705, 3049.68832921749, 3379.094977414701, -100.90437075449154, 0.01600000075995922, -0.11200000531971455, 1.0560000501573086, 0.0, 0.0, 0.0, 0.0, 0.0, 1.7103873170303848E9, 0.0, 2024-03-13 20:35:17.030
92.0, -143.26434760261327, 3016.444358511362, 3480.320979565382, -76.10696409828961, 0.01600000075995922, -0.11200000531971455, 1.0560000501573086, 0.0, 0.0, 0.0, 0.0, 0.0, 1.710387317043975E9, 0.0, 2024-03-13 20:35:17.043
92.0, -368.36331608565524, 3060.9716073838063, 3696.517116203904, -24.567402808927, 0.01600000075995922, -0.11200000531971455, 1.0560000501573086, 0.0, 0.0, 0.0, 0.0, 0.0, 1.710387317043975E9, 0.0, 2024-03-13 20:35:17.043
93.0, -140.46503248577937, 3256.6656124652363, 3476.511891460512, 105.97006524447352, 0.01600000075995922, -0.11200000531971455, 1.0560000501573086, 0.0, 0.0, 0.0, 0.0, 0.0, 1.710387317060013E9, 0.0, 2024-03-13 20:35:17.060
93.0, -63.04723345302045, 3102.390999393072, 3586.3770625088364, -18.744378577917814, 0.01600000075995922, -0.11200000531971455, 1.0560000501573086, 0.0, 0.0, 0.0, 0.0, 0.0, 1.710387317060013E9, 0.0, 2024-03-13 20:35:17.060
94.0, -25.666933395899832, 3302.0941772270016, 3558.776600835845, -263.7358749252744, 0.01600000075995922, -0.11200000531971455, 1.0560000501573086, 0.0, 0.0, 0.0, 0.0, 0.0, 1.7103873170606625E9, 0.0, 2024-03-13 20:35:17.060
94.0, -134.74298555357382, 3333.2587635577656, 3467.487512867432, -286.44641740620136, 0.01600000075995922, -0.11200000531971455, 1.0560000501573086, 0.0, 0.0, 0.0, 0.0, 0.0, 1.7103873170606625E9, 0.0, 2024-03-13 20:35:17.060
95.0, 69.70799527410418, 3283.8098063436337, 3226.7800719193183, -345.5704958057031, 0.01600000075995922, -0.11200000531971455, 1.0560000501573086, 0.0, 0.0, 0.0, 0.0, 0.0, 1.7103873170739615E9, 0.0, 2024-03-13 20:35:17.073
95.0, -152.41214289423078, 3077.1803337917663, 3462.642472474836, -483.32971067354083, 0.01600000075995922, -0.11200000531971455, 1.0560000501573086, 0.0, 0.0, 0.0, 0.0, 0.0, 1.7103873170739615E9, 0.0, 2024-03-13 20:35:17.073
96.0, -229.2390377339907, 3251.6803258243017, 3362.358925112989, -342.4663788424805, 0.01600000075995922, -0.11200000531971455, 1.0560000501573086, 0.0, 0.0, 0.0, 0.0, 0.0, 1.7103873170896635E9, 0.0, 2024-03-13 20:35:17.089
96.0, -254.50206193467602, 3040.144104530569, 3374.8352313651703, -104.70784900942817, 0.01600000075995922, -0.11200000531971455, 1.0560000501573086, 0.0, 0.0, 0.0, 0.0, 0.0, 1.7103873170896635E9, 0.0, 2024-03-13 20:35:17.089
97.0, -161.94140798132867, 3017.7308840961196, 3479.610398573801, -75.35898410715163, 0.01600000075995922, -0.11200000531971455, 1.0560000501573086, 0.0, 0.0, 0.0, 0.0, 0.0, 1.7103873170903656E9, 0.0, 2024-03-13 20:35:17.090
97.0, -394.9016461712308, 3059.887036396656, 3702.538355132565, -24.59732200857252, 0.01600000075995922, -0.11200000531971455, 1.0560000501573086, 0.0, 0.0, 0.0, 0.0, 0.0, 1.7103873170903656E9, 0.0, 2024-03-13 20:35:17.090
98.0, -153.8351748273708, 3252.892053409945, 3474.529744483996, 111.51633687876165, 0.01600000075995922, -0.11200000531971455, 1.0560000501573086, 0.0, 0.0, 0.0, 0.0, 0.0, 1.710387317103988E9, 0.0, 2024-03-13 20:35:17.103
98.0, -42.810634792782366, 3111.097486489918, 3593.482872424647, -8.224040002562106, 0.01600000075995922, -0.11200000531971455, 1.0560000501573086, 0.0, 0.0, 0.0, 0.0, 0.0, 1.710387317103988E9, 0.0, 2024-03-13 20:35:17.103
99.0, -22.775990730151534, 3307.442234163638, 3567.8720375280827, 232.27396654803306, 0.01600000075995922, -0.11200000531971455, 1.0560000501573086, 0.0, 0.0, 0.0, 0.0, 0.0, 1.7103873171196556E9, 0.0, 2024-03-13 20:35:17.119
99.0, -130.99934569792822, 3333.341041356791, 3464.3497368046083, 202.93632134562358, 0.01600000075995922, -0.11200000531971455, 1.0560000501573086, 0.0, 0.0, 0.0, 0.0, 0.0, 1.7103873171196556E9, 0.0, 2024-03-13 20:35:17.119
100.0, 95.97705256287009, 3301.8323842301033, 3238.624335078988, 161.37481313804165, 0.01600000075995922, -0.11200000531971455, 1.0560000501573086, 0.0, 0.0, 0.0, 0.0, 0.0, 1.7103873171203496E9, 0.0, 2024-03-13 20:35:17.120
100.0, 336.22635576641187, 3088.7328847548924, 3462.470437076874, 9.564794136676937, 0.01600000075995922, -0.11200000531971455, 1.0560000501573086, 0.0, 0.0, 0.0, 0.0, 0.0, 1.7103873171203496E9, 0.0, 2024-03-13 20:35:17.120
0.0, -217.9407999678515, 329.1186759006232, -57.966579363215715, 156.53351264540106, 0.01600000075995922, -0.11200000531971455, 1.0560000501573086, 0.0, 0.0, 0.0, 0.0, 0.0, 1.7103873171346796E9, 0.0, 2024-03-13 20:35:17.134
1.0, -239.6097803111188, 120.32006137445569, -42.614290045108646, 399.22497052000836, 0.01600000075995922, -0.11200000531971455, 1.0560000501573086, 0.0, 0.0, 0.0, 0.0, 0.0, 1.710387317135372E9, 0.0, 2024-03-13 20:35:17.135
1.0, -128.7647554744035, 93.9687262866646, 58.09560591168702, 421.37078810762614, 0.01600000075995922, -0.11200000531971455, 1.0560000501573086, 0.0, 0.0, 0.0, 0.0, 0.0, 1.710387317135372E9, 0.0, 2024-03-13 20:35:17.135
2.0, 114.16044614743441, 134.3259867085144, 280.6607921747491, 476.9681408489123, 0.01600000075995922, -0.11200000531971455, 1.0560000501573086, 0.0, 0.0, 0.0, 0.0, 0.0, 1.7103873171492097E9, 0.0, 2024-03-13 20:35:17.149
2.0, 325.80512453988194, 321.31724459305406, 44.42440162366256, 606.4397374149412, 0.01600000075995922, -0.11200000531971455, 1.0560000501573086, 0.0, 0.0, 0.0, 0.0, 0.0, 1.7103873171492097E9, 0.0, 2024-03-13 20:35:17.149
3.0, 442.8658631029539, 182.645494136028, 169.29405129421502, 496.1276483219117, 0.01600000075995922, -0.11200000531971455, 1.0560000501573086, 0.0, 0.0, 0.0, 0.0, 0.0, 1.7103873171647103E9, 0.0, 2024-03-13 20:35:17.164
3.0, 475.4964902163483, 373.9825157690793, 145.0295803816989, 733.0839696144685, 0.01600000075995922, -0.11200000531971455, 1.0560000501573086, 0.0, 0.0, 0.0, 0.0, 0.0, 1.7103873171647103E9, 0.0, 2024-03-13 20:35:17.164
4.0, 369.849926318042, 408.2736584628001, 43.044378540012985, 708.8550277515315, 0.01600000075995922, -0.11200000531971455, 1.0560000501573086, 0.0, 0.0, 0.0, 0.0, 0.0, 1.7103873171653829E9, 0.0, 2024-03-13 20:35:17.165
4.0, 594.6497028046288, 378.8930044109002, -183.60851837461814, 668.8530578254722, 0.01600000075995922, -0.11200000531971455, 1.0560000501573086, 0.0, 0.0, 0.0, 0.0, 0.0, 1.7103873171653829E9, 0.0, 2024-03-13 20:35:17.165
5.0, 364.6720348293893, 168.43761420436203, 48.491542825475335, 517.929395113606, 0.01600000075995922, -0.11200000531971455, 1.0560000501573086, 0.0, 0.0, 0.0, 0.0, 0.0, 1.7103873171792495E9, 0.0, 2024-03-13 20:35:17.179
5.0, 286.016328911297, 340.47301216609776, -54.95595989888534, 661.9978212066926, 0.01600000075995922, -0.11200000531971455, 1.0560000501573086, 0.0, 0.0, 0.0, 0.0, 0.0, 1.7103873171792495E9, 0.0, 2024-03-13 20:35:17.179
6.0, 238.76643287111074, 122.48546344880015, -47.69307418493554, 889.3519493630156, 0.01600000075995922, -0.11200000531971455, 1.0560000501573086, 0.0, 0.0, 0.0, 0.0, 0.0, 1.7103873171948256E9, 0.0, 2024-03-13 20:35:17.194
6.0, 365.55091131897643, 88.30651775375009, 58.593012605793774, 908.5582055854611, 0.01600000075995922, -0.11200000531971455, 1.0560000501573086, 0.0, 0.0, 0.0, 0.0, 0.0, 1.7103873171948256E9, 0.0, 2024-03-13 20:35:17.194
7.0, 139.81615984346718, 127.57546728849411, 282.55692145228386, 960.0902870749123, 0.01600000075995922, -0.11200000531971455, 1.0560000501573086, 0.0, 0.0, 0.0, 0.0, 0.0, 1.7103873171954403E9, 0.0, 2024-03-13 20:35:17.195
7.0, 361.7193838143721, 317.43522843904793, 43.20519423810765, 1087.3665623669513, 0.01600000075995922, -0.11200000531971455, 1.0560000501573086, 0.0, 0.0, 0.0, 0.0, 0.0, 1.7103873171954403E9, 0.0, 2024-03-13 20:35:17.195
8.0, 449.80711742071435, 166.13757573161274, 157.94345492869616, 965.0905333156697, 0.01600000075995922, -0.11200000531971455, 1.0560000501573086, 0.0, 0.0, 0.0, 0.0, 0.0, 1.710387317208972E9, 0.0, 2024-03-13 20:35:17.208
8.0, 453.2627849797718, 363.2003841968253, 127.42213139031082, 1205.8952116626315, 0.01600000075995922, -0.11200000531971455, 1.0560000501573086, 0.0, 0.0, 0.0, 0.0, 0.0, 1.710387317208972E9, 0.0, 2024-03-13 20:35:17.208
9.0, 348.9438855657354, 389.24130758829415, 27.886564019601792, 1178.8763044327497, 0.01600000075995922, -0.11200000531971455, 1.0560000501573086, 0.0, 0.0, 0.0, 0.0, 0.0, 1.7103873172246933E9, 0.0, 2024-03-13 20:35:17.224
9.0, 575.0152280372567, 354.9090259950608, -202.77176574757323, 1134.4163737595081, 0.01600000075995922, -0.11200000531971455, 1.0560000501573086, 0.0, 0.0, 0.0, 0.0, 0.0, 1.7103873172246933E9, 0.0, 2024-03-13 20:35:17.224
10.0, 337.04165395675227, 138.27158116176724, 29.077722155489028, 983.1374205518514, 0.01600000075995922, -0.11200000531971455, 1.0560000501573086, 0.0, 0.0, 0.0, 0.0, 0.0, 1.710387317225418E9, 0.0, 2024-03-13 20:35:17.225
10.0, 260.7570446105674, 310.71462821867317, -70.11751431925222, 1127.7668316382915, 0.01600000075995922, -0.11200000531971455, 1.0560000501573086, 0.0, 0.0, 0.0, 0.0, 0.0, 1.710387317225418E9, 0.0, 2024-03-13 20:35:17.225
11.0, 248.4901727559045, 120.42103867325932, -44.723593620117754, 882.9716800386086, 0.01600000075995922, -0.11200000531971455, 1.0560000501573086, 0.0, 0.0, 0.0, 0.0, 0.0, 1.7103873172389958E9, 0.0, 2024-03-13 20:35:17.238
11.0, 329.1803842498921, 65.60906492266804, 47.48550973739475, 894.6233383505605, 0.01600000075995922, -0.11200000531971455, 1.0560000501573086, 0.0, 0.0, 0.0, 0.0, 0.0, 1.7103873172389958E9, 0.0, 2024-03-13 20:35:17.238
12.0, 111.84544807486236, 114.66533264145255, 274.5086567476392, 955.318174731452, 0.01600000075995922, -0.11200000531971455, 1.0560000501573086, 0.0, 0.0, 0.0, 0.0, 0.0, 1.7103873172546704E9, 0.0, 2024-03-13 20:35:17.254
12.0, 338.3861479908228, 310.3368983231485, 38.15258939797059, 1086.0688170823269, 0.01600000075995922, -0.11200000531971455, 1.0560000501573086, 0.0, 0.0, 0.0, 0.0, 0.0, 1.7103873172546704E9, 0.0, 2024-03-13 20:35:17.254
13.0, 424.42441642144695, 151.64172350335866, 141.64871082175523, 952.8685402604751, 0.01600000075995922, -0.11200000531971455, 1.0560000501573086, 0.0, 0.0, 0.0, 0.0, 0.0, 1.7103873172553766E9, 0.0, 2024-03-13 20:35:17.255
13.0, 432.09869113052264, 342.3055631443858, 109.28361660521477, 1184.2075318195857, 0.01600000075995922, -0.11200000531971455, 1.0560000501573086, 0.0, 0.0, 0.0, 0.0, 0.0, 1.7103873172553766E9, 0.0, 2024-03-13 20:35:17.255
14.0, 343.88006102573127, 377.15769083146006, 13.420630990993232, 1166.4673163797706, 0.01600000075995922, -0.11200000531971455, 1.0560000501573086, 0.0, 0.0, 0.0, 0.0, 0.0, 1.7103873172693896E9, 0.0, 2024-03-13 20:35:17.269
14.0, 572.5543738664128, 350.6941587449983, -204.7127738245763, 1131.5179512938485, 0.01600000075995922, -0.11200000531971455, 1.0560000501573086, 0.0, 0.0, 0.0, 0.0, 0.0, 1.7103873172693896E9, 0.0, 2024-03-13 20:35:17.269
15.0, 339.71194252511486, 143.24190820287913, 29.197398954071105, 982.8157891556621, 0.01600000075995922, -0.11200000531971455, 1.0560000501573086, 0.0, 0.0, 0.0, 0.0, 0.0, 1.7103873172847984E9, 0.0, 2024-03-13 20:35:17.284
15.0, 257.0582835543901, 312.71921459492296, -74.26506337011233, 1123.82871698495, 0.01600000075995922, -0.11200000531971455, 1.0560000501573086, 0.0, 0.0, 0.0, 0.0, 0.0, 1.7103873172847984E9, 0.0, 2024-03-13 20:35:17.284
16.0, 233.98684072773904, 112.6831856649369, -51.83314343588427, 881.4383210567757, 0.01600000075995922, -0.11200000531971455, 1.0560000501573086, 0.0, 0.0, 0.0, 0.0, 0.0, 1.7103873172853806E9, 0.0, 2024-03-13 20:35:17.285
16.0, 330.3210537363775, 67.87170439586043, 47.54534813668579, 896.3698716298677, 0.01600000075995922, -0.11200000531971455, 1.0560000501573086, 0.0, 0.0, 0.0, 0.0, 0.0, 1.7103873172853806E9, 0.0, 2024-03-13 20:35:17.285
17.0, 113.03099636081606, 101.77015759423375, 258.5018849372864, 940.0706026121043, 0.01600000075995922, -0.11200000531971455, 1.0560000501573086, 0.0, 0.0, 0.0, 0.0, 0.0, 1.7103873172989633E9, 0.0, 2024-03-13 20:35:17.298
17.0, 337.69800639897585, 300.4336432404816, 29.883670595940202, 1076.0047463015653, 0.01600000075995922, -0.11200000531971455, 1.0560000501573086, 0.0, 0.0, 0.0, 0.0, 0.0, 1.7103873172989633E9, 0.0, 2024-03-13 20:35:17.298
18.0, 419.11749838432297, 139.70770274475217, 136.5811463817954, 941.9517722898163, 0.01600000075995922, -0.11200000531971455, 1.0560000501573086, 0.0, 0.0, 0.0, 0.0, 0.0, 1.7103873173152487E9, 0.0, 2024-03-13 20:35:17.315
18.0, 427.3340585869737, 327.76483211666346, 107.06211603153497, 1177.352295200806, 0.01600000075995922, -0.11200000531971455, 1.0560000501573086, 0.0, 0.0, 0.0, 0.0, 0.0, 1.7103873173152487E9, 0.0, 2024-03-13 20:35:17.315
19.0, 336.4974985131994, 373.74690207187086, 19.1015390236862, 1165.5323413908482, 0.01600000075995922, -0.11200000531971455, 1.0560000501573086, 0.0, 0.0, 0.0, 0.0, 0.0, 1.7103873173154547E9, 0.0, 2024-03-13 20:35:17.315
19.0, 564.6332657602616, 351.74881053250283, -197.93981500482187, 1132.9129339773208, 0.01600000075995922, -0.11200000531971455, 1.0560000501573086, 0.0, 0.0, 0.0, 0.0, 0.0, 1.7103873173154547E9, 0.0, 2024-03-13 20:35:17.315
20.0, 340.0410537212156, 133.24141572136432, 29.264717153273523, 977.5275706183165, 0.01600000075995922, -0.11200000531971455, 1.0560000501573086, 0.0, 0.0, 0.0, 0.0, 0.0, 1.7103873173293736E9, 0.0, 2024-03-13 20:35:17.329
20.0, 242.06502463202924, 311.8066790057346, -68.81976903462783, 1126.6224222518504, 0.01600000075995922, -0.11200000531971455, 1.0560000501573086, 0.0, 0.0, 0.0, 0.0, 0.0, 1.7103873173293736E9, 0.0, 2024-03-13 20:35:17.329
21.0, 233.7437472306192, 106.1234011426568, -49.41716806450859, 1370.2937339148484, 0.01600000075995922, -0.12800000607967377, 1.0560000501573086, 0.0, 0.0, 0.0, 0.0, 0.0, 1.7103873173444252E9, 0.0, 2024-03-13 20:35:17.344
21.0, 341.93718299875036, 68.82163898460567, 53.11031927075237, 1390.1245534298941, 0.01600000075995922, -0.12800000607967377, 1.0560000501573086, 0.0, 0.0, 0.0, 0.0, 0.0, 1.7103873173444252E9, 0.0, 2024-03-13 20:35:17.344
22.0, 99.96004601567984, 99.7506116181612, 264.0219772718847, 1431.3532105414197, 0.01600000075995922, -0.12800000607967377, 1.0560000501573086, 0.0, 0.0, 0.0, 0.0, 0.0, 1.7103873173597236E9, 0.0, 2024-03-13 20:35:17.359
22.0, 338.5993222882971, 304.6634700903669, 40.33669097209349, 1574.3258459474891, 0.01600000075995922, -0.12800000607967377, 1.0560000501573086, 0.0, 0.0, 0.0, 0.0, 0.0, 1.7103873173597236E9, 0.0, 2024-03-13 20:35:17.359
23.0, 444.88166917907074, 160.9278950933367, 145.23901477921754, 1448.149101242423, 0.01600000075995922, -0.12800000607967377, 1.0560000501573086, 0.0, 0.0, 0.0, 0.0, 0.0, 1.7103873173607788E9, 0.0, 2024-03-13 20:35:17.360
23.0, 452.46992618916556, 347.39930688403547, 116.66991901770234, 1687.203506410122, 0.01600000075995922, -0.12800000607967377, 1.0560000501573086, 0.0, 0.0, 0.0, 0.0, 0.0, 1.7103873173607788E9, 0.0, 2024-03-13 20:35:17.360
24.0, 338.7264788867906, 378.5975523144007, 18.25632163370028, 1659.5039373883046, 0.01600000075995922, -0.12800000607967377, 1.0560000501573086, 0.0, 0.0, 0.0, 0.0, 0.0, 1.7103873173746805E9, 0.0, 2024-03-13 20:35:17.374
24.0, 581.7694873572327, 363.30884129554033, -187.24744103150442, 1634.5438450840302, 0.01600000075995922, -0.12800000607967377, 1.0560000501573086, 0.0, 0.0, 0.0, 0.0, 0.0, 1.7103873173746805E9, 0.0, 2024-03-13 20:35:17.374
25.0, 353.1494030659087, 149.49128102883697, 39.55318193137646, 1479.3716560225002, 0.01600000075995922, -0.12800000607967377, 1.0560000501573086, 0.0, 0.0, 0.0, 0.0, 0.0, 1.7103873173753953E9, 0.0, 2024-03-13 20:35:17.375
25.0, 272.6162673700601, 327.43198102060705, -55.25515189534053, 1629.0312325493433, 0.01600000075995922, -0.12800000607967377, 1.0560000501573086, 0.0, 0.0, 0.0, 0.0, 0.0, 1.7103873173753953E9, 0.0, 2024-03-13 20:35:17.375
26.0, 243.05609812028706, 120.34624067414552, -51.24597914284095, 1869.3328943522647, 0.01600000075995922, -0.12800000607967377, 1.0560000501573086, 0.0, 0.0, 0.0, 0.0, 0.0, 1.7103873173889625E9, 0.0, 2024-03-13 20:35:17.388
26.0, 350.68106909515336, 78.54537886939943, 52.496975678019226, 1882.4244141471572, 0.01600000075995922, -0.12800000607967377, 1.0560000501573086, 0.0, 0.0, 0.0, 0.0, 0.0, 1.7103873173889625E9, 0.0, 2024-03-13 20:35:17.388
27.0, 124.392812426202, 108.96572510898113, 260.7869638102129, 1920.044067801442, 0.01600000075995922, -0.12800000607967377, 1.0560000501573086, 0.0, 0.0, 0.0, 0.0, 0.0, 1.7103873174047077E9, 0.0, 2024-03-13 20:35:17.404
27.0, 353.5813615107909, 306.27162707131356, 17.44850324327126, 2055.278850199189, 0.01600000075995922, -0.12800000607967377, 1.0560000501573086, 0.0, 0.0, 0.0, 0.0, 0.0, 1.7103873174047077E9, 0.0, 2024-03-13 20:35:17.404
28.0, 451.58356989966705, 161.02887239214033, 141.9591225180775, 1934.3529250319116, 0.01600000075995922, -0.12800000607967377, 1.0560000501573086, 0.0, 0.0, 0.0, 0.0, 0.0, 1.7103873174054527E9, 0.0, 2024-03-13 20:35:17.405
28.0, 429.1890489649959, 348.85786786675453, 110.77957658749074, 2166.1818434852175, 0.01600000075995922, -0.12800000607967377, 1.0560000501573086, 0.0, 0.0, 0.0, 0.0, 0.0, 1.7103873174054527E9, 0.0, 2024-03-13 20:35:17.405
29.0, 352.95679821819067, 393.7890259344131, 28.122177716810256, 2161.591116289608, 0.01600000075995922, -0.12800000607967377, 1.0560000501573086, 0.0, 0.0, 0.0, 0.0, 0.0, 1.7103873174189663E9, 0.0, 2024-03-13 20:35:17.418
29.0, 108.68897251226008, 373.53372777439654, -184.00868766987696, 2130.175956661813, 0.01600000075995922, -0.12800000607967377, 1.0560000501573086, 0.0, 0.0, 0.0, 0.0, 0.0, 1.7103873174189663E9, 0.0, 2024-03-13 20:35:17.418
30.0, 346.0361133501865, 143.42516330070794, 31.628333925269544, 1964.7265225220472, 0.01600000075995922, -0.12800000607967377, 1.0560000501573086, 0.0, 0.0, 0.0, 0.0, 0.0, 1.710387317434677E9, 0.0, 2024-03-13 20:35:17.434
30.0, 255.61842207144946, 318.75541312340647, -75.46931115584448, 2104.292109068483, 0.01600000075995922, -0.12800000607967377, 1.0560000501573086, 0.0, 0.0, 0.0, 0.0, 0.0, 1.710387317434677E9, 0.0, 2024-03-13 20:35:17.434
31.0, 245.25515929423273, 122.60514024738222, -51.548911039251834, 1869.7929020468146, 0.01600000075995922, -0.12800000607967377, 1.0560000501573086, 0.0, 0.0, 0.0, 0.0, 0.0, 1.7103873174354265E9, 0.0, 2024-03-13 20:35:17.435
31.0, 334.5546204862185, 67.55755279958248, 44.882539368234575, 1872.416441865731, 0.01600000075995922, -0.12800000607967377, 1.0560000501573086, 0.0, 0.0, 0.0, 0.0, 0.0, 1.7103873174354265E9, 0.0, 2024-03-13 20:35:17.435
32.0, 102.72757198289037, 108.4944977145642, 265.5029776543379, 1927.5911859120242, 0.01600000075995922, -0.12800000607967377, 1.0560000501573086, 0.0, 0.0, 0.0, 0.0, 0.0, 1.7103873174490108E9, 0.0, 2024-03-13 20:35:17.449
32.0, 328.1911807116121, 302.3372523179278, 25.12651785230264, 2062.657672811765, 0.01600000075995922, -0.12800000607967377, 1.0560000501573086, 0.0, 0.0, 0.0, 0.0, 0.0, 1.7103873174490108E9, 0.0, 2024-03-13 20:35:17.449
33.0, 448.14286194043234, 156.5933510446921, 147.1837627561763, 1939.8393582669087, 0.01600000075995922, -0.12800000607967377, 1.0560000501573086, 0.0, 0.0, 0.0, 0.0, 0.0, 1.7103873174647012E9, 0.0, 2024-03-13 20:35:17.464
33.0, 413.2159362542443, 327.8545897156, 108.84230841044337, 2158.443990476895, 0.01600000075995922, -0.12800000607967377, 1.0560000501573086, 0.0, 0.0, 0.0, 0.0, 0.0, 1.7103873174647012E9, 0.0, 2024-03-13 20:35:17.464
34.0, 314.8846166692674, 373.0026619806886, 18.050627136137336, 2153.5540712848306, 0.01600000075995922, -0.12800000607967377, 1.0560000501573086, 0.0, 0.0, 0.0, 0.0, 0.0, 1.7103873174654293E9, 0.0, 2024-03-13 20:35:17.465
34.0, 79.2596997609362, 361.63336611539125, -192.49452066933736, 2122.684937050566, 0.01600000075995922, -0.12800000607967377, 1.0560000501573086, 0.0, 0.0, 0.0, 0.0, 0.0, 1.7103873174654293E9, 0.0, 2024-03-13 20:35:17.465
35.0, -142.96515560615808, 135.3955980958417, 26.94971908070147, 1959.4420438846573, 0.01600000075995922, -0.12800000607967377, 1.0560000501573086, 0.0, 0.0, 0.0, 0.0, 0.0, 1.7103873174791453E9, 0.0, 2024-03-13 20:35:17.479
35.0, -221.7517580226995, 309.1476101372391, -78.65944581804797, 2100.627007111907, 0.01600000075995922, -0.12800000607967377, 1.0560000501573086, 0.0, 0.0, 0.0, 0.0, 0.0, 1.7103873174791453E9, 0.0, 2024-03-13 20:35:17.479
36.0, -239.10863371705636, 119.59078088309616, -51.167441243771464, 1870.4698239387944, 0.01600000075995922, -0.12800000607967377, 1.0560000501573086, 0.0, 0.0, 0.0, 0.0, 0.0, 1.710387317495028E9, 0.0, 2024-03-13 20:35:17.495
36.0, -140.57535953447223, 74.81669861357659, 50.881338897161186, 1876.5340717169456, 0.01600000075995922, -0.12800000607967377, 1.0560000501573086, 0.0, 0.0, 0.0, 0.0, 0.0, 1.710387317495028E9, 0.0, 2024-03-13 20:35:17.495
37.0, -380.933119836729, 104.96777205634862, 255.91761406790465, 1914.931624562014, 0.01600000075995922, -0.12800000607967377, 1.0560000501573086, 0.0, 0.0, 0.0, 0.0, 0.0, 1.7103873174954607E9, 0.0, 2024-03-13 20:35:17.495
37.0, -147.63442070083693, 312.7491337945685, 27.471435124520212, 2059.5273765488528, 0.01600000075995922, -0.12800000607967377, 1.0560000501573086, 0.0, 0.0, 0.0, 0.0, 0.0, 1.7103873174954607E9, 0.0, 2024-03-13 20:35:17.495
38.0, -42.115013401024044, 171.3771755695343, 152.5953979920596, 1939.1773959747516, 0.01600000075995922, -0.12800000607967377, 1.0560000501573086, 0.0, 0.0, 0.0, 0.0, 0.0, 1.7103873175089362E9, 0.0, 2024-03-13 20:35:17.508
38.0, -43.07616768963635, 342.28686364460737, 106.83398213423789, 2164.2894541076384, 0.01600000075995922, -0.12800000607967377, 1.0560000501573086, 0.0, 0.0, 0.0, 0.0, 0.0, 1.7103873175089362E9, 0.0, 2024-03-13 20:35:17.508
39.0, -136.37358193425462, 395.10173081886023, 23.47722197184339, 2161.351762692444, 0.01600000075995922, -0.12800000607967377, 1.0560000501573086, 0.0, 0.0, 0.0, 0.0, 0.0, 1.7103873175247128E9, 0.0, 2024-03-13 20:35:17.524
39.0, 102.01699099130929, 381.922323375009, -183.6197380744852, 2135.0565261039883, 0.01600000075995922, -0.12800000607967377, 1.0560000501573086, 0.0, 0.0, 0.0, 0.0, 0.0, 1.7103873175247128E9, 0.0, 2024-03-13 20:35:17.524
40.0, 332.4453169112094, 140.11535183992237, 32.361354316584766, 1963.8139869328588, 0.01600000075995922, -0.12800000607967377, 1.0560000501573086, 0.0, 0.0, 0.0, 0.0, 0.0, 1.7103873175254235E9, 0.0, 2024-03-13 20:35:17.525
40.0, 254.68718698248267, 321.12650969531387, -66.05972286732867, 2119.161951292306, 0.01600000075995922, -0.12800000607967377, 1.0560000501573086, 0.0, 0.0, 0.0, 0.0, 0.0, 1.7103873175254235E9, 0.0, 2024-03-13 20:35:17.525
41.0, 237.16201579011977, 116.19869162328541, -46.95631389366463, 1876.565860866569, 0.01600000075995922, -0.11200000531971455, 1.0560000501573086, 0.0, 0.0, 0.0, 0.0, 0.0, 1.7103873175390532E9, 0.0, 2024-03-13 20:35:17.539
41.0, 335.04080748045817, 68.49626768846065, 51.288987992331386, 1883.6436215327121, 0.01600000075995922, -0.11200000531971455, 1.0560000501573086, 0.0, 0.0, 0.0, 0.0, 0.0, 1.7103873175390532E9, 0.0, 2024-03-13 20:35:17.539
42.0, 100.30411681160331, 99.97874551545829, 260.906640608795, 1919.7373960050754, 0.01600000075995922, -0.11200000531971455, 1.0560000501573086, 0.0, 0.0, 0.0, 0.0, 0.0, 1.710387317554675E9, 0.0, 2024-03-13 20:35:17.554
42.0, -127.85034993523732, 318.4786605266854, 35.022293135058135, 2075.7061837571673, 0.01600000075995922, -0.11200000531971455, 1.0560000501573086, 0.0, 0.0, 0.0, 0.0, 0.0, 1.710387317554675E9, 0.0, 2024-03-13 20:35:17.554
43.0, -24.844155405648053, 176.50457840878516, 165.6326892375946, 1959.615949232597, 0.01600000075995922, -0.11200000531971455, 1.0560000501573086, 0.0, 0.0, 0.0, 0.0, 0.0, 1.710387317555405E9, 0.0, 2024-03-13 20:35:17.555
43.0, -56.83151972666383, 344.89357391372323, 119.85631377995014, 2175.535333274398, 0.01600000075995922, -0.11200000531971455, 1.0560000501573086, 0.0, 0.0, 0.0, 0.0, 0.0, 1.710387317555405E9, 0.0, 2024-03-13 20:35:17.555
44.0, -133.486379168462, 394.6267635244876, 25.99791454197839, 2164.186606858857, 0.01600000075995922, -0.11200000531971455, 1.0560000501573086, 0.0, 0.0, 0.0, 0.0, 0.0, 1.7103873175690043E9, 0.0, 2024-03-13 20:35:17.569
44.0, -375.2073330045678, 389.79107288178056, -175.51537487050518, 2143.76675310079, 0.01600000075995922, -0.11200000531971455, 1.0560000501573086, 0.0, 0.0, 0.0, 0.0, 0.0, 1.7103873175690043E9, 0.0, 2024-03-13 20:35:17.569
45.0, -152.9207692882046, 631.3418612699024, 33.565602102316916, 1964.4535098252818, 0.01600000075995922, -0.11200000531971455, 1.0560000501573086, 0.0, 0.0, 0.0, 0.0, 0.0, 1.7103873175846612E9, 0.0, 2024-03-13 20:35:17.584
45.0, -228.92488613771275, 812.4951353236102, -61.186633225064725, 2114.6142329461873, 0.01600000075995922, -0.11200000531971455, 1.0560000501573086, 0.0, 0.0, 0.0, 0.0, 0.0, 1.7103873175846612E9, 0.0, 2024-03-13 20:35:17.584
46.0, -246.31168103171512, 628.0320498091169, -38.07779139885679, 1881.0574807133526, 0.01600000075995922, -0.11200000531971455, 1.0560000501573086, 0.0, 0.0, 0.0, 0.0, 0.0, 1.710387317585416E9, 0.0, 2024-03-13 20:35:17.585
46.0, -145.0295803816989, 580.1164515768178, 58.39105800818652, 1884.8852683180012, 0.01600000075995922, -0.11200000531971455, 1.0560000501573086, 0.0, 0.0, 0.0, 0.0, 0.0, 1.710387317585416E9, 0.0, 2024-03-13 20:35:17.585
47.0, -384.2765903971158, 595.8726500901394, 271.9879641775042, 1925.3285464388318, 0.01600000075995922, -0.11200000531971455, 1.0560000501573086, 0.0, 0.0, 0.0, 0.0, 0.0, 1.7103873175992362E9, 0.0, 2024-03-13 20:35:17.599
47.0, -159.47494396055117, 807.2817147853784, 37.57290490483865, 2074.670231469441, 0.01600000075995922, -0.11200000531971455, 1.0560000501573086, 0.0, 0.0, 0.0, 0.0, 0.0, 1.7103873175992362E9, 0.0, 2024-03-13 20:35:17.599
48.0, -32.70916501246393, 665.3637311668135, 160.41926869936287, 1953.5423517045565, 0.01600000075995922, -0.11200000531971455, 1.0560000501573086, 0.0, 0.0, 0.0, 0.0, 0.0, 1.7103873176146777E9, 0.0, 2024-03-13 20:35:17.614
48.0, -9.372189288958907, 834.3847697642632, 115.54046923108399, 2168.938149752561, 0.01600000075995922, -0.11200000531971455, 1.0560000501573086, 0.0, 0.0, 0.0, 0.0, 0.0, 1.7103873176146777E9, 0.0, 2024-03-13 20:35:17.614
49.0, -153.58834143029526, 880.9203449129127, 23.12941127596423, 2159.867022410035, 0.01600000075995922, -0.11200000531971455, 1.0560000501573086, 0.0, 0.0, 0.0, 0.0, 0.0, 1.7103873176154034E9, 0.0, 2024-03-13 20:35:17.615
49.0, -396.2031313558109, 860.0965819596313, -190.12716399738565, 2127.172816997394, 0.01600000075995922, -0.11200000531971455, 1.0560000501573086, 0.0, 0.0, 0.0, 0.0, 0.0, 1.7103873176154034E9, 0.0, 2024-03-13 20:35:17.615
50.0, -625.2233849423937, 628.3125423057936, 35.158799483440816, 1962.5611204477027, 0.01600000075995922, -0.11200000531971455, 1.0560000501573086, 0.0, 0.0, 0.0, 0.0, 0.0, 1.7103873176294549E9, 0.0, 2024-03-13 20:35:17.629
50.0, -743.6940657887608, 781.0687559959479, -86.55437462450936, 2093.367861297913, 0.01600000075995922, -0.11200000531971455, 1.0560000501573086, 0.0, 0.0, 0.0, 0.0, 0.0, 1.7103873176294549E9, 0.0, 2024-03-13 20:35:17.629
51.0, -749.7003451175988, 600.1286562397145, -48.77764517208561, 1865.6528327958658, 0.01600000075995922, -0.12800000607967377, 1.0560000501573086, 0.0, 0.0, 0.0, 0.0, 0.0, 1.7103873176449423E9, 0.0, 2024-03-13 20:35:17.644
51.0, -641.2937350519933, 562.5576212848537, 55.6571911405772, 1875.3896623305045, 0.01600000075995922, -0.12800000607967377, 1.0560000501573086, 0.0, 0.0, 0.0, 0.0, 0.0, 1.7103873176449423E9, 0.0, 2024-03-13 20:35:17.644
52.0, -878.2706257943064, 578.2128424993716, 259.77719082217664, 1908.573794637341, 0.01600000075995922, -0.12800000607967377, 1.0560000501573086, 0.0, 0.0, 0.0, 0.0, 0.0, 1.7103873176457615E9, 0.0, 2024-03-13 20:35:17.645
52.0, -660.4625922748819, 801.5708875530399, 33.13364365743473, 2065.111047182698, 0.01600000075995922, -0.12800000607967377, 1.0560000501573086, 0.0, 0.0, 0.0, 0.0, 0.0, 1.7103873176457615E9, 0.0, 2024-03-13 20:35:17.645
53.0, -547.6429002615623, 646.5782136893831, 141.98530181776732, 1933.986414836254, 0.01600000075995922, -0.12800000607967377, 1.0560000501573086, 0.0, 0.0, 0.0, 0.0, 0.0, 1.710387317658988E9, 0.0, 2024-03-13 20:35:17.658
53.0, -542.6837929203175, 812.3417994254269, 100.11712181381881, 2150.1526322751306, 0.01600000075995922, -0.12800000607967377, 1.0560000501573086, 0.0, 0.0, 0.0, 0.0, 0.0, 1.710387317658988E9, 0.0, 2024-03-13 20:35:17.658
54.0, -637.8212379431352, 867.4978439719416, 23.12193147605285, 2152.332993949298, 0.01600000075995922, -0.12800000607967377, 1.0560000501573086, 0.0, 0.0, 0.0, 0.0, 0.0, 1.7103873176746588E9, 0.0, 2024-03-13 20:35:17.674
54.0, -398.92577852355316, 863.9860779135488, -183.97128867032006, 2132.3432286861353, 0.01600000075995922, -0.12800000607967377, 1.0560000501573086, 0.0, 0.0, 0.0, 0.0, 0.0, 1.7103873176746588E9, 0.0, 2024-03-13 20:35:17.674
55.0, -628.7127116010524, 625.1859859428369, 32.22671791817993, 1959.2494390369393, 0.01600000075995922, -0.12800000607967377, 1.0560000501573086, 0.0, 0.0, 0.0, 0.0, 0.0, 1.7103873176758635E9, 0.0, 2024-03-13 20:35:17.675
55.0, -712.2676864610985, 804.6862242161296, -69.76970362337306, 2103.1682691317983, 0.01600000075995922, -0.12800000607967377, 1.0560000501573086, 0.0, 0.0, 0.0, 0.0, 0.0, 1.7103873176758635E9, 0.0, 2024-03-13 20:35:17.675
56.0, -725.1366822086275, 623.9705184572376, -41.93736815312877, 1875.7748720259406, 0.01600000075995922, -0.12800000607967377, 1.0560000501573086, 0.0, 0.0, 0.0, 0.0, 0.0, 1.7103873177053795E9, 0.0, 2024-03-13 20:35:17.705
56.0, -638.9188985801302, 564.229356565047, 52.541854477487504, 1875.733733126428, 0.01600000075995922, -0.12800000607967377, 1.0560000501573086, 0.0, 0.0, 0.0, 0.0, 0.0, 1.7103873177053795E9, 0.0, 2024-03-13 20:35:17.705
57.0, -877.2758124060929, 586.324685503263, 257.1667406531051, 1909.9164187214337, 0.01600000075995922, -0.12800000607967377, 1.0560000501573086, 0.0, 0.0, 0.0, 0.0, 0.0, 1.7103873177061045E9, 0.0, 2024-03-13 20:35:17.706
57.0, -648.8165438128635, 811.5003219353966, 28.76918040914461, 2067.942151449155, 0.01600000075995922, -0.12800000607967377, 1.0560000501573086, 0.0, 0.0, 0.0, 0.0, 0.0, 1.7103873177061045E9, 0.0, 2024-03-13 20:35:17.706
58.0, -531.389295054134, 662.0763591057621, 152.9619081877172, 1938.7398276799358, 0.01600000075995922, -0.12800000607967377, 1.0560000501573086, 0.0, 0.0, 0.0, 0.0, 0.0, 1.7103873177068462E9, 0.0, 2024-03-13 20:35:17.706
58.0, -542.3546817242168, 828.8123188302852, 109.25743730552495, 2156.3533864016645, 0.01600000075995922, -0.12800000607967377, 1.0560000501573086, 0.0, 0.0, 0.0, 0.0, 0.0, 1.7103873177068462E9, 0.0, 2024-03-13 20:35:17.706
59.0, -633.1314033987001, 879.517882429529, 25.1414774521254, 2157.6586114862002, 0.01600000075995922, -0.12800000607967377, 1.0560000501573086, 0.0, 0.0, 0.0, 0.0, 0.0, 1.7103873177191937E9, 0.0, 2024-03-13 20:35:17.719
59.0, -876.4792137155309, 870.2990290387534, -174.8384529785253, 2135.967191743199, 0.01600000075995922, -0.12800000607967377, 1.0560000501573086, 0.0, 0.0, 0.0, 0.0, 0.0, 1.7103873177191937E9, 0.0, 2024-03-13 20:35:17.719
60.0, -635.6352664190345, 629.8384214877151, 41.8345209043473, 1959.5935098328628, 0.01600000075995922, -0.12800000607967377, 1.0560000501573086, 0.0, 0.0, 0.0, 0.0, 0.0, 1.710387317734665E9, 0.0, 2024-03-13 20:35:17.734
60.0, -716.3965360121801, 791.5292561720125, -83.67839155858383, 2091.2267685732804, 0.01600000075995922, -0.12800000607967377, 1.0560000501573086, 0.0, 0.0, 0.0, 0.0, 0.0, 1.710387317734665E9, 0.0, 2024-03-13 20:35:17.734
61.0, -744.1839926829562, 612.4815457933582, -54.43237390508875, 1865.0750182527117, 0.01600000075995922, -0.12800000607967377, 1.0560000501573086, 0.0, 0.0, 0.0, 0.0, 0.0, 1.710387317735394E9, 0.0, 2024-03-13 20:35:17.735
61.0, -621.9958512806334, 572.0158282727934, 56.188256934285164, 1880.6386119183153, 0.01600000075995922, -0.12800000607967377, 1.0560000501573086, 0.0, 0.0, 0.0, 0.0, 0.0, 1.710387317735394E9, 0.0, 2024-03-13 20:35:17.735
62.0, -384.0895953993313, 589.4400221663527, 255.4875255730003, 1911.5339254522696, 0.01600000075995922, -0.12800000607967377, 1.0560000501573086, 0.0, 0.0, 0.0, 0.0, 0.0, 1.7103873177490408E9, 0.0, 2024-03-13 20:35:17.749
62.0, -140.5286107850261, 827.0844850507565, 39.469034182373434, 2084.126568507403, 0.01600000075995922, -0.12800000607967377, 1.0560000501573086, 0.0, 0.0, 0.0, 0.0, 0.0, 1.7103873177490408E9, 0.0, 2024-03-13 20:35:17.749
63.0, -35.34579448122531, 669.1185907223262, 156.8140051420778, 1953.8658530507237, 0.01600000075995922, -0.12800000607967377, 1.0560000501573086, 0.0, 0.0, 0.0, 0.0, 0.0, 1.710387317764744E9, 0.0, 2024-03-13 20:35:17.764
63.0, -56.34533273242414, 820.1656701327302, 108.03822991997004, 2159.4257142152637, 0.01600000075995922, -0.12800000607967377, 1.0560000501573086, 0.0, 0.0, 0.0, 0.0, 0.0, 1.710387317764744E9, 0.0, 2024-03-13 20:35:17.764
64.0, -143.4943514498882, 880.4752968181856, 21.99622158939019, 2165.88452143874, 0.01600000075995922, -0.12800000607967377, 1.0560000501573086, 0.0, 0.0, 0.0, 0.0, 0.0, 1.7103873177656024E9, 0.0, 2024-03-13 20:35:17.765
64.0, -383.8240625024773, 878.0780209465884, -176.03896086430177, 2146.373463369906, 0.01600000075995922, -0.12800000607967377, 1.0560000501573086, 0.0, 0.0, 0.0, 0.0, 0.0, 1.7103873177656024E9, 0.0, 2024-03-13 20:35:17.765
65.0, -152.1877488968894, 1120.272072127089, 35.05034238472581, 1960.0815667770803, 0.01600000075995922, -0.12800000607967377, 1.0560000501573086, 0.0, 0.0, 0.0, 0.0, 0.0, 1.7103873177794085E9, 0.0, 2024-03-13 20:35:17.779
65.0, -229.235297834035, 1285.9384204642847, -83.80928805703297, 2093.6146946949884, 0.01600000075995922, -0.12800000607967377, 1.0560000501573086, 0.0, 0.0, 0.0, 0.0, 0.0, 1.7103873177794085E9, 0.0, 2024-03-13 20:35:17.779
66.0, -223.7563443989493, 1121.6296558110043, -41.91866865335032, 1883.6866303822026, 0.01600000075995922, -0.12800000607967377, 1.0560000501573086, 0.0, 0.0, 0.0, 0.0, 0.0, 1.7103873177946987E9, 0.0, 2024-03-13 20:35:17.794
66.0, -144.1432240922004, 1059.1209679516032, 49.06374751869589, 1880.0738870250061, 0.01600000075995922, -0.12800000607967377, 1.0560000501573086, 0.0, 0.0, 0.0, 0.0, 0.0, 1.7103873177946987E9, 0.0, 2024-03-13 20:35:17.794
67.0, -382.99006481235847, 1081.0779205914587, 256.9647860554978, 1916.1340023977682, 0.01600000075995922, -0.12800000607967377, 1.0560000501573086, 0.0, 0.0, 0.0, 0.0, 0.0, 1.7103873177956464E9, 0.0, 2024-03-13 20:35:17.795
67.0, -155.60040760645643, 1306.6499864188954, 42.58437084546313, 2077.5742637850344, 0.01600000075995922, -0.12800000607967377, 1.0560000501573086, 0.0, 0.0, 0.0, 0.0, 0.0, 1.7103873177956464E9, 0.0, 2024-03-13 20:35:17.795
