%OpenBCI Raw EXG Data
%Number of channels = 4
%Sample Rate = 200 Hz
%Board = OpenBCI_GUI$BoardGanglionBLE
Sample Index, EXG Channel 0, EXG Channel 1, EXG Channel 2, EXG Channel 3, Accel Channel 0, Accel Channel 1, Accel Channel 2, Other, Other, Other, Other, Other, Timestamp, Other, Timestamp (Formatted)
2.0, -5.24707963783294, -4.184948050417006, -5.482693335041404, 5.609849933534861, 0.8800000417977571, 0.0, 0.0, 0.0, 0.0, 0.0, 0.0, 0.0, 1.7103945896203673E9, 0.0, 2024-03-13 22:36:29.620
2.0, -7.393782212398946, -7.281585213728249, 4.319584448821843, 8.669088097289205, 0.8800000417977571, 0.0, 0.0, 0.0, 0.0, 0.0, 0.0, 0.0, 1.7103945896203673E9, 0.0, 2024-03-13 22:36:29.620
3.0, -8.123062703758478, -4.379422848112881, 6.5410850225016475, 9.547964586876333, 0.8800000417977571, 0.0, 0.0, 0.0, 0.0, 0.0, 0.0, 0.0, 1.7103945896348758E9, 0.0, 2024-03-13 22:36:29.634
3.0, 5.112443239428103, 10.632535574026406, 2.0419853758066893, 13.059730645269156, 0.8800000417977571, 0.0, 0.0, 0.0, 0.0, 0.0, 0.0, 0.0, 1.7103945896348758E9, 0.0, 2024-03-13 22:36:29.634
4.0, 16.14888800866902, 15.569203515537083, 9.761138884350657, 13.628195438534021, 0.8800000417977571, 0.0, 0.0, 0.0, 0.0, 0.0, 0.0, 0.0, 1.7103945896355724E9, 0.0, 2024-03-13 22:36:29.635
4.0, 20.371235058642924, 17.798183889128268, 10.08651018049568, 17.427933793514967, 0.8800000417977571, 0.0, 0.0, 0.0, 0.0, 0.0, 0.0, 0.0, 1.7103945896355724E9, 0.0, 2024-03-13 22:36:29.635
5.0, 29.582608649507165, 21.055636750534177, 2.1953212739899755, 20.59562905598432, 0.8800000417977571, 0.0, 0.0, 0.0, 0.0, 0.0, 0.0, 0.0, 1.7103945896491554E9, 0.0, 2024-03-13 22:36:29.649
5.0, 40.016929525882006, 24.728218507021666, 8.238999602384865, 20.763924553990364, 0.8800000417977571, 0.0, 0.0, 0.0, 0.0, 0.0, 0.0, 0.0, 1.7103945896491554E9, 0.0, 2024-03-13 22:36:29.649
6.0, 35.641246577724814, 25.177006501704454, 15.172774120233953, 23.490311621688306, 0.8800000417977571, 0.0, 0.0, 0.0, 0.0, 0.0, 0.0, 0.0, 1.7103945896648164E9, 0.0, 2024-03-13 22:36:29.664
6.0, 26.97215848043561, 16.829549800604582, 8.930881094187498, 16.51165830437094, 0.8800000417977571, 0.0, 0.0, 0.0, 0.0, 0.0, 0.0, 0.0, 1.7103945896648164E9, 0.0, 2024-03-13 22:36:29.664
7.0, 28.18388606607914, 16.661254302598536, 4.944147741422057, 23.35567522328347, 0.8800000417977571, 0.0, 0.0, 0.0, 0.0, 0.0, 0.0, 0.0, 1.7103945896656065E9, 0.0, 2024-03-13 22:36:29.665
7.0, 23.437953022308648, 12.285571354441345, 17.31199689488858, 19.37268177047372, 0.8800000417977571, 0.0, 0.0, 0.0, 0.0, 0.0, 0.0, 0.0, 1.7103945896656065E9, 0.0, 2024-03-13 22:36:29.665
8.0, 17.861762188374996, 11.548811063170433, 9.499345887452364, 14.121862232685089, 0.8800000417977571, 0.0, 0.0, 0.0, 0.0, 0.0, 0.0, 0.0, 1.7103945896795228E9, 0.0, 2024-03-13 22:36:29.679
8.0, 16.44060020521283, 11.27205846644938, -1.166848786175251, 10.699853773228824, 0.8800000417977571, 0.0, 0.0, 0.0, 0.0, 0.0, 0.0, 0.0, 1.7103945896795228E9, 0.0, 2024-03-13 22:36:29.679
9.0, 19.65691416710615, 6.312951125204563, 3.9717737529426813, 12.47630625218153, 0.8800000417977571, 0.0, 0.0, 0.0, 0.0, 0.0, 0.0, 0.0, 1.7103945896949046E9, 0.0, 2024-03-13 22:36:29.694
9.0, 9.67512118536979, -0.7554597910493612, 6.395228924229741, 7.969726805575192, 0.8800000417977571, 0.0, 0.0, 0.0, 0.0, 0.0, 0.0, 0.0, 1.7103945896949046E9, 0.0, 2024-03-13 22:36:29.694
10.0, 0.29545209649950266, -10.0790303805843, -8.530711798928678, 6.84027701895684, 0.8800000417977571, 0.0, 0.43200002051889896, 0.0, 0.0, 0.0, 0.0, 0.0, 1.7103945896955872E9, 0.0, 2024-03-13 22:36:29.695
10.0, 2.617929968982935, -11.844263159669936, 2.0793843753635883, 14.394874929450452, 0.8800000417977571, 0.0, 0.43200002051889896, 0.0, 0.0, 0.0, 0.0, 0.0, 1.7103945896955872E9, 0.0, 2024-03-13 22:36:29.695
11.0, 11.892881859093904, -1.7016544798389077, 15.457006516866386, 22.802170029841363, 0.8800000417977571, 0.3840000182390213, 0.43200002051889896, 0.0, 0.0, 0.0, 0.0, 0.0, 1.7103945897095377E9, 0.0, 2024-03-13 22:36:29.709
11.0, 9.62650248594582, 8.86730279494077, 10.426841076463461, 22.211265836842358, 0.8800000417977571, 0.3840000182390213, 0.43200002051889896, 0.0, 0.0, 0.0, 0.0, 0.0, 1.7103945897095377E9, 0.0, 2024-03-13 22:36:29.709
12.0, 18.729418978095055, 13.635675238445401, 2.9470411650836468, 20.49839165713638, 0.8800000417977571, 0.3840000182390213, 0.43200002051889896, 0.0, 0.0, 0.0, 0.0, 0.0, 1.7103945897251537E9, 0.0, 2024-03-13 22:36:29.725
12.0, 20.93222005199641, 10.703593673184514, 8.691527497023344, 16.208726407960057, 0.8800000417977571, 0.3840000182390213, 0.43200002051889896, 0.0, 0.0, 0.0, 0.0, 0.0, 1.7103945897251537E9, 0.0, 2024-03-13 22:36:29.725
13.0, 24.874074605293572, 10.4492804761976, 5.564971134066582, 14.660407826304436, 0.8800000417977571, 0.3840000182390213, 0.43200002051889896, 0.0, 0.0, 0.0, 0.0, 0.0, 1.7103945897257905E9, 0.0, 2024-03-13 22:36:29.725
13.0, 22.416960334405303, 11.455313564278185, -6.959953817538917, 15.550504015758634, 0.8800000417977571, 0.3840000182390213, 0.43200002051889896, 0.0, 0.0, 0.0, 0.0, 0.0, 1.7103945897257905E9, 0.0, 2024-03-13 22:36:29.725
14.0, 28.95804535690695, 13.149488244205713, 6.152135427109897, 17.985178886912763, 0.8800000417977571, 0.3840000182390213, 0.43200002051889896, 0.0, 0.0, 0.0, 0.0, 0.0, 1.7103945897391603E9, 0.0, 2024-03-13 22:36:29.739
14.0, 17.929080387577415, 9.28243169002235, 9.783578284084797, 16.45929970499128, 0.8800000417977571, 0.3840000182390213, 0.43200002051889896, 0.0, 0.0, 0.0, 0.0, 0.0, 1.7103945897391603E9, 0.0, 2024-03-13 22:36:29.739
15.0, 8.414774900302291, -4.076490951701999, -3.822177754715085, 9.364709489047527, 0.8800000417977571, 0.3840000182390213, 0.43200002051889896, 0.0, 0.0, 0.0, 0.0, 0.0, 1.7103945897550876E9, 0.0, 2024-03-13 22:36:29.755
15.0, 15.744978813454509, -2.094343975186348, 9.443247388117015, 15.741238913498819, 0.8800000417977571, 0.3840000182390213, 0.43200002051889896, 0.0, 0.0, 0.0, 0.0, 0.0, 1.7103945897550876E9, 0.0, 2024-03-13 22:36:29.755
16.0, 17.76078488957137, 5.030165440402925, 17.970219287090003, 16.242385507561266, 0.8800000417977571, 0.3840000182390213, 0.43200002051889896, 0.0, 0.0, 0.0, 0.0, 0.0, 1.710394589755686E9, 0.0, 2024-03-13 22:36:29.755
16.0, 17.577529791742563, 2.6328895688056946, 9.820977283641696, 14.163001132197678, 0.8800000417977571, 0.3840000182390213, 0.43200002051889896, 0.0, 0.0, 0.0, 0.0, 0.0, 1.710394589755686E9, 0.0, 2024-03-13 22:36:29.755
17.0, 18.87527507636696, 7.120769515633583, 8.381115800701082, 21.968172339722514, 0.8800000417977571, 0.3840000182390213, 0.43200002051889896, 0.0, 0.0, 0.0, 0.0, 0.0, 1.710394589769432E9, 0.0, 2024-03-13 22:36:29.769
17.0, 21.69889954291284, 10.47545977588743, 18.673320478759706, 22.648834131658077, 0.8800000417977571, 0.3840000182390213, 0.43200002051889896, 0.0, 0.0, 0.0, 0.0, 0.0, 1.710394589769432E9, 0.0, 2024-03-13 22:36:29.769
18.0, 27.03199687972665, 10.636275473982096, 17.005325098522007, 25.064809503033757, 0.8800000417977571, 0.3840000182390213, 0.43200002051889896, 0.0, 0.0, 0.0, 0.0, 0.0, 1.7103945897848268E9, 0.0, 2024-03-13 22:36:29.784
18.0, 24.840415505692363, 13.373882241547108, 11.896621759049594, 31.01873023249209, 0.8800000417977571, 0.3840000182390213, 0.43200002051889896, 0.0, 0.0, 0.0, 0.0, 0.0, 1.7103945897848268E9, 0.0, 2024-03-13 22:36:29.784
19.0, 27.245171177200973, 11.361816065385938, 16.9716659989208, 29.189919154159725, 0.8800000417977571, 0.3840000182390213, 0.43200002051889896, 0.0, 0.0, 0.0, 0.0, 0.0, 1.7103945897855797E9, 0.0, 2024-03-13 22:36:29.785
19.0, 7.131989215500653, 3.6725817564874887, 12.577283550985157, 20.12814156152308, 0.8800000417977571, 0.3840000182390213, 0.43200002051889896, 0.0, 0.0, 0.0, 0.0, 0.0, 1.7103945897855797E9, 0.0, 2024-03-13 22:36:29.785
20.0, 3.178914962336421, -5.359276636503637, -4.342023848555982, 15.3036706186831, 0.8800000417977571, 0.3840000182390213, 0.43200002051889896, 0.0, 0.0, 0.0, 0.0, 0.0, 1.7103945897992373E9, 0.0, 2024-03-13 22:36:29.799
20.0, 4.787071943283081, -1.2827856848016381, -0.11593689862638712, 12.308010754175484, 0.8800000417977571, 0.3840000182390213, 0.43200002051889896, 0.0, 0.0, 0.0, 0.0, 0.0, 1.7103945897992373E9, 0.0, 2024-03-13 22:36:29.799
21.0, 9.948133882135153, 0.2056944975629449, 10.827010371722281, 20.89108115248382, 0.8800000417977571, 0.3840000182390213, 0.43200002051889896, 0.0, 0.0, 0.0, 0.0, 0.0, 1.7103945898148596E9, 0.0, 2024-03-13 22:36:29.814
21.0, 7.176868014968932, 1.5520584816113114, -8.646648697555065, 10.991565969772637, 0.8800000417977571, 0.3840000182390213, 0.43200002051889896, 0.0, 0.0, 0.0, 0.0, 0.0, 1.7103945898148596E9, 0.0, 2024-03-13 22:36:29.814
22.0, 17.970219287090003, 0.9761138884350657, -12.805417448282242, 8.156721803359687, 0.8800000417977571, 0.3840000182390213, 0.43200002051889896, 0.0, 0.0, 0.0, 0.0, 0.0, 1.7103945898155756E9, 0.0, 2024-03-13 22:36:29.815
22.0, 17.65232779085636, 7.173128115013242, 0.29171219654381275, 11.343116565607488, 0.8800000417977571, 0.3840000182390213, 0.43200002051889896, 0.0, 0.0, 0.0, 0.0, 0.0, 1.7103945898155756E9, 0.0, 2024-03-13 22:36:29.815
23.0, 15.70383991394192, 0.3066717963665724, 1.2304270854219794, 12.169634455814958, 0.8800000417977571, 0.3840000182390213, 0.43200002051889896, 0.0, 0.0, 0.0, 0.0, 0.0, 1.7103945898291852E9, 0.0, 2024-03-13 22:36:29.829
23.0, 15.2662716191262, 7.539638310670853, -8.02956520486623, 14.323816830292344, 0.8800000417977571, 0.3840000182390213, 0.43200002051889896, 0.0, 0.0, 0.0, 0.0, 0.0, 1.7103945898291852E9, 0.0, 2024-03-13 22:36:29.829
24.0, 22.58899573236704, 8.373636000789702, 13.007372045889497, 19.65317426715046, 0.8800000417977571, 0.3840000182390213, 0.43200002051889896, 0.0, 0.0, 0.0, 0.0, 0.0, 1.7103945898448288E9, 0.0, 2024-03-13 22:36:29.844
24.0, 12.513705251738429, 4.7272335439920425, 19.178206972777843, 24.447726010344923, 0.8800000417977571, 0.3840000182390213, 0.43200002051889896, 0.0, 0.0, 0.0, 0.0, 0.0, 1.7103945898448288E9, 0.0, 2024-03-13 22:36:29.844
25.0, 11.862962659448385, 6.4999461229890585, 7.591996910050511, 20.16180066112429, 0.8800000417977571, 0.3840000182390213, 0.43200002051889896, 0.0, 0.0, 0.0, 0.0, 0.0, 1.7103945898455877E9, 0.0, 2024-03-13 22:36:29.845
25.0, 16.42938050534576, 5.591150433756411, 11.765725260600448, 22.233705236576498, 0.8800000417977571, 0.3840000182390213, 0.43200002051889896, 0.0, 0.0, 0.0, 0.0, 0.0, 1.7103945898455877E9, 0.0, 2024-03-13 22:36:29.845
26.0, 11.821823759935796, 8.721446696668863, 20.236598660238087, 24.60854170843959, 0.8800000417977571, 0.3840000182390213, 0.43200002051889896, 0.0, 0.0, 0.0, 0.0, 0.0, 1.7103945898594604E9, 0.0, 2024-03-13 22:36:29.859
26.0, 10.87188917119056, 6.885155818425119, 8.396075400523841, 23.845602117478848, 0.8800000417977571, 0.3840000182390213, 0.43200002051889896, 0.0, 0.0, 0.0, 0.0, 0.0, 1.7103945898594604E9, 0.0, 2024-03-13 22:36:29.859
27.0, 17.581269691698253, 4.256006149575114, 10.381962276995182, 23.987718315795064, 0.8800000417977571, 0.3840000182390213, 0.43200002051889896, 0.0, 0.0, 0.0, 0.0, 0.0, 1.710394589875098E9, 0.0, 2024-03-13 22:36:29.875
27.0, 14.46593302860856, 8.0407849047333, 15.415867617353797, 26.19425928965211, 0.8800000417977571, 0.3840000182390213, 0.43200002051889896, 0.0, 0.0, 0.0, 0.0, 0.0, 1.710394589875098E9, 0.0, 2024-03-13 22:36:29.875
28.0, 15.427087317220867, 6.915075018070638, 12.012558657675982, 25.255544400773942, 0.8800000417977571, 0.3840000182390213, 0.43200002051889896, 0.0, 0.0, 0.0, 0.0, 0.0, 1.7103945898757234E9, 0.0, 2024-03-13 22:36:29.875
28.0, 20.797583653591573, 10.8943285709247, 0.7479799911379814, 20.722785654477775, 0.8800000417977571, 0.3840000182390213, 0.43200002051889896, 0.0, 0.0, 0.0, 0.0, 0.0, 1.7103945898757234E9, 0.0, 2024-03-13 22:36:29.875
29.0, 22.794690229929984, 13.25794534292072, 4.256006149575114, 15.834736412391067, 0.8800000417977571, 0.3840000182390213, 0.43200002051889896, 0.0, 0.0, 0.0, 0.0, 0.0, 1.7103945898892875E9, 0.0, 2024-03-13 22:36:29.889
29.0, 18.13851478509605, 3.788518655113876, 3.459407459013164, 14.219099631533027, 0.8800000417977571, 0.3840000182390213, 0.43200002051889896, 0.0, 0.0, 0.0, 0.0, 0.0, 1.7103945898892875E9, 0.0, 2024-03-13 22:36:29.889
30.0, 15.625302014872432, 2.3523970721289515, -12.005078857764602, 6.125956127420068, 0.8800000417977571, 0.3840000182390213, 0.43200002051889896, 0.0, 0.0, 0.0, 0.0, 0.0, 1.710394589921448E9, 0.0, 2024-03-13 22:36:29.921
30.0, 22.813389729708433, 10.744732572697103, -5.924001529812813, 5.658468632958829, 0.8800000417977571, 0.3840000182390213, 0.43200002051889896, 0.0, 0.0, 0.0, 0.0, 0.0, 1.710394589921448E9, 0.0, 2024-03-13 22:36:29.921
31.0, 24.99749130383134, 17.70468639023602, 1.7876721788197756, 14.697806825861335, 0.8800000417977571, 0.3840000182390213, 0.43200002051889896, 0.0, 0.0, 0.0, 0.0, 0.0, 1.7103945899220958E9, 0.0, 2024-03-13 22:36:29.922
31.0, 21.631581343710423, 12.005078857764602, -11.309457466006279, 6.484986523166299, 0.8800000417977571, 0.3840000182390213, 0.43200002051889896, 0.0, 0.0, 0.0, 0.0, 0.0, 1.7103945899220958E9, 0.0, 2024-03-13 22:36:29.922
32.0, 22.323462835513055, 2.9208618653938174, -14.731465925462544, 5.808064631186426, 0.8800000417977571, 0.3840000182390213, 0.43200002051889896, 0.0, 0.0, 0.0, 0.0, 0.0, 1.710394589922998E9, 0.0, 2024-03-13 22:36:29.922
32.0, 21.164093849249184, 10.625055774115026, 2.861023466102779, 12.943793746642768, 0.8800000417977571, 0.3840000182390213, 0.43200002051889896, 0.0, 0.0, 0.0, 0.0, 0.0, 1.710394589922998E9, 0.0, 2024-03-13 22:36:29.922
33.0, 13.29160444252193, 5.2246402380988, 0.8639168897643685, 11.720846461132169, 0.8800000417977571, 0.3840000182390213, 0.43200002051889896, 0.0, 0.0, 0.0, 0.0, 0.0, 1.7103945899236069E9, 0.0, 2024-03-13 22:36:29.923
33.0, 11.66848786175251, -0.7068410916253924, -10.613836074247956, 6.327910725027323, 0.8800000417977571, 0.3840000182390213, 0.43200002051889896, 0.0, 0.0, 0.0, 0.0, 0.0, 1.7103945899236069E9, 0.0, 2024-03-13 22:36:29.923
34.0, 14.450973428785801, -2.984440164640546, 5.6958676325157285, 7.461100411601365, 0.8800000417977571, 0.3840000182390213, 0.43200002051889896, 0.0, 0.0, 0.0, 0.0, 0.0, 1.7103945899341233E9, 0.0, 2024-03-13 22:36:29.934
34.0, 5.553751434199512, -2.5468718698248267, 10.89058867096901, 11.103762968443334, 0.8800000417977571, 0.3840000182390213, 0.43200002051889896, 0.0, 0.0, 0.0, 0.0, 0.0, 1.7103945899341233E9, 0.0, 2024-03-13 22:36:29.934
35.0, 4.196167750284076, -11.930280858650804, -2.457114270888269, 6.211973826400936, 0.8800000417977571, 0.3840000182390213, 0.43200002051889896, 0.0, 0.0, 0.0, 0.0, 0.0, 1.7103945899491415E9, 0.0, 2024-03-13 22:36:29.949
35.0, 5.946440929546952, -5.520092334598303, 1.9185686772689223, 9.791058083996177, 0.8800000417977571, 0.3840000182390213, 0.43200002051889896, 0.0, 0.0, 0.0, 0.0, 0.0, 1.7103945899491415E9, 0.0, 2024-03-13 22:36:29.949
36.0, 6.03619852848351, -4.83569064270705, 18.804216977208853, 15.599122715182602, 0.8800000417977571, 0.3840000182390213, 0.43200002051889896, 0.0, 0.0, 0.0, 0.0, 0.0, 1.7103945899648693E9, 0.0, 2024-03-13 22:36:29.964
36.0, -6.787918419577181, -3.5641246577724814, 4.674874944612384, 13.198106943629682, 0.8800000417977571, 0.3840000182390213, 0.43200002051889896, 0.0, 0.0, 0.0, 0.0, 0.0, 1.7103945899648693E9, 0.0, 2024-03-13 22:36:29.964
37.0, 13.983485934324563, 13.377622141502798, 8.134282403625548, 22.820869529619813, 0.8800000417977571, 0.3840000182390213, 0.43200002051889896, 0.0, 0.0, 0.0, 0.0, 0.0, 1.7103945899658296E9, 0.0, 2024-03-13 22:36:29.965
37.0, 21.38474794663489, 7.285325113683939, 19.37642167042941, 28.651373560540378, 0.8800000417977571, 0.3840000182390213, 0.43200002051889896, 0.0, 0.0, 0.0, 0.0, 0.0, 1.7103945899658296E9, 0.0, 2024-03-13 22:36:29.965
38.0, 19.70179296657443, 14.529511327855289, 12.86899574752897, 21.452066145837307, 0.8800000417977571, 0.3840000182390213, 0.43200002051889896, 0.0, 0.0, 0.0, 0.0, 0.0, 1.7103945899790852E9, 0.0, 2024-03-13 22:36:29.979
38.0, 18.011358186602592, 3.990473252721131, -5.953920729458332, 7.203047314658761, 0.8800000417977571, 0.3840000182390213, 0.43200002051889896, 0.0, 0.0, 0.0, 0.0, 0.0, 1.7103945899790852E9, 0.0, 2024-03-13 22:36:29.979
39.0, 31.76297032367438, 13.321523642167449, 7.457360511645675, 17.125001897104084, 0.8800000417977571, 0.3840000182390213, 0.43200002051889896, 0.0, 0.0, 0.0, 0.0, 0.0, 1.7103945899949532E9, 0.0, 2024-03-13 22:36:29.994
39.0, 22.465579033829272, 7.296544813551009, 8.605509798042476, 15.801077312789857, 0.8800000417977571, 0.3840000182390213, 0.43200002051889896, 0.0, 0.0, 0.0, 0.0, 0.0, 1.7103945899949532E9, 0.0, 2024-03-13 22:36:29.994
40.0, 17.30077719502151, 2.9993997644633055, -9.461946887895465, 7.65931510925293, 0.8800000417977571, 0.3840000182390213, 0.43200002051889896, 0.0, 0.0, 0.0, 0.0, 0.0, 1.710394589995665E9, 0.0, 2024-03-13 22:36:29.995
40.0, 26.60190838482231, 6.993612917140126, -3.22005386184901, 11.874182359315455, 0.8800000417977571, 0.3840000182390213, 0.43200002051889896, 0.0, 0.0, 0.0, 0.0, 0.0, 1.710394589995665E9, 0.0, 2024-03-13 22:36:29.995
41.0, 33.44218540377915, 24.13731431402266, 22.98916502762586, 28.98422465659678, 0.8800000417977571, 0.3840000182390213, 0.43200002051889896, 0.0, 0.0, 0.0, 0.0, 0.0, 1.7103945900096588E9, 0.0, 2024-03-13 22:36:30.009
41.0, 13.69177373778075, 2.498253170400858, 0.362770295701921, 10.587656774558127, 0.8800000417977571, 0.3840000182390213, 0.43200002051889896, 0.0, 0.0, 0.0, 0.0, 0.0, 1.7103945900096588E9, 0.0, 2024-03-13 22:36:30.009
42.0, 5.404155435971916, -12.281831454485655, -7.434921111911535, -0.4338283948600292, 0.8800000417977571, 0.3840000182390213, 0.43200002051889896, 0.0, 0.0, 0.0, 0.0, 0.0, 1.7103945900251706E9, 0.0, 2024-03-13 22:36:30.025
42.0, 3.2761523611843586, -14.391135029494762, 4.81325124297291, 5.419115035794675, 0.8800000417977571, 0.3840000182390213, 0.43200002051889896, 0.0, 0.0, 0.0, 0.0, 0.0, 1.7103945900251706E9, 0.0, 2024-03-13 22:36:30.025
43.0, -9.061777592636645, -16.582716403529048, -2.124263174831867, -6.406448624096811, 0.8800000417977571, 0.3840000182390213, 0.43200002051889896, 0.0, 0.0, 0.0, 0.0, 0.0, 1.710394590025799E9, 0.0, 2024-03-13 22:36:30.025
43.0, -8.88600229471922, -16.53783760406077, -14.174220832064748, -5.430334735661745, 0.8800000417977571, 0.3840000182390213, 0.43200002051889896, 0.0, 0.0, 0.0, 0.0, 0.0, 1.710394590025799E9, 0.0, 2024-03-13 22:36:30.025
44.0, -12.678260849788785, -18.815436677075922, -1.125709886662662, 2.82362446654588, 0.8800000417977571, 0.3840000182390213, 0.43200002051889896, 0.0, 0.0, 0.0, 0.0, 0.0, 1.71039459003934E9, 0.0, 2024-03-13 22:36:30.039
44.0, -14.323816830292344, -15.733759113587439, 2.6441092686727643, -1.1556290863081813, 0.8800000417977571, 0.3840000182390213, 0.43200002051889896, 0.0, 0.0, 0.0, 0.0, 0.0, 1.71039459003934E9, 0.0, 2024-03-13 22:36:30.039
45.0, -9.802277783863246, -13.26168524287641, -6.03619852848351, 0.8526971898972988, 0.8800000417977571, 0.3840000182390213, 0.43200002051889896, 0.0, 0.0, 0.0, 0.0, 0.0, 1.7103945900548363E9, 0.0, 2024-03-13 22:36:30.054
45.0, 6.817837619222701, -10.05285108089447, -2.5057329703122377, 1.1743285860866308, 0.8800000417977571, 0.3840000182390213, 0.43200002051889896, 0.0, 0.0, 0.0, 0.0, 0.0, 1.7103945900548363E9, 0.0, 2024-03-13 22:36:30.054
46.0, 8.212820302695036, -10.325863777659833, 5.63602923322469, 4.753412843681872, 0.8800000417977571, 0.3840000182390213, 0.43200002051889896, 0.0, 0.0, 0.0, 0.0, 0.0, 1.7103945900556128E9, 0.0, 2024-03-13 22:36:30.055
46.0, 2.094343975186348, -6.671981520950794, -3.021839164197445, 1.5632781814783812, 0.8800000417977571, 0.3840000182390213, 0.43200002051889896, 0.0, 0.0, 0.0, 0.0, 0.0, 1.7103945900556128E9, 0.0, 2024-03-13 22:36:30.055
47.0, 0.6582223922014236, -12.831596747972071, -19.066009974107146, -11.021485169418156, 0.8800000417977571, 0.3840000182390213, 0.43200002051889896, 0.0, 0.0, 0.0, 0.0, 0.0, 1.710394590069106E9, 0.0, 2024-03-13 22:36:30.069
47.0, 0.4300884949043393, -17.865502088330686, -7.767772207967937, -6.600923421792686, 0.8800000417977571, 0.3840000182390213, 0.43200002051889896, 0.0, 0.0, 0.0, 0.0, 0.0, 1.710394590069106E9, 0.0, 2024-03-13 22:36:30.069
48.0, -10.06781068071723, -20.423593658022583, -20.07204306218773, -13.27290494274348, 0.8800000417977571, 0.3840000182390213, 0.43200002051889896, 0.0, 0.0, 0.0, 0.0, 0.0, 1.7103945900852914E9, 0.0, 2024-03-13 22:36:30.085
48.0, -3.104116963222623, -17.76826468948275, -31.0149903325364, -15.034397821873426, 0.8800000417977571, 0.3840000182390213, 0.43200002051889896, 0.0, 0.0, 0.0, 0.0, 0.0, 1.7103945900852914E9, 0.0, 2024-03-13 22:36:30.085
49.0, -2.0719045754522085, -19.66813386697322, -23.557629820890725, -15.374728717841208, 0.8800000417977571, 0.3840000182390213, 0.43200002051889896, 0.0, 0.0, 0.0, 0.0, 0.0, 1.7103945900858147E9, 0.0, 2024-03-13 22:36:30.085
49.0, -12.45760675240308, -20.745225054211915, -20.47595225740224, -13.6730742380023, 0.8800000417977571, 0.3840000182390213, 0.43200002051889896, 0.0, 0.0, 0.0, 0.0, 0.0, 1.7103945900858147E9, 0.0, 2024-03-13 22:36:30.085
50.0, -10.595136574469507, -14.929680623114109, -27.147933778353035, -18.04127738624811, 0.8800000417977571, 0.3840000182390213, 0.43200002051889896, 0.0, 0.0, 0.0, 0.0, 0.0, 1.7103945900991836E9, 0.0, 2024-03-13 22:36:30.099
50.0, -6.264332425780594, -21.38848784659058, -21.122954949736595, -16.50043860450387, 0.8800000417977571, 0.3840000182390213, 0.43200002051889896, 0.0, 0.0, 0.0, 0.0, 0.0, 1.7103945900991836E9, 0.0, 2024-03-13 22:36:30.099
51.0, -18.404047681950033, -23.69226621929556, -13.759091936983168, -12.973712946288288, 0.8800000417977571, 0.3840000182390213, 0.43200002051889896, 0.0, 0.0, 0.0, 0.0, 0.0, 1.7103945901148543E9, 0.0, 2024-03-13 22:36:30.114
51.0, -21.807356641627848, -40.13660632446408, -19.241785272024572, -20.019684462808073, 0.8800000417977571, 0.3840000182390213, 0.43200002051889896, 0.0, 0.0, 0.0, 0.0, 0.0, 1.7103945901148543E9, 0.0, 2024-03-13 22:36:30.114
52.0, -19.544717168435454, -35.11392068397254, -20.330096159130335, -16.06287030968815, 0.8800000417977571, 0.3840000182390213, 0.43200002051889896, 0.0, 0.0, 0.0, 0.0, 0.0, 1.7103945901156232E9, 0.0, 2024-03-13 22:36:30.115
52.0, -23.067702926695347, -25.049849903210998, -0.3590303957462311, -2.733866867609322, 0.8800000417977571, 0.3840000182390213, 0.43200002051889896, 0.0, 0.0, 0.0, 0.0, 0.0, 1.7103945901156232E9, 0.0, 2024-03-13 22:36:30.115
53.0, -23.161200425587595, -21.538083844818175, -6.275552125647664, -0.5161061938852072, 0.8800000417977571, 0.3840000182390213, 0.43200002051889896, 0.0, 0.0, 0.0, 0.0, 0.0, 1.710394590129194E9, 0.0, 2024-03-13 22:36:30.129
53.0, -12.394028453156352, -16.57149670366198, -7.685494408942759, 4.611296645365655, 0.8800000417977571, 0.3840000182390213, 0.43200002051889896, 0.0, 0.0, 0.0, 0.0, 0.0, 1.710394590129194E9, 0.0, 2024-03-13 22:36:30.129
54.0, -1.7914120787754655, -4.9703270411118865, 5.475213535130024, 6.971173517405987, 0.8800000417977571, 0.3840000182390213, 0.43200002051889896, 0.0, 0.0, 0.0, 0.0, 0.0, 1.7103945901448371E9, 0.0, 2024-03-13 22:36:30.144
54.0, 2.5655713696032763, -1.4249018831178546, 9.734959584660828, 7.992166205309331, 0.8800000417977571, 0.3840000182390213, 0.43200002051889896, 0.0, 0.0, 0.0, 0.0, 0.0, 1.7103945901448371E9, 0.0, 2024-03-13 22:36:30.144
55.0, 9.432027688249946, 3.062978063710034, -1.9821469765156507, 4.469180447049439, 0.8800000417977571, 0.3840000182390213, 0.43200002051889896, 0.0, 0.0, 0.0, 0.0, 0.0, 1.710394590145643E9, 0.0, 2024-03-13 22:36:30.145
55.0, 10.595136574469507, -6.2979915253818035, -12.09483645670116, 1.5183993820101023, 0.8800000417977571, 0.3840000182390213, 0.43200002051889896, 0.0, 0.0, 0.0, 0.0, 0.0, 1.710394590145643E9, 0.0, 2024-03-13 22:36:30.145
56.0, 6.42888802383095, 0.5161061938852072, 1.6343362806364894, 6.193274326622486, 0.8800000417977571, 0.3840000182390213, 0.43200002051889896, 0.0, 0.0, 0.0, 0.0, 0.0, 1.7103945901596737E9, 0.0, 2024-03-13 22:36:30.159
56.0, -0.6582223922014236, -10.46050017606467, -15.816036912612617, -1.6044170809909701, 0.8800000417977571, 0.3840000182390213, 0.43200002051889896, 0.0, 0.0, 0.0, 0.0, 0.0, 1.7103945901596737E9, 0.0, 2024-03-13 22:36:30.159
57.0, 11.563770662993193, -0.05983839929103851, -10.277245078235865, 2.2028010739013553, 0.8800000417977571, 0.3840000182390213, 0.43200002051889896, 0.0, 0.0, 0.0, 0.0, 0.0, 1.7103945901748424E9, 0.0, 2024-03-13 22:36:30.174
57.0, 10.539038075134158, 2.7862254669889808, 5.826764130964875, 8.556891098618507, 0.8800000417977571, 0.3840000182390213, 0.43200002051889896, 0.0, 0.0, 0.0, 0.0, 0.0, 1.7103945901748424E9, 0.0, 2024-03-13 22:36:30.174
58.0, 3.3546902602538466, -3.2088341619819403, 6.799138119444251, 8.250219302251935, 0.8800000417977571, 0.3840000182390213, 0.43200002051889896, 0.0, 0.0, 0.0, 0.0, 0.0, 1.710394590175532E9, 0.0, 2024-03-13 22:36:30.175
58.0, 6.4214082239195704, -4.558938045985997, 2.81240476667881, 8.246479402296245, 0.8800000417977571, 0.3840000182390213, 0.43200002051889896, 0.0, 0.0, 0.0, 0.0, 0.0, 1.710394590175532E9, 0.0, 2024-03-13 22:36:30.175
59.0, 10.707333573140204, 1.3875028835609555, 18.639661379158497, 15.27749131899327, 0.8800000417977571, 0.3840000182390213, 0.43200002051889896, 0.0, 0.0, 0.0, 0.0, 0.0, 1.7103945901895564E9, 0.0, 2024-03-13 22:36:30.189
59.0, -1.0209926879033446, -7.801431307569146, 11.64604846201837, 11.215959967114031, 0.8800000417977571, 0.3840000182390213, 0.43200002051889896, 0.0, 0.0, 0.0, 0.0, 0.0, 1.7103945901895564E9, 0.0, 2024-03-13 22:36:30.189
60.0, -4.41308194771409, -10.913028070703149, -4.110150051303208, 3.8857560539618134, 0.8800000417977571, 0.3840000182390213, 0.43200002051889896, 0.0, 0.0, 0.0, 0.0, 0.0, 1.7103945902048683E9, 0.0, 2024-03-13 22:36:30.204
60.0, 2.659068868495524, -8.407295100390911, 1.447341282851994, 11.810604060068727, 0.8800000417977571, 0.3840000182390213, 0.43200002051889896, 0.0, 0.0, 0.0, 0.0, 0.0, 1.7103945902048683E9, 0.0, 2024-03-13 22:36:30.204
61.0, -2.453374370932579, -6.705640620552003, 15.460746416822076, 13.329003442078829, 0.8800000417977571, 0.3840000182390213, 0.43200002051889896, 0.0, 0.0, 0.0, 0.0, 0.0, 1.7103945902056005E9, 0.0, 2024-03-13 22:36:30.205
61.0, -3.653882256709039, -8.43721430003643, -4.128849551081657, 5.460253935307264, 0.8800000417977571, 0.3840000182390213, 0.43200002051889896, 0.0, 0.0, 0.0, 0.0, 0.0, 1.7103945902056005E9, 0.0, 2024-03-13 22:36:30.205
62.0, 11.765725260600448, -6.084817227907479, -5.119923039339483, 5.553751434199512, 0.8800000417977571, 0.3840000182390213, 0.43200002051889896, 0.0, 0.0, 0.0, 0.0, 0.0, 1.7103945902192056E9, 0.0, 2024-03-13 22:36:30.219
62.0, 11.728326261043549, 0.5834243930876255, 6.271812225691974, 8.362416300922632, 0.8800000417977571, 0.3840000182390213, 0.43200002051889896, 0.0, 0.0, 0.0, 0.0, 0.0, 1.7103945902192056E9, 0.0, 2024-03-13 22:36:30.219
63.0, -2.7899653669446707, -2.3187379725277424, -3.1190765630453825, 0.6283031925559044, 0.8800000417977571, 0.3840000182390213, 0.43200002051889896, 0.0, 0.0, 0.0, 0.0, 0.0, 1.7103945902348144E9, 0.0, 2024-03-13 22:36:30.234
63.0, 0.5796844931319356, -6.82531741913408, -9.181454391218722, -0.4674874944612384, 0.8800000417977571, 0.3840000182390213, 0.43200002051889896, 0.0, 0.0, 0.0, 0.0, 0.0, 1.7103945902348144E9, 0.0, 2024-03-13 22:36:30.234
64.0, 8.751365896314383, -13.25420544296503, 1.2005078857764602, 2.576791069470346, 0.8800000417977571, 0.3840000182390213, 0.43200002051889896, 0.0, 0.0, 0.0, 0.0, 0.0, 1.7103945902356179E9, 0.0, 2024-03-13 22:36:30.235
64.0, 3.9979530526325107, -7.943547505885363, 2.7600461672991514, 4.42056174762547, 0.8800000417977571, 0.3840000182390213, 0.43200002051889896, 0.0, 0.0, 0.0, 0.0, 0.0, 1.7103945902356179E9, 0.0, 2024-03-13 22:36:30.235
65.0, -1.5221392819657922, -8.231519802473485, -14.346256230026484, -4.03161215223372, 0.8800000417977571, 0.3840000182390213, 0.43200002051889896, 0.0, 0.0, 0.0, 0.0, 0.0, 1.7103945902492208E9, 0.0, 2024-03-13 22:36:30.249
65.0, 4.054051551967859, -9.360969589091837, -12.177114255726337, -4.936667941510677, 0.8800000417977571, 0.3840000182390213, 0.43200002051889896, 0.0, 0.0, 0.0, 0.0, 0.0, 1.7103945902492208E9, 0.0, 2024-03-13 22:36:30.249
66.0, -4.450480947270989, -20.17676026094705, -7.539638310670853, -5.538791834376752, 0.8800000417977571, 0.3840000182390213, 0.43200002051889896, 0.0, 0.0, 0.0, 0.0, 0.0, 1.7103945902648873E9, 0.0, 2024-03-13 22:36:30.264
66.0, -4.345763748511672, -18.030057686381042, -16.83702960051596, -9.776098484173417, 0.8800000417977571, 0.3840000182390213, 0.43200002051889896, 0.0, 0.0, 0.0, 0.0, 0.0, 1.7103945902648873E9, 0.0, 2024-03-13 22:36:30.264
67.0, 5.1722816387191415, -12.44264715258032, -13.553397439420223, -5.355536736547947, 0.8800000417977571, 0.3840000182390213, 0.43200002051889896, 0.0, 0.0, 0.0, 0.0, 0.0, 1.71039459026578E9, 0.0, 2024-03-13 22:36:30.265
67.0, -3.388349359855056, -18.05997688602656, 0.7853789906948805, -5.916521729901433, 0.8800000417977571, 0.3840000182390213, 0.43200002051889896, 0.0, 0.0, 0.0, 0.0, 0.0, 1.71039459026578E9, 0.0, 2024-03-13 22:36:30.265
68.0, -4.753412843681872, -16.698653302155435, 0.8788764895871282, -1.6006771810352802, 0.8800000417977571, 0.3840000182390213, 0.43200002051889896, 0.0, 0.0, 0.0, 0.0, 0.0, 1.7103945902791498E9, 0.0, 2024-03-13 22:36:30.279
68.0, 0.8564370898529887, -17.835582888685167, -6.806617919355631, -2.81988456659019, 0.8800000417977571, 0.3840000182390213, 0.43200002051889896, 0.0, 0.0, 0.0, 0.0, 0.0, 1.7103945902791498E9, 0.0, 2024-03-13 22:36:30.279
69.0, 6.470026923343539, -13.474859540350735, 2.2663793731480837, 3.380869559943676, 0.8800000417977571, 0.3840000182390213, 0.43200002051889896, 0.0, 0.0, 0.0, 0.0, 0.0, 1.7103945902948608E9, 0.0, 2024-03-13 22:36:30.294
69.0, -1.5408387817442417, -7.038491716608405, 8.197860702872276, 5.677168132737279, 0.8800000417977571, 0.3840000182390213, 0.43200002051889896, 0.0, 0.0, 0.0, 0.0, 0.0, 1.7103945902948608E9, 0.0, 2024-03-13 22:36:30.294
70.0, -3.5304655581712723, -13.579576739110053, -9.25625239033252, 0.7778991907835007, 0.8800000417977571, 0.3840000182390213, 0.43200002051889896, 0.0, 0.0, 0.0, 0.0, 0.0, 1.710394590295575E9, 0.0, 2024-03-13 22:36:30.295
70.0, 8.257699102163315, -6.069857628084719, -0.11219699867069721, 5.3330973368138075, 0.8800000417977571, 0.3840000182390213, 0.43200002051889896, 0.0, 0.0, 0.0, 0.0, 0.0, 1.710394590295575E9, 0.0, 2024-03-13 22:36:30.295
71.0, 3.6875413563102484, -1.7240938795730472, 5.64724893309176, 7.550858010537922, 0.8800000417977571, 0.3840000182390213, 0.43200002051889896, 0.0, 0.0, 0.0, 0.0, 0.0, 1.7103945903092556E9, 0.0, 2024-03-13 22:36:30.309
71.0, 12.233212755061686, -4.592597145587206, -3.7548595555126667, 6.3802693244069815, 0.8800000417977571, 0.3840000182390213, 0.43200002051889896, 0.0, 0.0, 0.0, 0.0, 0.0, 1.7103945903092556E9, 0.0, 2024-03-13 22:36:30.309
72.0, 10.647495173849165, -5.62106963340193, -9.503085787408054, 2.049465175718069, 0.8800000417977571, 0.3840000182390213, 0.43200002051889896, 0.0, 0.0, 0.0, 0.0, 0.0, 1.7103945903251328E9, 0.0, 2024-03-13 22:36:30.325
72.0, 8.381115800701082, -8.238999602384865, 2.090604075230658, 0.8003385905176401, 0.8800000417977571, 0.3840000182390213, 0.43200002051889896, 0.0, 0.0, 0.0, 0.0, 0.0, 1.7103945903251328E9, 0.0, 2024-03-13 22:36:30.325
73.0, -2.973220464773476, -11.399215064942837, -8.930881094187498, -3.3920892598107457, 0.8800000417977571, 0.3840000182390213, 0.43200002051889896, 0.0, 0.0, 0.0, 0.0, 0.0, 1.7103945903258195E9, 0.0, 2024-03-13 22:36:30.325
73.0, -5.980100029148161, -18.49754518084228, -21.410927246324718, -11.141161968000233, 0.8800000417977571, 0.3840000182390213, 0.43200002051889896, 0.0, 0.0, 0.0, 0.0, 0.0, 1.7103945903258195E9, 0.0, 2024-03-13 22:36:30.325
74.0, 5.512612534686923, -8.702747196890414, -8.508272399194539, -3.6052635572850704, 0.8800000417977571, 0.3840000182390213, 0.43200002051889896, 0.0, 0.0, 0.0, 0.0, 0.0, 1.7103945903394227E9, 0.0, 2024-03-13 22:36:30.339
74.0, -8.512012299150229, -11.578730262815952, -11.488972663879395, -11.073843768797815, 0.8800000417977571, 0.3840000182390213, 0.43200002051889896, 0.0, 0.0, 0.0, 0.0, 0.0, 1.7103945903394227E9, 0.0, 2024-03-13 22:36:30.339
75.0, -11.560030763037503, -17.962739487178624, -27.043216579593718, -15.453266616910696, 0.8800000417977571, 0.3840000182390213, 0.43200002051889896, 0.0, 0.0, 0.0, 0.0, 0.0, 1.7103945903553016E9, 0.0, 2024-03-13 22:36:30.355
75.0, -8.88600229471922, -22.028010739013553, -20.55075025651604, -16.403201205655932, 0.8800000417977571, 0.3840000182390213, 0.43200002051889896, 0.0, 0.0, 0.0, 0.0, 0.0, 1.7103945903553016E9, 0.0, 2024-03-13 22:36:30.355
76.0, -16.807110400870442, -26.313936088234186, -8.43721430003643, -16.05165060982108, 0.8800000417977571, 0.3840000182390213, 0.43200002051889896, 0.0, 0.0, 0.0, 0.0, 0.0, 1.7103945903556948E9, 0.0, 2024-03-13 22:36:30.355
76.0, -19.64943436719477, -36.29198917001486, -24.623501308262348, -19.178206972777843, 0.8800000417977571, 0.3840000182390213, 0.43200002051889896, 0.0, 0.0, 0.0, 0.0, 0.0, 1.7103945903556948E9, 0.0, 2024-03-13 22:36:30.355
77.0, -16.362062306143343, -35.158799483440816, -19.492358569055796, -18.415267381817102, 0.8800000417977571, 0.3840000182390213, 0.43200002051889896, 0.0, 0.0, 0.0, 0.0, 0.0, 1.7103945903694232E9, 0.0, 2024-03-13 22:36:30.369
77.0, -7.158168515190482, -27.77997687086463, -2.490773370489478, -9.776098484173417, 0.8800000417977571, 0.3840000182390213, 0.43200002051889896, 0.0, 0.0, 0.0, 0.0, 0.0, 1.7103945903694232E9, 0.0, 2024-03-13 22:36:30.369
78.0, -2.662808768451214, -20.371235058642924, -5.953920729458332, -9.63772218581289, 0.8800000417977571, 0.3840000182390213, 0.43200002051889896, 0.0, 0.0, 0.0, 0.0, 0.0, 1.7103945903849397E9, 0.0, 2024-03-13 22:36:30.384
78.0, 4.117629851214588, -14.88106192369014, -13.119569044560194, -8.02208540495485, 0.8800000417977571, 0.3840000182390213, 0.43200002051889896, 0.0, 0.0, 0.0, 0.0, 0.0, 1.7103945903849397E9, 0.0, 2024-03-13 22:36:30.384
79.0, 15.943193511106074, -5.845463630743325, 3.784778755158186, 3.145255862735212, 0.8800000417977571, 0.3840000182390213, 0.43200002051889896, 0.0, 0.0, 0.0, 0.0, 0.0, 1.7103945903859406E9, 0.0, 2024-03-13 22:36:30.385
79.0, 7.180607914924622, -3.3509503602981567, 5.306918037123978, 4.753412843681872, 0.8800000417977571, 0.3840000182390213, 0.43200002051889896, 0.0, 0.0, 0.0, 0.0, 0.0, 1.7103945903859406E9, 0.0, 2024-03-13 22:36:30.385
80.0, 7.348903412930667, -5.377976136282086, -3.549165057949722, 1.4323816830292344, 0.8800000417977571, 0.3840000182390213, 0.43200002051889896, 0.0, 0.0, 0.0, 0.0, 0.0, 1.7103945903993857E9, 0.0, 2024-03-13 22:36:30.399
80.0, 12.360369353555143, -3.6501423567533493, 2.6702885683625937, 4.0390919521451, 0.8800000417977571, 0.3840000182390213, 0.43200002051889896, 0.0, 0.0, 0.0, 0.0, 0.0, 1.7103945903993857E9, 0.0, 2024-03-13 22:36:30.399
81.0, 11.806864160113037, 5.194721038453281, 13.489819140173495, 12.719399749301374, 0.8800000417977571, 0.3840000182390213, 0.43200002051889896, 0.0, 0.0, 0.0, 0.0, 0.0, 1.7103945904311922E9, 0.0, 2024-03-13 22:36:30.431
81.0, 13.482339340262115, 1.6567756803706288, 0.7704193908721209, 10.987826069816947, 0.8800000417977571, 0.3840000182390213, 0.43200002051889896, 0.0, 0.0, 0.0, 0.0, 0.0, 1.7103945904311922E9, 0.0, 2024-03-13 22:36:30.431
82.0, 18.232012283988297, 2.861023466102779, -0.5011465940624475, 12.349149653688073, 0.8800000417977571, 0.3840000182390213, 0.43200002051889896, 0.0, 0.0, 0.0, 0.0, 0.0, 1.7103945904319172E9, 0.0, 2024-03-13 22:36:30.431
82.0, 11.709626761265099, 4.629996145144105, 7.831350507214665, 12.517445151694119, 0.8800000417977571, 0.3840000182390213, 0.43200002051889896, 0.0, 0.0, 0.0, 0.0, 0.0, 1.7103945904319172E9, 0.0, 2024-03-13 22:36:30.431
83.0, 2.1878414740785956, 0.8975759893655777, 0.766679490916431, 4.312104648910463, 0.8800000417977571, 0.3840000182390213, 0.43200002051889896, 0.0, 0.0, 0.0, 0.0, 0.0, 1.710394590433063E9, 0.0, 2024-03-13 22:36:30.433
83.0, 6.290511725470424, -5.995059628970921, -13.575836839154363, -1.368803383782506, 0.8800000417977571, 0.3840000182390213, 0.43200002051889896, 0.0, 0.0, 0.0, 0.0, 0.0, 1.710394590433063E9, 0.0, 2024-03-13 22:36:30.433
84.0, 11.604909562505782, -1.1444093864411116, 2.621669868938625, 7.887449006550014, 0.8800000417977571, 0.3840000182390213, 0.43200002051889896, 0.0, 0.0, 0.0, 0.0, 0.0, 1.710394590433804E9, 0.0, 2024-03-13 22:36:30.433
84.0, 5.045125040225685, -1.8400307781994343, 4.592597145587206, 6.814097719267011, 0.8800000417977571, 0.3840000182390213, 0.43200002051889896, 0.0, 0.0, 0.0, 0.0, 0.0, 1.710394590433804E9, 0.0, 2024-03-13 22:36:30.433
85.0, 1.4735205825418234, -6.4588072234764695, -3.3098114607855678, 3.777298955246806, 0.8800000417977571, 0.3840000182390213, 0.43200002051889896, 0.0, 0.0, 0.0, 0.0, 0.0, 1.710394590444244E9, 0.0, 2024-03-13 22:36:30.444
85.0, 2.4645940707996488, -9.469426687806845, 1.20798768568784, 8.276398601941764, 0.8800000417977571, 0.3840000182390213, 0.43200002051889896, 0.0, 0.0, 0.0, 0.0, 0.0, 1.710394590444244E9, 0.0, 2024-03-13 22:36:30.444
86.0, 1.7240938795730472, -14.551950727589428, 8.377375900745392, 6.716860320419073, 0.8800000417977571, 0.3840000182390213, 0.43200002051889896, 0.0, 0.0, 0.0, 0.0, 0.0, 1.7103945904594884E9, 0.0, 2024-03-13 22:36:30.459
86.0, 1.6044170809909701, -21.945732939988375, -3.7324201557785273, 0.845217389985919, 0.8800000417977571, 0.3840000182390213, 0.43200002051889896, 0.0, 0.0, 0.0, 0.0, 0.0, 1.7103945904594884E9, 0.0, 2024-03-13 22:36:30.459
87.0, 5.321877636946738, -11.522631763480604, -4.83195074275136, 2.614190069027245, 0.8800000417977571, 0.3840000182390213, 0.43200002051889896, 0.0, 0.0, 0.0, 0.0, 0.0, 1.7103945904755237E9, 0.0, 2024-03-13 22:36:30.475
87.0, 10.969126570038497, -8.680307797156274, 11.69840706139803, 9.084216992370784, 0.8800000417977571, 0.3840000182390213, 0.43200002051889896, 0.0, 0.0, 0.0, 0.0, 0.0, 1.7103945904755237E9, 0.0, 2024-03-13 22:36:30.475
88.0, 11.623609062284231, 1.166848786175251, 10.591396674513817, 13.803970736451447, 0.8800000417977571, 0.3840000182390213, 0.43200002051889896, 0.0, 0.0, 0.0, 0.0, 0.0, 1.7103945904758387E9, 0.0, 2024-03-13 22:36:30.475
88.0, 10.86814927123487, -1.4249018831178546, -3.4407079592347145, 4.300884949043393, 0.8800000417977571, 0.3840000182390213, 0.43200002051889896, 0.0, 0.0, 0.0, 0.0, 0.0, 1.7103945904758387E9, 0.0, 2024-03-13 22:36:30.475
89.0, 18.50502498075366, 0.3777298955246806, 5.8155444310978055, 10.617575974203646, 0.8800000417977571, 0.3840000182390213, 0.43200002051889896, 0.0, 0.0, 0.0, 0.0, 0.0, 1.7103945905056214E9, 0.0, 2024-03-13 22:36:30.505
89.0, 15.494405516423285, 0.3702500956133008, 11.66100806184113, 11.481492863968015, 0.8800000417977571, 0.3840000182390213, 0.43200002051889896, 0.0, 0.0, 0.0, 0.0, 0.0, 1.7103945905056214E9, 0.0, 2024-03-13 22:36:30.505
90.0, 18.12729508522898, 1.1967679858207703, -4.719753744080663, 11.085063468664885, 0.8800000417977571, 0.3840000182390213, 0.43200002051889896, 0.0, 0.0, 0.0, 0.0, 0.0, 1.7103945905064788E9, 0.0, 2024-03-13 22:36:30.506
90.0, 23.452912622131407, -0.1084570987150073, 2.262639473192394, 9.346009989269078, 0.8800000417977571, 0.3840000182390213, 0.43200002051889896, 0.0, 0.0, 0.0, 0.0, 0.0, 1.7103945905064788E9, 0.0, 2024-03-13 22:36:30.506
91.0, 11.414174664765596, 0.6769218919798732, 7.311504413373768, 11.930280858650804, 0.8800000417977571, 0.3840000182390213, 0.43200002051889896, 0.0, 0.0, 0.0, 0.0, 0.0, 1.7103945905072465E9, 0.0, 2024-03-13 22:36:30.507
91.0, 12.528664851561189, 2.696467868052423, -0.4113889951258898, 8.609249697998166, 0.8800000417977571, 0.3840000182390213, 0.43200002051889896, 0.0, 0.0, 0.0, 0.0, 0.0, 1.7103945905072465E9, 0.0, 2024-03-13 22:36:30.507
92.0, 19.35772217065096, 11.503932263702154, 1.847510578110814, 13.867549035698175, 0.8800000417977571, 0.3840000182390213, 0.43200002051889896, 0.0, 0.0, 0.0, 0.0, 0.0, 1.7103945905192509E9, 0.0, 2024-03-13 22:36:30.519
92.0, 11.171081167645752, 4.00917275249958, 17.454113093204796, 20.300176959484816, 0.8800000417977571, 0.3840000182390213, 0.43200002051889896, 0.0, 0.0, 0.0, 0.0, 0.0, 1.7103945905192509E9, 0.0, 2024-03-13 22:36:30.519
93.0, 3.4407079592347145, -5.501392834819853, 11.69840706139803, 13.796490936540067, 0.8800000417977571, 0.3840000182390213, 0.43200002051889896, 0.0, 0.0, 0.0, 0.0, 0.0, 1.71039459053485E9, 0.0, 2024-03-13 22:36:30.534
93.0, 5.202200838364661, -0.7741592908278108, -1.731573679484427, 13.785271236672997, 0.8800000417977571, 0.3840000182390213, 0.43200002051889896, 0.0, 0.0, 0.0, 0.0, 0.0, 1.71039459053485E9, 0.0, 2024-03-13 22:36:30.534
94.0, 8.953320493921638, 1.1743285860866308, 0.4151288950815797, 7.2666256139054894, 0.8800000417977571, 0.3840000182390213, 0.43200002051889896, 0.0, 0.0, 0.0, 0.0, 0.0, 1.7103945905355675E9, 0.0, 2024-03-13 22:36:30.535
94.0, 8.968280093744397, 4.169988450594246, 4.356983448378742, 7.808911107480526, 0.8800000417977571, 0.3840000182390213, 0.43200002051889896, 0.0, 0.0, 0.0, 0.0, 0.0, 1.7103945905355675E9, 0.0, 2024-03-13 22:36:30.535
95.0, 7.932327806018293, -1.772712578997016, -11.982639458030462, 2.5917506692931056, 0.8800000417977571, 0.3840000182390213, 0.43200002051889896, 0.0, 0.0, 0.0, 0.0, 0.0, 1.7103945905492997E9, 0.0, 2024-03-13 22:36:30.549
95.0, 12.10231625661254, -2.341177372261882, -3.2499730614945292, 3.3995690597221255, 0.8800000417977571, 0.3840000182390213, 0.43200002051889896, 0.0, 0.0, 0.0, 0.0, 0.0, 1.7103945905492997E9, 0.0, 2024-03-13 22:36:30.549
96.0, 9.435767588205636, -4.155028850771487, 7.5882570100948215, 9.996752581559122, 0.8800000417977571, 0.3840000182390213, 0.43200002051889896, 0.0, 0.0, 0.0, 0.0, 0.0, 1.7103945905648563E9, 0.0, 2024-03-13 22:36:30.564
96.0, 9.297391289845109, -9.719999984838068, -8.545671398751438, -0.8676567897200584, 0.8800000417977571, 0.3840000182390213, 0.43200002051889896, 0.0, 0.0, 0.0, 0.0, 0.0, 1.7103945905648563E9, 0.0, 2024-03-13 22:36:30.564
97.0, 17.35687569435686, -5.22090033814311, -4.775852243416011, 4.925448241643608, 0.8800000417977571, 0.3840000182390213, 0.43200002051889896, 0.0, 0.0, 0.0, 0.0, 0.0, 1.7103945905655837E9, 0.0, 2024-03-13 22:36:30.565
97.0, 17.057683697901666, -2.5169526701793075, 11.421654464676976, 10.385702176950872, 0.8800000417977571, 0.3840000182390213, 0.43200002051889896, 0.0, 0.0, 0.0, 0.0, 0.0, 1.7103945905655837E9, 0.0, 2024-03-13 22:36:30.565
98.0, 14.978299322538078, -0.3141515962779522, 5.722046932205558, 9.6713812854141, 0.8800000417977571, 0.3840000182390213, 0.43200002051889896, 0.0, 0.0, 0.0, 0.0, 0.0, 1.710394590579622E9, 0.0, 2024-03-13 22:36:30.579
98.0, 15.471966116689146, -5.8566833306103945, -10.415621376596391, 2.9582608649507165, 0.8800000417977571, 0.3840000182390213, 0.43200002051889896, 0.0, 0.0, 0.0, 0.0, 0.0, 1.710394590579622E9, 0.0, 2024-03-13 22:36:30.579
99.0, 15.27749131899327, 1.3426240840926766, 5.164801838807762, 6.1783147267997265, 0.8800000417977571, 0.3840000182390213, 0.43200002051889896, 0.0, 0.0, 0.0, 0.0, 0.0, 1.7103945905949452E9, 0.0, 2024-03-13 22:36:30.594
99.0, 9.346009989269078, 4.158768750727177, 3.0068795643746853, 6.668241620995104, 0.8800000417977571, 0.3840000182390213, 0.43200002051889896, 0.0, 0.0, 0.0, 0.0, 0.0, 1.7103945905949452E9, 0.0, 2024-03-13 22:36:30.594
100.0, 11.556290863081813, 0.5385455936193466, -7.158168515190482, 2.9470411650836468, 0.8800000417977571, 0.3840000182390213, 0.43200002051889896, 0.0, 0.0, 0.0, 0.0, 0.0, 1.7103945905956025E9, 0.0, 2024-03-13 22:36:30.595
100.0, 9.331050389446318, 1.1556290863081813, 2.221500573679805, 2.378576371818781, 0.8800000417977571, 0.3840000182390213, 0.43200002051889896, 0.0, 0.0, 0.0, 0.0, 0.0, 1.7103945905956025E9, 0.0, 2024-03-13 22:36:30.595
0.0, -723.2012839815579, -340.0092645715922, -452.8214767850004, -377.6962364250794, 0.8800000417977571, 0.3840000182390213, 0.43200002051889896, 0.0, 0.0, 0.0, 0.0, 0.0, 1.7103945906099892E9, 0.0, 2024-03-13 22:36:30.609
1.0, -723.5827537770383, -342.81792943831533, -464.6059015453793, -378.60503211431205, 0.8800000417977571, 0.3840000182390213, 0.43200002051889896, 0.0, 0.0, 0.0, 0.0, 0.0, 1.710394590610613E9, 0.0, 2024-03-13 22:36:30.610
1.0, -708.6455933540128, -339.4482795782387, -457.0064248354174, -376.00580164510757, 0.8800000417977571, 0.3840000182390213, 0.43200002051889896, 0.0, 0.0, 0.0, 0.0, 0.0, 1.710394590610613E9, 0.0, 2024-03-13 22:36:30.610
2.0, -718.3655933388509, -340.5739894649014, -454.74004546226934, -376.8360594352707, 0.8800000417977571, 0.3840000182390213, 0.43200002051889896, 0.0, 0.0, 0.0, 0.0, 0.0, 1.7103945906247635E9, 0.0, 2024-03-13 22:36:30.624
2.0, -727.3824921320193, -347.91915297787637, -456.36690194299445, -382.31501287035644, 0.8800000417977571, 0.3840000182390213, 0.43200002051889896, 0.0, 0.0, 0.0, 0.0, 0.0, 1.7103945906247635E9, 0.0, 2024-03-13 22:36:30.624
3.0, -725.1310723586939, -361.22945692017674, -477.4038391937502, -392.5286796493456, 0.8800000417977571, 0.3840000182390213, 0.43200002051889896, 0.0, 0.0, 0.0, 0.0, 0.0, 1.7103945906398036E9, 0.0, 2024-03-13 22:36:30.639
3.0, -719.4913032255135, -354.4564981004223, -463.1922193621285, -385.4153899336234, 0.8800000417977571, 0.3840000182390213, 0.43200002051889896, 0.0, 0.0, 0.0, 0.0, 0.0, 1.7103945906398036E9, 0.0, 2024-03-13 22:36:30.639
4.0, -726.6681712404825, -355.78790248464793, -462.84440866624936, -385.0750590376556, 0.8800000417977571, 0.3840000182390213, 0.43200002051889896, 0.0, 0.0, 0.0, 0.0, 0.0, 1.7103945906409533E9, 0.0, 2024-03-13 22:36:30.640
4.0, -724.8917187615298, -349.88634035456926, -475.7994221127592, -393.5534122372046, 0.8800000417977571, 0.3840000182390213, 0.43200002051889896, 0.0, 0.0, 0.0, 0.0, 0.0, 1.7103945906409533E9, 0.0, 2024-03-13 22:36:30.640
5.0, -719.7792755221017, -353.48412411194295, -476.00137671036646, -393.1943818414584, 0.8800000417977571, 0.3840000182390213, 0.43200002051889896, 0.0, 0.0, 0.0, 0.0, 0.0, 1.710394590654379E9, 0.0, 2024-03-13 22:36:30.654
5.0, -716.1141735655256, -345.5368367061019, -462.2348049734719, -383.57535915542394, 0.8800000417977571, 0.3840000182390213, 0.43200002051889896, 0.0, 0.0, 0.0, 0.0, 0.0, 1.710394590654379E9, 0.0, 2024-03-13 22:36:30.654
6.0, -711.2784829228185, -348.9738047653809, -466.6927657206543, -385.2283949358389, 0.8800000417977571, 0.3840000182390213, 0.43200002051889896, 0.0, 0.0, 0.0, 0.0, 0.0, 1.7103945906698036E9, 0.0, 2024-03-13 22:36:30.669
6.0, -715.8112416691147, -343.8239625263959, -477.04106889804825, -389.3235853873193, 0.8800000417977571, 0.3840000182390213, 0.43200002051889896, 0.0, 0.0, 0.0, 0.0, 0.0, 1.7103945906698036E9, 0.0, 2024-03-13 22:36:30.669
7.0, -728.4184444197454, -352.17889902740717, -464.22817164985463, -390.4418154740706, 0.8800000417977571, 0.3840000182390213, 0.43200002051889896, 0.0, 0.0, 0.0, 0.0, 0.0, 1.7103945906708446E9, 0.0, 2024-03-13 22:36:30.670
7.0, -737.1436310163699, -361.37531301844865, -465.6568134329282, -391.91533605661243, 0.8800000417977571, 0.3840000182390213, 0.43200002051889896, 0.0, 0.0, 0.0, 0.0, 0.0, 1.7103945906708446E9, 0.0, 2024-03-13 22:36:30.670
8.0, -731.9040311784483, -354.70333149749786, -472.78132284851745, -388.83365849312395, 0.8800000417977571, 0.3840000182390213, 0.43200002051889896, 0.0, 0.0, 0.0, 0.0, 0.0, 1.7103945906841187E9, 0.0, 2024-03-13 22:36:30.684
8.0, -722.5355817894451, -349.33283516112715, -457.74318512668833, -383.27242725901306, 0.8800000417977571, 0.3840000182390213, 0.43200002051889896, 0.0, 0.0, 0.0, 0.0, 0.0, 1.7103945906841187E9, 0.0, 2024-03-13 22:36:30.684
9.0, -731.1934501868673, -351.9133661305532, -459.0521501111798, -383.7099955538288, 0.8800000417977571, 0.3840000182390213, 0.43200002051889896, 0.0, 0.0, 0.0, 0.0, 0.0, 1.7103945906999068E9, 0.0, 2024-03-13 22:36:30.699
9.0, -722.5206221896224, -347.29832958523184, -471.26666336646304, -391.8816769570112, 0.8800000417977571, 0.3840000182390213, 0.43200002051889896, 0.0, 0.0, 0.0, 0.0, 0.0, 1.7103945906999068E9, 0.0, 2024-03-13 22:36:30.699
10.0, -721.0508415070362, -353.386886713095, -468.5365363988094, -390.8906034687534, 0.8800000417977571, 0.3840000182390213, 0.43200002051889896, 0.0, 0.0, 0.0, 0.0, 0.0, 1.7103945907005088E9, 0.0, 2024-03-13 22:36:30.700
10.0, -722.7113570873626, -353.06151541695, -461.48308508237824, -390.98784086760134, 0.8800000417977571, 0.3840000182390213, 0.43200002051889896, 0.0, 0.0, 0.0, 0.0, 0.0, 1.7103945907005088E9, 0.0, 2024-03-13 22:36:30.700
11.0, -724.3606529678218, -357.2876023668796, -471.532196263317, -391.86671735718846, 0.8800000417977571, 0.3840000182390213, 0.43200002051889896, 0.0, 0.0, 0.0, 0.0, 0.0, 1.7103945907141254E9, 0.0, 2024-03-13 22:36:30.714
11.0, -717.5054163490422, -344.6355208167806, -466.10934132756665, -382.64038416650146, 0.8800000417977571, 0.3840000182390213, 0.43200002051889896, 0.0, 0.0, 0.0, 0.0, 0.0, 1.7103945907141254E9, 0.0, 2024-03-13 22:36:30.714
12.0, -715.5868476717733, -338.8274561855942, -446.40006856108084, -371.9106111936271, 0.8800000417977571, 0.3840000182390213, 0.43200002051889896, 0.0, 0.0, 0.0, 0.0, 0.0, 1.7103945907298033E9, 0.0, 2024-03-13 22:36:30.729
12.0, -721.5632078009658, -343.9847782244906, -451.6845471984707, -377.38208482880145, 0.8800000417977571, 0.3840000182390213, 0.43200002051889896, 0.0, 0.0, 0.0, 0.0, 0.0, 1.7103945907298033E9, 0.0, 2024-03-13 22:36:30.729
13.0, -719.4314648262225, -348.44273897167295, -463.7606841553934, -380.2206688951701, 0.8800000417977571, 0.3840000182390213, 0.43200002051889896, 0.0, 0.0, 0.0, 0.0, 0.0, 1.7103945907305038E9, 0.0, 2024-03-13 22:36:30.730
13.0, -711.2111647236161, -345.89212720189244, -455.3085102555342, -375.22790245432407, 0.8800000417977571, 0.3840000182390213, 0.43200002051889896, 0.0, 0.0, 0.0, 0.0, 0.0, 1.7103945907305038E9, 0.0, 2024-03-13 22:36:30.730
14.0, -718.5862474362366, -342.7281718393788, -454.1229619695805, -375.7664480479434, 0.8800000417977571, 0.3840000182390213, 0.43200002051889896, 0.0, 0.0, 0.0, 0.0, 0.0, 1.710394590744167E9, 0.0, 2024-03-13 22:36:30.744
14.0, -718.9826768315397, -343.4499725308269, -467.96059180563316, -379.6260248022154, 0.8800000417977571, 0.3840000182390213, 0.43200002051889896, 0.0, 0.0, 0.0, 0.0, 0.0, 1.710394590744167E9, 0.0, 2024-03-13 22:36:30.744
15.0, -711.7048315177672, -344.48592481855303, -459.25410470878705, -376.00954154506326, 0.8800000417977571, 0.3840000182390213, 0.43200002051889896, 0.0, 0.0, 0.0, 0.0, 0.0, 1.7103945907599978E9, 0.0, 2024-03-13 22:36:30.759
15.0, -714.6668322826736, -336.706932910718, -449.4518269249238, -372.26590168941766, 0.8800000417977571, 0.3840000182390213, 0.43200002051889896, 0.0, 0.0, 0.0, 0.0, 0.0, 1.7103945907599978E9, 0.0, 2024-03-13 22:36:30.759
16.0, -720.4935964136384, -342.1971060456708, -459.5757361049764, -377.9580294219777, 0.8800000417977571, 0.3840000182390213, 0.43200002051889896, 0.0, 0.0, 0.0, 0.0, 0.0, 1.7103945907604904E9, 0.0, 2024-03-13 22:36:30.760
16.0, -712.3742736098357, -337.1183219058439, -461.5317037818022, -378.31331991776824, 0.8800000417977571, 0.3840000182390213, 0.43200002051889896, 0.0, 0.0, 0.0, 0.0, 0.0, 1.7103945907604904E9, 0.0, 2024-03-13 22:36:30.760
17.0, -714.8313878807239, -339.0892491824925, -452.10715589346364, -374.9100109580904, 0.8800000417977571, 0.3840000182390213, 0.43200002051889896, 0.0, 0.0, 0.0, 0.0, 0.0, 1.710394590774806E9, 0.0, 2024-03-13 22:36:30.774
17.0, -723.9492639726959, -347.5302033824846, -458.70433941530064, -383.8558516521007, 0.8800000417977571, 0.3840000182390213, 0.43200002051889896, 0.0, 0.0, 0.0, 0.0, 0.0, 1.710394590774806E9, 0.0, 2024-03-13 22:36:30.774
18.0, -719.2669092281722, -344.29518992081285, -471.5770750627853, -385.31815253477544, 0.8800000417977571, 0.3840000182390213, 0.43200002051889896, 0.0, 0.0, 0.0, 0.0, 0.0, 1.7103945907902353E9, 0.0, 2024-03-13 22:36:30.790
18.0, -714.8650469803251, -339.66893367562443, -455.44688655389473, -379.39041110500693, 0.8800000417977571, 0.3840000182390213, 0.43200002051889896, 0.0, 0.0, 0.0, 0.0, 0.0, 1.7103945907902353E9, 0.0, 2024-03-13 22:36:30.790
19.0, -724.4017918673344, -337.51101140119135, -458.3789681191556, -381.0995453847572, 0.8800000417977571, 0.3840000182390213, 0.43200002051889896, 0.0, 0.0, 0.0, 0.0, 0.0, 1.71039459079079E9, 0.0, 2024-03-13 22:36:30.790
19.0, -721.6978441993706, -344.22413182165474, -468.69735209690407, -385.5612460318953, 0.8800000417977571, 0.3840000182390213, 0.43200002051889896, 0.0, 0.0, 0.0, 0.0, 0.0, 1.71039459079079E9, 0.0, 2024-03-13 22:36:30.790
20.0, -710.60904083075, -337.18564010504633, -460.0881023989059, -383.72121525369585, 0.8800000417977571, 0.3840000182390213, 0.43200002051889896, 0.0, 0.0, 0.0, 0.0, 0.0, 1.7103945908041787E9, 0.0, 2024-03-13 22:36:30.804
20.0, -716.4432847616263, -340.6413076641038, -458.0236776233651, -387.79770620539784, 0.8800000417977571, 0.3840000182390213, 0.43200002051889896, 0.0, 0.0, 0.0, 0.0, 0.0, 1.7103945908041787E9, 0.0, 2024-03-13 22:36:30.804
21.0, -726.4288176433183, -341.157413857989, -475.8667403119616, -396.47053420264274, 0.8800000417977571, 0.3840000182390213, 0.43200002051889896, 0.0, 0.0, 0.0, 0.0, 0.0, 1.71039459081991E9, 0.0, 2024-03-13 22:36:30.819
21.0, -720.9349046084099, -346.7485642917454, -487.83068027021363, -400.21417405828834, 0.8800000417977571, 0.3840000182390213, 0.43200002051889896, 0.0, 0.0, 0.0, 0.0, 0.0, 1.71039459081991E9, 0.0, 2024-03-13 22:36:30.819
22.0, -720.3440004154108, -345.5704958057031, -471.5733351628296, -396.2237008055672, 0.8800000417977571, 0.3840000182390213, 0.43200002051889896, 0.0, 0.0, 0.0, 0.0, 0.0, 1.71039459082061E9, 0.0, 2024-03-13 22:36:30.820
22.0, -727.9098180257715, -350.85123454313725, -478.23035708395764, -402.4543741317466, 0.8800000417977571, 0.3840000182390213, 0.43200002051889896, 0.0, 0.0, 0.0, 0.0, 0.0, 1.71039459082061E9, 0.0, 2024-03-13 22:36:30.820
23.0, -725.5424613538198, -349.04112296458334, -489.04988765576854, -404.2270867107436, 0.8800000417977571, 0.3840000182390213, 0.43200002051889896, 0.0, 0.0, 0.0, 0.0, 0.0, 1.7103945908341796E9, 0.0, 2024-03-13 22:36:30.834
23.0, -722.3111877921037, -339.8970675729215, -468.88808699464425, -394.90351612120867, 0.8800000417977571, 0.3840000182390213, 0.43200002051889896, 0.0, 0.0, 0.0, 0.0, 0.0, 1.7103945908341796E9, 0.0, 2024-03-13 22:36:30.834
24.0, -726.7317495397292, -346.11652119923383, -462.0852089752443, -386.6345973191783, 0.8800000417977571, 0.3840000182390213, 0.43200002051889896, 0.0, 0.0, 0.0, 0.0, 0.0, 1.71039459084984E9, 0.0, 2024-03-13 22:36:30.849
24.0, -718.8929192326032, -335.65976092312485, -470.4999838755466, -388.50454729702324, 0.8800000417977571, 0.3840000182390213, 0.43200002051889896, 0.0, 0.0, 0.0, 0.0, 0.0, 1.71039459084984E9, 0.0, 2024-03-13 22:36:30.849
25.0, -710.5192832318135, -330.1172291887924, -462.18244637409225, -381.2940201824531, 0.8800000417977571, 0.3840000182390213, 0.43200002051889896, 0.0, 0.0, 0.0, 0.0, 0.0, 1.710394590850562E9, 0.0, 2024-03-13 22:36:30.850
25.0, -713.4625844969414, -335.28203102760017, -457.7207457269542, -382.86477816384286, 0.8800000417977571, 0.3840000182390213, 0.43200002051889896, 0.0, 0.0, 0.0, 0.0, 0.0, 1.710394590850562E9, 0.0, 2024-03-13 22:36:30.850
26.0, -719.8391139213927, -336.99490520730615, -470.73933747271076, -385.3742510341108, 0.8800000417977571, 0.3840000182390213, 0.43200002051889896, 0.0, 0.0, 0.0, 0.0, 0.0, 1.7103945908641565E9, 0.0, 2024-03-13 22:36:30.864
26.0, -709.8049623402767, -334.3021772392094, -465.22298503806815, -382.4459093688056, 0.8800000417977571, 0.3840000182390213, 0.43200002051889896, 0.0, 0.0, 0.0, 0.0, 0.0, 1.7103945908641565E9, 0.0, 2024-03-13 22:36:30.864
27.0, -713.3503874982707, -339.0555900828913, -451.7518653976731, -380.0598531970754, 0.8800000417977571, 0.3840000182390213, 0.43200002051889896, 0.0, 0.0, 0.0, 0.0, 0.0, 1.7103945908799431E9, 0.0, 2024-03-13 22:36:30.879
27.0, -723.0666475831531, -345.1291876109317, -458.25181152066216, -383.68381625413895, 0.8800000417977571, 0.3840000182390213, 0.43200002051889896, 0.0, 0.0, 0.0, 0.0, 0.0, 1.7103945908799431E9, 0.0, 2024-03-13 22:36:30.879
28.0, -716.3610069626011, -348.91770626604557, -469.5350896869786, -386.0362133262679, 0.8800000417977571, 0.3840000182390213, 0.43200002051889896, 0.0, 0.0, 0.0, 0.0, 0.0, 1.710394590880602E9, 0.0, 2024-03-13 22:36:30.880
28.0, -717.3109415513463, -345.92952620144933, -457.9451397242956, -376.90711753442883, 0.8800000417977571, 0.3840000182390213, 0.43200002051889896, 0.0, 0.0, 0.0, 0.0, 0.0, 1.710394590880602E9, 0.0, 2024-03-13 22:36:30.880
29.0, -721.8586598974653, -342.5598763413727, -460.40973379509524, -382.78998016472906, 0.8800000417977571, 0.3840000182390213, 0.43200002051889896, 0.0, 0.0, 0.0, 0.0, 0.0, 1.7103945908941445E9, 0.0, 2024-03-13 22:36:30.894
29.0, -716.9070323561318, -340.73854506295174, -472.67286574980244, -389.82847188133746, 0.8800000417977571, 0.3840000182390213, 0.43200002051889896, 0.0, 0.0, 0.0, 0.0, 0.0, 1.7103945908941445E9, 0.0, 2024-03-13 22:36:30.894
30.0, -704.3147892053239, -330.6782141821459, -464.6395606449805, -381.2603610828519, 0.8800000417977571, 0.3840000182390213, 0.43200002051889896, 0.0, 0.0, 0.0, 0.0, 0.0, 1.7103945909098592E9, 0.0, 2024-03-13 22:36:30.909
30.0, -713.9038926917128, -339.22014568094164, -461.59154218109325, -384.5589528437704, 0.8800000417977571, 0.3840000182390213, 0.43200002051889896, 0.0, 0.0, 0.0, 0.0, 0.0, 1.7103945909098592E9, 0.0, 2024-03-13 22:36:30.909
31.0, -718.6386060356162, -341.24717145692557, -471.2330042668618, -387.879984004423, 0.8800000417977571, 0.3840000182390213, 0.43200002051889896, 0.0, 0.0, 0.0, 0.0, 0.0, 1.710394590910554E9, 0.0, 2024-03-13 22:36:30.910
31.0, -717.9841235433705, -336.7817309098318, -471.04600926907733, -386.76549381762743, 0.8800000417977571, 0.3840000182390213, 0.43200002051889896, 0.0, 0.0, 0.0, 0.0, 0.0, 1.710394590910554E9, 0.0, 2024-03-13 22:36:30.910
32.0, -725.8079942506738, -344.93097291328013, -467.33976841298863, -391.040199466981, 0.8800000417977571, 0.3840000182390213, 0.43200002051889896, 0.0, 0.0, 0.0, 0.0, 0.0, 1.710394590924715E9, 0.0, 2024-03-13 22:36:30.924
32.0, -733.8412993554957, -355.15211949218065, -470.7954359720461, -393.3252783399075, 0.8800000417977571, 0.3840000182390213, 0.43200002051889896, 0.0, 0.0, 0.0, 0.0, 0.0, 1.710394590924715E9, 0.0, 2024-03-13 22:36:30.924
33.0, -724.7608222630806, -352.91939921863377, -479.48322356911376, -393.50479353778064, 0.8800000417977571, 0.3840000182390213, 0.43200002051889896, 0.0, 0.0, 0.0, 0.0, 0.0, 1.7103945909404175E9, 0.0, 2024-03-13 22:36:30.940
33.0, -727.2478557336144, -353.5477024111897, -467.2500108140521, -388.8972367923707, 0.8800000417977571, 0.3840000182390213, 0.43200002051889896, 0.0, 0.0, 0.0, 0.0, 0.0, 1.7103945909404175E9, 0.0, 2024-03-13 22:36:30.940
34.0, -723.3994986792095, -339.18274668138474, -460.92957988893613, -383.3285257583484, 0.8800000417977571, 0.3840000182390213, 0.43200002051889896, 0.0, 0.0, 0.0, 0.0, 0.0, 1.710394590940764E9, 0.0, 2024-03-13 22:36:30.940
34.0, -723.2050238815136, -344.8973138136789, -473.8658938356675, -386.86647111643106, 0.8800000417977571, 0.3840000182390213, 0.43200002051889896, 0.0, 0.0, 0.0, 0.0, 0.0, 1.710394590940764E9, 0.0, 2024-03-13 22:36:30.940
35.0, -709.7787830405869, -343.70802562776953, -468.37572070071474, -382.0382602736354, 0.8800000417977571, 0.3840000182390213, 0.43200002051889896, 0.0, 0.0, 0.0, 0.0, 0.0, 1.7103945909545045E9, 0.0, 2024-03-13 22:36:30.954
35.0, -721.2901951042004, -342.14474744629115, -462.41058027138934, -385.78937992919236, 0.8800000417977571, 0.3840000182390213, 0.43200002051889896, 0.0, 0.0, 0.0, 0.0, 0.0, 1.7103945909545045E9, 0.0, 2024-03-13 22:36:30.954
36.0, -721.7352431989275, -347.85183477867395, -473.8808534354903, -394.69034182373434, 0.8800000417977571, 0.3840000182390213, 0.43200002051889896, 0.0, 0.0, 0.0, 0.0, 0.0, 1.7103945909861927E9, 0.0, 2024-03-13 22:36:30.986
36.0, -718.6834848350845, -352.03304292913526, -479.0568749741651, -397.1586757944897, 0.8800000417977571, 0.3840000182390213, 0.43200002051889896, 0.0, 0.0, 0.0, 0.0, 0.0, 1.7103945909861927E9, 0.0, 2024-03-13 22:36:30.986
37.0, -723.8408068739809, -347.380607384257, -470.3616075771861, -384.80204634089023, 0.8800000417977571, 0.3840000182390213, 0.43200002051889896, 0.0, 0.0, 0.0, 0.0, 0.0, 1.7103945909875605E9, 0.0, 2024-03-13 22:36:30.987
37.0, -727.0496410359628, -349.92747925408185, -473.85467413580045, -393.5309728374705, 0.8800000417977571, 0.3840000182390213, 0.43200002051889896, 0.0, 0.0, 0.0, 0.0, 0.0, 1.7103945909875605E9, 0.0, 2024-03-13 22:36:30.987
38.0, -719.8391139213927, -348.4165596719831, -479.142892673146, -394.9371752208099, 0.8800000417977571, 0.3840000182390213, 0.43200002051889896, 0.0, 0.0, 0.0, 0.0, 0.0, 1.7103945909878483E9, 0.0, 2024-03-13 22:36:30.987
38.0, -724.9627768606879, -354.1236470043659, -468.3420616011135, -394.1891952296719, 0.8800000417977571, 0.3840000182390213, 0.43200002051889896, 0.0, 0.0, 0.0, 0.0, 0.0, 1.7103945909878483E9, 0.0, 2024-03-13 22:36:30.987
39.0, -732.0685867764987, -354.81926839612424, -469.77444328414276, -393.0036469437182, 0.8800000417977571, 0.3840000182390213, 0.43200002051889896, 0.0, 0.0, 0.0, 0.0, 0.0, 1.7103945909886167E9, 0.0, 2024-03-13 22:36:30.988
39.0, -730.4753893953748, -361.2930352194235, -484.6143663083203, -399.8102648630738, 0.8800000417977571, 0.3840000182390213, 0.43200002051889896, 0.0, 0.0, 0.0, 0.0, 0.0, 1.7103945909886167E9, 0.0, 2024-03-13 22:36:30.988
40.0, -725.7444159514271, -349.70682515669614, -479.1728118727915, -392.68575544748455, 0.8800000417977571, 0.3840000182390213, 0.43200002051889896, 0.0, 0.0, 0.0, 0.0, 0.0, 1.7103945909996412E9, 0.0, 2024-03-13 22:36:30.999
40.0, -728.904631413985, -354.73699059709907, -471.96602465817705, -391.1224772660062, 0.8800000417977571, 0.3840000182390213, 0.43200002051889896, 0.0, 0.0, 0.0, 0.0, 0.0, 1.7103945909996412E9, 0.0, 2024-03-13 22:36:30.999
41.0, -727.288994633127, -339.85218877345324, -479.30370837124065, -390.42311597429216, 0.8800000417977571, 0.3840000182390213, 0.43200002051889896, 0.0, 0.0, 0.0, 0.0, 0.0, 1.7103945910142038E9, 0.0, 2024-03-13 22:36:31.014
41.0, -722.3972054910846, -345.5779756056145, -478.97459717513993, -390.7335276706144, 0.8800000417977571, 0.3840000182390213, 0.43200002051889896, 0.0, 0.0, 0.0, 0.0, 0.0, 1.7103945910142038E9, 0.0, 2024-03-13 22:36:31.014
42.0, -724.1736579700373, -348.3791606724262, -466.59178842185065, -388.8897569924593, 0.8800000417977571, 0.3840000182390213, 0.43200002051889896, 0.0, 0.0, 0.0, 0.0, 0.0, 1.7103945910300393E9, 0.0, 2024-03-13 22:36:31.030
42.0, -733.9198372545652, -350.1967520508915, -471.2741431663744, -387.3227389110252, 0.8800000417977571, 0.3840000182390213, 0.43200002051889896, 0.0, 0.0, 0.0, 0.0, 0.0, 1.7103945910300393E9, 0.0, 2024-03-13 22:36:31.030
43.0, -733.8786983550526, -355.52610948774964, -483.30166142387316, -392.6408766480163, 0.8800000417977571, 0.3840000182390213, 0.43200002051889896, 0.0, 0.0, 0.0, 0.0, 0.0, 1.7103945910308175E9, 0.0, 2024-03-13 22:36:31.030
43.0, -720.041068519, -340.44309296645224, -460.3536352957599, -382.6553437663242, 0.8800000417977571, 0.3840000182390213, 0.43200002051889896, 0.0, 0.0, 0.0, 0.0, 0.0, 1.7103945910308175E9, 0.0, 2024-03-13 22:36:31.030
44.0, -729.4319573077373, -344.4634854188189, -466.3561747246422, -384.15878354851156, 0.8800000417977571, 0.3840000182390213, 0.43200002051889896, 0.0, 0.0, 0.0, 0.0, 0.0, 1.7103945910609753E9, 0.0, 2024-03-13 22:36:31.060
44.0, -709.2065783473663, -337.39507450256497, -467.6838392089121, -378.82942611165345, 0.8800000417977571, 0.3840000182390213, 0.43200002051889896, 0.0, 0.0, 0.0, 0.0, 0.0, 1.7103945910609753E9, 0.0, 2024-03-13 22:36:31.060
45.0, -709.5917880428024, -332.0470175659284, -460.0245240996592, -374.0199147686362, 0.8800000417977571, 0.3840000182390213, 0.43200002051889896, 0.0, 0.0, 0.0, 0.0, 0.0, 1.7103945910616567E9, 0.0, 2024-03-13 22:36:31.061
45.0, -712.8903798037209, -336.007571619004, -460.06566299917176, -376.929556934163, 0.8800000417977571, 0.3840000182390213, 0.43200002051889896, 0.0, 0.0, 0.0, 0.0, 0.0, 1.7103945910616567E9, 0.0, 2024-03-13 22:36:31.061
46.0, -716.3946660622023, -334.126401941292, -467.70253870869055, -380.6283179903403, 0.8800000417977571, 0.3840000182390213, 0.43200002051889896, 0.0, 0.0, 0.0, 0.0, 0.0, 1.710394591062132E9, 0.0, 2024-03-13 22:36:31.062
46.0, -707.6133809662424, -341.8979140492156, -470.40648637665436, -380.4675022922456, 0.8800000417977571, 0.3840000182390213, 0.43200002051889896, 0.0, 0.0, 0.0, 0.0, 0.0, 1.710394591062132E9, 0.0, 2024-03-13 22:36:31.062
47.0, -708.2304644589312, -329.8629159918055, -452.80651718517765, -378.90048421081156, 0.8800000417977571, 0.3840000182390213, 0.43200002051889896, 0.0, 0.0, 0.0, 0.0, 0.0, 1.710394591074486E9, 0.0, 2024-03-13 22:36:31.074
47.0, -710.3098488342948, -334.3545358385891, -455.7872174498625, -374.22560926619917, 0.8800000417977571, 0.3840000182390213, 0.43200002051889896, 0.0, 0.0, 0.0, 0.0, 0.0, 1.710394591074486E9, 0.0, 2024-03-13 22:36:31.074
48.0, -707.6320804660209, -332.4172676615417, -462.11138827493414, -374.5023618629202, 0.8800000417977571, 0.3840000182390213, 0.43200002051889896, 0.0, 0.0, 0.0, 0.0, 0.0, 1.7103945910903113E9, 0.0, 2024-03-13 22:36:31.090
48.0, -702.298983129207, -327.43946082051843, -442.58163070632145, -370.1865173140541, 0.8800000417977571, 0.3840000182390213, 0.43200002051889896, 0.0, 0.0, 0.0, 0.0, 0.0, 1.7103945910903113E9, 0.0, 2024-03-13 22:36:31.090
49.0, -708.0098103615455, -331.3513961741701, -446.10461646458134, -371.08783320337534, 0.8800000417977571, 0.3840000182390213, 0.43200002051889896, 0.0, 0.0, 0.0, 0.0, 0.0, 1.710394591090879E9, 0.0, 2024-03-13 22:36:31.090
49.0, -714.2778826872818, -341.2022926574573, -465.95974532933906, -385.8492183284834, 0.8800000417977571, 0.3840000182390213, 0.43200002051889896, 0.0, 0.0, 0.0, 0.0, 0.0, 1.710394591090879E9, 0.0, 2024-03-13 22:36:31.090
50.0, -711.9367053150199, -347.6835392806679, -457.7207457269542, -380.75547458883375, 0.8800000417977571, 0.3840000182390213, 0.43200002051889896, 0.0, 0.0, 0.0, 0.0, 0.0, 1.7103945911041358E9, 0.0, 2024-03-13 22:36:31.104
50.0, -723.7921881745569, -344.78137691505253, -455.22249255655333, -383.8932506516576, 0.8800000417977571, 0.3840000182390213, 0.43200002051889896, 0.0, 0.0, 0.0, 0.0, 0.0, 1.7103945911041358E9, 0.0, 2024-03-13 22:36:31.104
51.0, -726.589633341413, -346.21749849803746, -462.5788757693954, -386.0287335263565, 0.8800000417977571, 0.3840000182390213, 0.43200002051889896, 0.0, 0.0, 0.0, 0.0, 0.0, 1.7103945911198869E9, 0.0, 2024-03-13 22:36:31.119
51.0, -714.9435848793946, -342.7580910390243, -464.9424925413914, -381.08084588497877, 0.8800000417977571, 0.3840000182390213, 0.43200002051889896, 0.0, 0.0, 0.0, 0.0, 0.0, 1.7103945911198869E9, 0.0, 2024-03-13 22:36:31.119
52.0, -723.8856856734492, -344.6130814170465, -454.10426246980205, -377.1838701311499, 0.8800000417977571, 0.3840000182390213, 0.43200002051889896, 0.0, 0.0, 0.0, 0.0, 0.0, 1.7103945911207893E9, 0.0, 2024-03-13 22:36:31.120
52.0, -717.7036310466938, -342.55613644141704, -459.35882190754637, -380.041153697297, 0.8800000417977571, 0.3840000182390213, 0.43200002051889896, 0.0, 0.0, 0.0, 0.0, 0.0, 1.7103945911207893E9, 0.0, 2024-03-13 22:36:31.120
53.0, -711.1176672247238, -338.62550158798695, -466.4160131239332, -384.05406634975225, 0.8800000417977571, 0.3840000182390213, 0.43200002051889896, 0.0, 0.0, 0.0, 0.0, 0.0, 1.7103945911341825E9, 0.0, 2024-03-13 22:36:31.134
53.0, -705.1487868954428, -333.8720887443051, -455.5628234525211, -375.79636724758893, 0.8800000417977571, 0.3840000182390213, 0.43200002051889896, 0.0, 0.0, 0.0, 0.0, 0.0, 1.7103945911341825E9, 0.0, 2024-03-13 22:36:31.134
54.0, -712.864200504031, -331.074643577449, -457.3056168318726, -377.93559002224356, 0.8800000417977571, 0.3840000182390213, 0.43200002051889896, 0.0, 0.0, 0.0, 0.0, 0.0, 1.7103945911500535E9, 0.0, 2024-03-13 22:36:31.150
54.0, -713.3017687988468, -338.5581833887845, -473.86215393571183, -389.24504748824984, 0.8800000417977571, 0.3840000182390213, 0.43200002051889896, 0.0, 0.0, 0.0, 0.0, 0.0, 1.7103945911500535E9, 0.0, 2024-03-13 22:36:31.150
55.0, -706.1847391831689, -342.50751774199307, -470.37656717700884, -389.38342378661036, 0.8800000417977571, 0.3840000182390213, 0.43200002051889896, 0.0, 0.0, 0.0, 0.0, 0.0, 1.7103945911506352E9, 0.0, 2024-03-13 22:36:31.150
55.0, -714.6294332831167, -343.03484363574535, -461.29609008459374, -384.8880640398711, 0.8800000417977571, 0.3840000182390213, 0.43200002051889896, 0.0, 0.0, 0.0, 0.0, 0.0, 1.7103945911506352E9, 0.0, 2024-03-13 22:36:31.150
56.0, -714.9548045792617, -347.3058093851432, -471.96228475822136, -390.65124987158924, 0.8800000417977571, 0.3840000182390213, 0.43200002051889896, 0.0, 0.0, 0.0, 0.0, 0.0, 1.7103945911641157E9, 0.0, 2024-03-13 22:36:31.164
56.0, -713.6869784942828, -348.93266586586833, -474.22866413136944, -394.7053014235571, 0.8800000417977571, 0.3840000182390213, 0.43200002051889896, 0.0, 0.0, 0.0, 0.0, 0.0, 1.7103945911641157E9, 0.0, 2024-03-13 22:36:31.164
57.0, -722.4720034901984, -351.59173473436385, -464.69939904427156, -396.9230620972812, 0.8800000417977571, 0.3840000182390213, 0.43200002051889896, 0.0, 0.0, 0.0, 0.0, 0.0, 1.7103945911801932E9, 0.0, 2024-03-13 22:36:31.180
57.0, -721.1854779054411, -353.4242857126519, -462.9341662651859, -395.1503495182842, 0.8800000417977571, 0.3840000182390213, 0.43200002051889896, 0.0, 0.0, 0.0, 0.0, 0.0, 1.7103945911801932E9, 0.0, 2024-03-13 22:36:31.180
58.0, -716.3011685633101, -351.6440933337435, -468.1326272035949, -396.94924139697105, 0.8800000417977571, 0.3840000182390213, 0.43200002051889896, 0.0, 0.0, 0.0, 0.0, 0.0, 1.7103945911807427E9, 0.0, 2024-03-13 22:36:31.180
58.0, -711.4841774203815, -347.055236088112, -453.06457028212026, -385.5575061319396, 0.8800000417977571, 0.3840000182390213, 0.43200002051889896, 0.0, 0.0, 0.0, 0.0, 0.0, 1.7103945911807427E9, 0.0, 2024-03-13 22:36:31.180
59.0, -712.5425691078417, -341.14993405807763, -457.17846023337916, -383.90447035152465, 0.8800000417977571, 0.3840000182390213, 0.43200002051889896, 0.0, 0.0, 0.0, 0.0, 0.0, 1.7103945911942835E9, 0.0, 2024-03-13 22:36:31.194
59.0, -717.4642774495296, -341.7258786512539, -469.9801377817057, -390.94296206813306, 0.8800000417977571, 0.3840000182390213, 0.43200002051889896, 0.0, 0.0, 0.0, 0.0, 0.0, 1.7103945911942835E9, 0.0, 2024-03-13 22:36:31.194
60.0, -714.6705721826293, -347.3918270841241, -467.0480562164448, -392.53241954930127, 0.8800000417977571, 0.3840000182390213, 0.43200002051889896, 0.0, 0.0, 0.0, 0.0, 0.0, 1.710394591210317E9, 0.0, 2024-03-13 22:36:31.210
60.0, -720.2355433166958, -341.40424725506455, -460.2339584971778, -386.7318347180262, 0.8800000417977571, 0.3840000182390213, 0.43200002051889896, 0.0, 0.0, 0.0, 0.0, 0.0, 1.710394591210317E9, 0.0, 2024-03-13 22:36:31.210
61.0, -723.2910415804945, -341.4304265547544, -471.3452012655325, -389.4806611854583, 0.8800000417977571, 0.3840000182390213, 0.43200002051889896, 0.0, 0.0, 0.0, 0.0, 0.0, 1.710394591210853E9, 0.0, 2024-03-13 22:36:31.210
61.0, -715.2951354752295, -346.48677129484713, -475.63860641466454, -388.7812998937443, 0.8800000417977571, 0.3840000182390213, 0.43200002051889896, 0.0, 0.0, 0.0, 0.0, 0.0, 1.710394591210853E9, 0.0, 2024-03-13 22:36:31.210
62.0, -717.3932193503715, -350.4585450477898, -467.4295260119252, -390.2510805763304, 0.8800000417977571, 0.3840000182390213, 0.43200002051889896, 0.0, 0.0, 0.0, 0.0, 0.0, 1.710394591224543E9, 0.0, 2024-03-13 22:36:31.224
62.0, -721.7950815982185, -350.2416308503598, -474.5876945271157, -393.64316983614117, 0.8800000417977571, 0.3840000182390213, 0.43200002051889896, 0.0, 0.0, 0.0, 0.0, 0.0, 1.710394591224543E9, 0.0, 2024-03-13 22:36:31.224
63.0, -720.1270862179808, -348.7531506679952, -483.56345442077145, -397.0726580955088, 0.8800000417977571, 0.3840000182390213, 0.43200002051889896, 0.0, 0.0, 0.0, 0.0, 0.0, 1.7103945912399404E9, 0.0, 2024-03-13 22:36:31.239
63.0, -709.3112955461256, -343.8277024263516, -461.06421628734097, -384.72724834177643, 0.8800000417977571, 0.3840000182390213, 0.43200002051889896, 0.0, 0.0, 0.0, 0.0, 0.0, 1.7103945912399404E9, 0.0, 2024-03-13 22:36:31.239
64.0, -710.9718111264519, -342.17840654589236, -458.3004302200861, -381.2865403825417, 0.8800000417977571, 0.3840000182390213, 0.43200002051889896, 0.0, 0.0, 0.0, 0.0, 0.0, 1.7103945912406013E9, 0.0, 2024-03-13 22:36:31.240
64.0, -713.0287561020814, -346.3895338959992, -473.08051484497264, -385.4789682328701, 0.8800000417977571, 0.3840000182390213, 0.43200002051889896, 0.0, 0.0, 0.0, 0.0, 0.0, 1.7103945912406013E9, 0.0, 2024-03-13 22:36:31.240
65.0, -716.6788984588347, -344.4896647185087, -460.6042085927911, -383.74365465343, 0.8800000417977571, 0.3840000182390213, 0.43200002051889896, 0.0, 0.0, 0.0, 0.0, 0.0, 1.7103945912541676E9, 0.0, 2024-03-13 22:36:31.254
65.0, -718.3618534388952, -344.04087672382593, -451.87902199616656, -382.3224926702678, 0.8800000417977571, 0.3840000182390213, 0.43200002051889896, 0.0, 0.0, 0.0, 0.0, 0.0, 1.7103945912541676E9, 0.0, 2024-03-13 22:36:31.254
66.0, -724.0352816716768, -350.3575677489862, -470.1746125794016, -391.97891435585916, 0.8800000417977571, 0.3840000182390213, 0.43200002051889896, 0.0, 0.0, 0.0, 0.0, 0.0, 1.71039459126991E9, 0.0, 2024-03-13 22:36:31.269
66.0, -719.6633386234753, -351.0457093408331, -474.9841239224188, -395.21018791757524, 0.8800000417977571, 0.3840000182390213, 0.43200002051889896, 0.0, 0.0, 0.0, 0.0, 0.0, 1.71039459126991E9, 0.0, 2024-03-13 22:36:31.269
67.0, -726.3502797442488, -351.15416643954813, -463.8242624546401, -391.5151667613536, 0.8800000417977571, 0.3840000182390213, 0.43200002051889896, 0.0, 0.0, 0.0, 0.0, 0.0, 1.7103945912706373E9, 0.0, 2024-03-13 22:36:31.270
67.0, -741.822245860938, -360.574974427931, -472.84864104771987, -399.2642394695431, 0.8800000417977571, 0.3840000182390213, 0.43200002051889896, 0.0, 0.0, 0.0, 0.0, 0.0, 1.7103945912706373E9, 0.0, 2024-03-13 22:36:31.270
68.0, -736.5826460230164, -367.9463172405958, -483.63077261997387, -407.9333275668323, 0.8800000417977571, 0.3840000182390213, 0.43200002051889896, 0.0, 0.0, 0.0, 0.0, 0.0, 1.71039459128414E9, 0.0, 2024-03-13 22:36:31.284
68.0, -730.6362050934695, -356.12449348066, -467.07049561617896, -397.0015999963507, 0.8800000417977571, 0.3840000182390213, 0.43200002051889896, 0.0, 0.0, 0.0, 0.0, 0.0, 1.71039459128414E9, 0.0, 2024-03-13 22:36:31.284
69.0, -727.2665552333929, -346.9019001899287, -461.6775598800741, -387.6593299070373, 0.8800000417977571, 0.3840000182390213, 0.43200002051889896, 0.0, 0.0, 0.0, 0.0, 0.0, 1.7103945912999928E9, 0.0, 2024-03-13 22:36:31.299
69.0, -724.86553946184, -347.77703677956015, -471.63317356212065, -391.3992298627272, 0.8800000417977571, 0.3840000182390213, 0.43200002051889896, 0.0, 0.0, 0.0, 0.0, 0.0, 1.7103945912999928E9, 0.0, 2024-03-13 22:36:31.299
70.0, -709.2776364465244, -339.84096907358617, -459.7963902023621, -384.49163464456797, 0.8800000417977571, 0.3840000182390213, 0.43200002051889896, 0.0, 0.0, 0.0, 0.0, 0.0, 1.7103945913009012E9, 0.0, 2024-03-13 22:36:31.300
70.0, -718.9228384322487, -343.4537124307826, -454.51191156497225, -383.08169236127287, 0.8800000417977571, 0.3840000182390213, 0.43200002051889896, 0.0, 0.0, 0.0, 0.0, 0.0, 1.7103945913009012E9, 0.0, 2024-03-13 22:36:31.300
71.0, -725.8790523498319, -350.7614769442007, -465.6568134329282, -389.75741378217936, 0.8800000417977571, 0.3840000182390213, 0.43200002051889896, 0.0, 0.0, 0.0, 0.0, 0.0, 1.7103945913141873E9, 0.0, 2024-03-13 22:36:31.314
71.0, -717.3109415513463, -342.4177601430565, -470.62340057408437, -385.35181163437665, 0.8800000417977571, 0.3840000182390213, 0.43200002051889896, 0.0, 0.0, 0.0, 0.0, 0.0, 1.7103945913141873E9, 0.0, 2024-03-13 22:36:31.314
72.0, -714.9136656797491, -340.25609796866775, -464.74053794378415, -385.83051882870495, 0.8800000417977571, 0.3840000182390213, 0.43200002051889896, 0.0, 0.0, 0.0, 0.0, 0.0, 1.7103945913299005E9, 0.0, 2024-03-13 22:36:31.329
72.0, -722.995589483995, -345.33862200845033, -465.43989923549816, -386.24564772378653, 0.8800000417977571, 0.3840000182390213, 0.43200002051889896, 0.0, 0.0, 0.0, 0.0, 0.0, 1.7103945913299005E9, 0.0, 2024-03-13 22:36:31.329
73.0, -720.5272555132397, -345.74253120366484, -472.9458784465678, -383.24250805936754, 0.8800000417977571, 0.3840000182390213, 0.43200002051889896, 0.0, 0.0, 0.0, 0.0, 0.0, 1.7103945913305593E9, 0.0, 2024-03-13 22:36:31.330
73.0, -714.0160896903835, -340.7161056632176, -454.6428080634214, -372.4005380878225, 0.8800000417977571, 0.3840000182390213, 0.43200002051889896, 0.0, 0.0, 0.0, 0.0, 0.0, 1.7103945913305593E9, 0.0, 2024-03-13 22:36:31.330
74.0, -715.964577567298, -341.8642549496144, -453.7975906734355, -373.67210407275707, 0.8800000417977571, 0.3840000182390213, 0.43200002051889896, 0.0, 0.0, 0.0, 0.0, 0.0, 1.7103945913441348E9, 0.0, 2024-03-13 22:36:31.344
74.0, -722.3186675920151, -350.7502572443336, -474.89810622343794, -387.8612845046446, 0.8800000417977571, 0.3840000182390213, 0.43200002051889896, 0.0, 0.0, 0.0, 0.0, 0.0, 1.7103945913441348E9, 0.0, 2024-03-13 22:36:31.344
75.0, -714.034789190162, -337.6082488000393, -464.4637853470631, -378.6985296132043, 0.8800000417977571, 0.3840000182390213, 0.43200002051889896, 0.0, 0.0, 0.0, 0.0, 0.0, 1.7103945913602853E9, 0.0, 2024-03-13 22:36:31.360
75.0, -719.8017149218358, -338.58062278851867, -462.7209919677116, -383.6987758539617, 0.8800000417977571, 0.3840000182390213, 0.43200002051889896, 0.0, 0.0, 0.0, 0.0, 0.0, 1.7103945913602853E9, 0.0, 2024-03-13 22:36:31.360
76.0, -724.6822843640111, -349.9798378534615, -477.00366989849135, -394.6641625240445, 0.8800000417977571, 0.3840000182390213, 0.43200002051889896, 0.0, 0.0, 0.0, 0.0, 0.0, 1.7103945913608944E9, 0.0, 2024-03-13 22:36:31.360
76.0, -717.520375948865, -348.70453196857125, -475.63112661475316, -392.6670559477061, 0.8800000417977571, 0.3840000182390213, 0.43200002051889896, 0.0, 0.0, 0.0, 0.0, 0.0, 1.7103945913608944E9, 0.0, 2024-03-13 22:36:31.360
77.0, -719.7530962224118, -342.4215000430122, -462.18618627404794, -387.23298131208867, 0.8800000417977571, 0.3840000182390213, 0.43200002051889896, 0.0, 0.0, 0.0, 0.0, 0.0, 1.7103945913748548E9, 0.0, 2024-03-13 22:36:31.374
77.0, -723.6986906756647, -341.157413857989, -462.7583909672685, -383.5491798557341, 0.8800000417977571, 0.3840000182390213, 0.43200002051889896, 0.0, 0.0, 0.0, 0.0, 0.0, 1.7103945913748548E9, 0.0, 2024-03-13 22:36:31.374
78.0, -722.2812685924582, -347.2085719862953, -475.391773017589, -392.2893260521814, 0.8800000417977571, 0.3840000182390213, 0.43200002051889896, 0.0, 0.0, 0.0, 0.0, 0.0, 1.710394591390312E9, 0.0, 2024-03-13 22:36:31.390
78.0, -714.7304105819203, -345.62659430503845, -462.1712266742252, -389.1478100894019, 0.8800000417977571, 0.3840000182390213, 0.43200002051889896, 0.0, 0.0, 0.0, 0.0, 0.0, 1.710394591390312E9, 0.0, 2024-03-13 22:36:31.390
79.0, -716.7611762578599, -338.8685950851068, -463.9401993532665, -384.0652860496193, 0.8800000417977571, 0.3840000182390213, 0.43200002051889896, 0.0, 0.0, 0.0, 0.0, 0.0, 1.7103945913907743E9, 0.0, 2024-03-13 22:36:31.390
79.0, -717.3221612512134, -347.18239268660545, -479.5468018683605, -392.1509497538209, 0.8800000417977571, 0.3840000182390213, 0.43200002051889896, 0.0, 0.0, 0.0, 0.0, 0.0, 1.7103945913907743E9, 0.0, 2024-03-13 22:36:31.390
80.0, -703.686486012768, -336.13472821749747, -464.6470404448919, -381.4735353803262, 0.8800000417977571, 0.3840000182390213, 0.43200002051889896, 0.0, 0.0, 0.0, 0.0, 0.0, 1.7103945914045577E9, 0.0, 2024-03-13 22:36:31.404
80.0, -713.1858319002204, -331.9460402671248, -454.95695965969935, -378.8892645109445, 0.8800000417977571, 0.3840000182390213, 0.43200002051889896, 0.0, 0.0, 0.0, 0.0, 0.0, 1.7103945914045577E9, 0.0, 2024-03-13 22:36:31.404
81.0, -713.4177056974731, -337.8700417969376, -468.2373444023542, -384.09146534930915, 0.8800000417977571, 0.3840000182390213, 0.43200002051889896, 0.0, 0.0, 0.0, 0.0, 0.0, 1.7103945914198947E9, 0.0, 2024-03-13 22:36:31.419
81.0, -705.4255394921638, -330.5173984840512, -459.194266309496, -374.16203096695244, 0.8800000417977571, 0.3840000182390213, 0.43200002051889896, 0.0, 0.0, 0.0, 0.0, 0.0, 1.7103945914198947E9, 0.0, 2024-03-13 22:36:31.419
82.0, -705.7097718887962, -324.44006105605513, -442.2749589099549, -367.11231955047697, 0.8800000417977571, 0.3840000182390213, 0.43200002051889896, 0.0, 0.0, 0.0, 0.0, 0.0, 1.7103945914208677E9, 0.0, 2024-03-13 22:36:31.420
82.0, -708.2155048591085, -328.58761010691524, -453.36750217853114, -374.23682896606624, 0.8800000417977571, 0.3840000182390213, 0.43200002051889896, 0.0, 0.0, 0.0, 0.0, 0.0, 1.7103945914208677E9, 0.0, 2024-03-13 22:36:31.420
83.0, -704.9543120977469, -327.61897601839155, -461.3147895843722, -374.9174907580018, 0.8800000417977571, 0.3840000182390213, 0.43200002051889896, 0.0, 0.0, 0.0, 0.0, 0.0, 1.710394591434316E9, 0.0, 2024-03-13 22:36:31.434
83.0, -691.9469400518574, -320.8460171986371, -449.4967057243921, -369.93220411706716, 0.8800000417977571, 0.3840000182390213, 0.43200002051889896, 0.0, 0.0, 0.0, 0.0, 0.0, 1.710394591434316E9, 0.0, 2024-03-13 22:36:31.434
84.0, -707.2880096700974, -321.7435931880027, -450.8954283078201, -370.41091131139547, 0.8800000417977571, 0.3840000182390213, 0.43200002051889896, 0.0, 0.0, 0.0, 0.0, 0.0, 1.7103945914501626E9, 0.0, 2024-03-13 22:36:31.450
84.0, -706.00148408534, -324.9299879502505, -459.7515114028938, -372.322000188753, 0.8800000417977571, 0.3840000182390213, 0.43200002051889896, 0.0, 0.0, 0.0, 0.0, 0.0, 1.7103945914501626E9, 0.0, 2024-03-13 22:36:31.450
85.0, -707.2244313708507, -326.94953392632306, -454.40345446625724, -371.9106111936271, 0.8800000417977571, 0.3840000182390213, 0.43200002051889896, 0.0, 0.0, 0.0, 0.0, 0.0, 1.7103945914506662E9, 0.0, 2024-03-13 22:36:31.450
85.0, -715.3437541746534, -336.61717531178147, -450.8206303087063, -374.34902596473694, 0.8800000417977571, 0.3840000182390213, 0.43200002051889896, 0.0, 0.0, 0.0, 0.0, 0.0, 1.7103945914506662E9, 0.0, 2024-03-13 22:36:31.450
86.0, -720.1644852175377, -342.51125764194876, -462.246024673339, -381.61191167868674, 0.8800000417977571, 0.3840000182390213, 0.43200002051889896, 0.0, 0.0, 0.0, 0.0, 0.0, 1.7103945914642427E9, 0.0, 2024-03-13 22:36:31.464
86.0, -715.4896102729253, -339.6838932754472, -459.02971071144566, -382.6740432661027, 0.8800000417977571, 0.3840000182390213, 0.43200002051889896, 0.0, 0.0, 0.0, 0.0, 0.0, 1.7103945914642427E9, 0.0, 2024-03-13 22:36:31.464
87.0, -718.7919419337995, -346.47929149493575, -450.25216551544145, -384.8431852404028, 0.8800000417977571, 0.3840000182390213, 0.43200002051889896, 0.0, 0.0, 0.0, 0.0, 0.0, 1.7103945914799035E9, 0.0, 2024-03-13 22:36:31.479
87.0, -730.5165282948874, -351.67401253338903, -464.7480177436955, -395.8235315103084, 0.8800000417977571, 0.3840000182390213, 0.43200002051889896, 0.0, 0.0, 0.0, 0.0, 0.0, 1.7103945914799035E9, 0.0, 2024-03-13 22:36:31.479
88.0, -721.6754047996365, -349.9873176533729, -470.6421000738628, -390.5914114722982, 0.8800000417977571, 0.3840000182390213, 0.43200002051889896, 0.0, 0.0, 0.0, 0.0, 0.0, 1.7103945914805775E9, 0.0, 2024-03-13 22:36:31.480
88.0, -721.9371977965347, -352.7137047210708, -458.9324733125977, -389.05057269055396, 0.8800000417977571, 0.3840000182390213, 0.43200002051889896, 0.0, 0.0, 0.0, 0.0, 0.0, 1.7103945914805775E9, 0.0, 2024-03-13 22:36:31.480
89.0, -725.3068476566114, -354.63601329829544, -456.06397004658356, -386.42516292165965, 0.8800000417977571, 0.3840000182390213, 0.43200002051889896, 0.0, 0.0, 0.0, 0.0, 0.0, 1.7103945914942229E9, 0.0, 2024-03-13 22:36:31.494
89.0, -724.0016225720756, -344.17551312223077, -466.44593232357875, -387.0011075148359, 0.8800000417977571, 0.3840000182390213, 0.43200002051889896, 0.0, 0.0, 0.0, 0.0, 0.0, 1.7103945914942229E9, 0.0, 2024-03-13 22:36:31.494
90.0, -711.6973517178558, -330.76423188112676, -448.07180384127423, -377.206309530884, 0.8800000417977571, 0.3840000182390213, 0.41600001975893974, 0.0, 0.0, 0.0, 0.0, 0.0, 1.7103945915102367E9, 0.0, 2024-03-13 22:36:31.510
90.0, -711.080268225167, -334.73600563406944, -446.05973766511306, -379.12487820815295, 0.8800000417977571, 0.3840000182390213, 0.41600001975893974, 0.0, 0.0, 0.0, 0.0, 0.0, 1.7103945915102367E9, 0.0, 2024-03-13 22:36:31.510
91.0, -719.0425152308308, -345.2413846096024, -463.210918861907, -390.6325503718108, 0.8800000417977571, 0.3840000182390213, 0.41600001975893974, 0.0, 0.0, 0.0, 0.0, 0.0, 1.7103945915108275E9, 0.0, 2024-03-13 22:36:31.510
91.0, -712.6435464066453, -339.51559777744114, -462.7845702669583, -387.61071120761335, 0.8800000417977571, 0.3840000182390213, 0.41600001975893974, 0.0, 0.0, 0.0, 0.0, 0.0, 1.7103945915108275E9, 0.0, 2024-03-13 22:36:31.510
92.0, -713.6832385943271, -336.4264404140413, -454.3810150665231, -381.4810151802376, 0.8800000417977571, 0.3840000182390213, 0.41600001975893974, 0.0, 0.0, 0.0, 0.0, 0.0, 1.710394591524642E9, 0.0, 2024-03-13 22:36:31.524
92.0, -723.1003066827543, -339.0967289824039, -464.6395606449805, -387.83884510491043, 0.8800000417977571, 0.3840000182390213, 0.41600001975893974, 0.0, 0.0, 0.0, 0.0, 0.0, 1.710394591524642E9, 0.0, 2024-03-13 22:36:31.524
93.0, -716.8883328563534, -342.91890673711896, -469.81184228369966, -385.8230390287936, 0.8800000417977571, 0.3840000182390213, 0.41600001975893974, 0.0, 0.0, 0.0, 0.0, 0.0, 1.7103945915398557E9, 0.0, 2024-03-13 22:36:31.539
93.0, -717.580214348156, -339.7212922750041, -455.4244471541606, -381.86622487567365, 0.8800000417977571, 0.3840000182390213, 0.41600001975893974, 0.0, 0.0, 0.0, 0.0, 0.0, 1.7103945915398557E9, 0.0, 2024-03-13 22:36:31.539
94.0, -716.2600296637975, -333.65517454687506, -455.66754065128043, -380.15709059592336, 0.8800000417977571, 0.3840000182390213, 0.41600001975893974, 0.0, 0.0, 0.0, 0.0, 0.0, 1.710394591540622E9, 0.0, 2024-03-13 22:36:31.540
94.0, -720.9349046084099, -340.84700216166675, -466.3449550247751, -384.5926119433716, 0.8800000417977571, 0.3840000182390213, 0.41600001975893974, 0.0, 0.0, 0.0, 0.0, 0.0, 1.710394591540622E9, 0.0, 2024-03-13 22:36:31.540
95.0, -714.0834078895859, -333.3859017500654, -461.21381228556857, -382.0382602736354, 0.8800000417977571, 0.3840000182390213, 0.41600001975893974, 0.0, 0.0, 0.0, 0.0, 0.0, 1.7103945915541835E9, 0.0, 2024-03-13 22:36:31.554
95.0, -720.3813994149677, -343.8651014259085, -452.2642316916026, -382.4085103692487, 0.8800000417977571, 0.3840000182390213, 0.41600001975893974, 0.0, 0.0, 0.0, 0.0, 0.0, 1.7103945915541835E9, 0.0, 2024-03-13 22:36:31.554
96.0, -725.7593755512498, -352.470611223951, -469.43785228813067, -391.64232335984707, 0.8800000417977571, 0.3840000182390213, 0.41600001975893974, 0.0, 0.0, 0.0, 0.0, 0.0, 1.7103945915696287E9, 0.0, 2024-03-13 22:36:31.569
96.0, -716.7275171582587, -348.8316885670647, -472.3587141535245, -392.05371235497296, 0.8800000417977571, 0.3840000182390213, 0.41600001975893974, 0.0, 0.0, 0.0, 0.0, 0.0, 1.7103945915696287E9, 0.0, 2024-03-13 22:36:31.569
97.0, -720.8040081099607, -351.1728659393266, -462.25350447325036, -389.1440701894462, 0.8800000417977571, 0.3840000182390213, 0.41600001975893974, 0.0, 0.0, 0.0, 0.0, 0.0, 1.7103945915848527E9, 0.0, 2024-03-13 22:36:31.584
97.0, -731.2495486862026, -353.9852707060054, -471.7678099605255, -397.420468791388, 0.8800000417977571, 0.3840000182390213, 0.41600001975893974, 0.0, 0.0, 0.0, 0.0, 0.0, 1.7103945915848527E9, 0.0, 2024-03-13 22:36:31.584
98.0, -731.7132962807082, -355.36903368961066, -487.1687179780565, -403.9615538138896, 0.8800000417977571, 0.3840000182390213, 0.41600001975893974, 0.0, 0.0, 0.0, 0.0, 0.0, 1.710394591585607E9, 0.0, 2024-03-13 22:36:31.585
98.0, -720.534735313151, -353.5738817108795, -466.2477176259272, -398.3704033801332, 0.8800000417977571, 0.3840000182390213, 0.41600001975893974, 0.0, 0.0, 0.0, 0.0, 0.0, 1.710394591585607E9, 0.0, 2024-03-13 22:36:31.585
99.0, -725.51628205413, -351.8610075311735, -470.63462027395144, -396.3770367037505, 0.8800000417977571, 0.3840000182390213, 0.41600001975893974, 0.0, 0.0, 0.0, 0.0, 0.0, 1.7103945916165075E9, 0.0, 2024-03-13 22:36:31.616
99.0, -726.0847468473949, -351.4346589362249, -478.7726425775327, -396.9305418971926, 0.8800000417977571, 0.3840000182390213, 0.41600001975893974, 0.0, 0.0, 0.0, 0.0, 0.0, 1.7103945916165075E9, 0.0, 2024-03-13 22:36:31.616
100.0, -722.2102104933001, -351.6777524333447, -469.78566298400983, -394.23781392909586, 0.8800000417977571, 0.3840000182390213, 0.41600001975893974, 0.0, 0.0, 0.0, 0.0, 0.0, 1.7103945916170795E9, 0.0, 2024-03-13 22:36:31.617
100.0, -731.099952687975, -352.0255631292239, -462.1338276746683, -390.8943433687091, 0.8800000417977571, 0.3840000182390213, 0.41600001975893974, 0.0, 0.0, 0.0, 0.0, 0.0, 1.7103945916170795E9, 0.0, 2024-03-13 22:36:31.617
0.0, -729.9873324511573, -350.6661094953306, -472.74018394900486, -396.51728295208886, 0.8800000417977571, 0.3840000182390213, 0.41600001975893974, 0.0, 0.0, 0.0, 0.0, 0.0, 1.7103945916178172E9, 0.0, 2024-03-13 22:36:31.617
1.0, -723.2667322307825, -354.09559775469825, -474.6512728263624, -398.4769905288704, 0.8800000417977571, 0.3840000182390213, 0.41600001975893974, 0.0, 0.0, 0.0, 0.0, 0.0, 1.7103945916185012E9, 0.0, 2024-03-13 22:36:31.618
1.0, -727.9790061749518, -348.8410383169539, -461.6850396799855, -397.1231467449106, 0.8800000417977571, 0.3840000182390213, 0.41600001975893974, 0.0, 0.0, 0.0, 0.0, 0.0, 1.7103945916185012E9, 0.0, 2024-03-13 22:36:31.618
2.0, -729.0635771621019, -347.97338152723387, -469.07508199242875, -389.1571598392911, 0.8800000417977571, 0.3840000182390213, 0.41600001975893974, 0.0, 0.0, 0.0, 0.0, 0.0, 1.710394591629201E9, 0.0, 2024-03-13 22:36:31.629
2.0, -728.2370592718944, -351.56742538465187, -470.52616317523643, -387.9903110531159, 0.8800000417977571, 0.3840000182390213, 0.41600001975893974, 0.0, 0.0, 0.0, 0.0, 0.0, 1.710394591629201E9, 0.0, 2024-03-13 22:36:31.629
3.0, -724.8973286114633, -351.0700186905451, -460.36485499562696, -387.07777546392754, 0.8800000417977571, 0.3840000182390213, 0.41600001975893974, 0.0, 0.0, 0.0, 0.0, 0.0, 1.710394591644744E9, 0.0, 2024-03-13 22:36:31.644
3.0, -729.1271554613486, -350.191142200958, -458.3565287194215, -385.37612098408863, 0.8800000417977571, 0.3840000182390213, 0.41600001975893974, 0.0, 0.0, 0.0, 0.0, 0.0, 1.710394591644744E9, 0.0, 2024-03-13 22:36:31.644
4.0, -728.3118572710082, -346.6307574431412, -468.5066171991639, -391.2776831141673, 0.8800000417977571, 0.3840000182390213, 0.41600001975893974, 0.0, 0.0, 0.0, 0.0, 0.0, 1.710394591659971E9, 0.0, 2024-03-13 22:36:31.659
4.0, -722.0774440448731, -352.3640240752138, -466.8685410185717, -394.3892798773013, 0.8800000417977571, 0.3840000182390213, 0.41600001975893974, 0.0, 0.0, 0.0, 0.0, 0.0, 1.710394591659971E9, 0.0, 2024-03-13 22:36:31.659
5.0, -718.2814455898479, -341.50335460389033, -453.58441637596115, -380.44319294253364, 0.8800000417977571, 0.3840000182390213, 0.41600001975893974, 0.0, 0.0, 0.0, 0.0, 0.0, 1.7103945916606731E9, 0.0, 2024-03-13 22:36:31.660
5.0, -718.1729884911329, -341.12936460832134, -464.344108548481, -381.22109213331714, 0.8800000417977571, 0.3840000182390213, 0.41600001975893974, 0.0, 0.0, 0.0, 0.0, 0.0, 1.7103945916606731E9, 0.0, 2024-03-13 22:36:31.660
6.0, -714.7210608320311, -345.5985450553708, -460.77624399075285, -382.9077870133333, 0.8800000417977571, 0.3840000182390213, 0.41600001975893974, 0.0, 0.0, 0.0, 0.0, 0.0, 1.710394591675239E9, 0.0, 2024-03-13 22:36:31.675
6.0, -725.4022151054814, -340.0634931209497, -454.03320437064394, -380.92564003681764, 0.8800000417977571, 0.3840000182390213, 0.41600001975893974, 0.0, 0.0, 0.0, 0.0, 0.0, 1.710394591675239E9, 0.0, 2024-03-13 22:36:31.675
7.0, -729.5422843564302, -354.9557747445069, -462.84814856620505, -388.21844495041296, 0.8800000417977571, 0.3840000182390213, 0.41600001975893974, 0.0, 0.0, 0.0, 0.0, 0.0, 1.7103945916757877E9, 0.0, 2024-03-13 22:36:31.675
7.0, -725.708886901848, -341.7688875007443, -469.51265028724447, -383.9886181005277, 0.8800000417977571, 0.3840000182390213, 0.41600001975893974, 0.0, 0.0, 0.0, 0.0, 0.0, 1.7103945916757877E9, 0.0, 2024-03-13 22:36:31.675
8.0, -709.4552816944197, -330.8109806305729, -457.0924425343983, -377.5260709770955, 0.8800000417977571, 0.3840000182390213, 0.41600001975893974, 0.0, 0.0, 0.0, 0.0, 0.0, 1.7103945916894627E9, 0.0, 2024-03-13 22:36:31.689
8.0, -727.4853393808007, -341.8100264002569, -456.722192438785, -383.8352822023444, 0.8800000417977571, 0.3840000182390213, 0.41600001975893974, 0.0, 0.0, 0.0, 0.0, 0.0, 1.7103945916894627E9, 0.0, 2024-03-13 22:36:31.689
9.0, -719.9045621706173, -337.8083334476687, -472.00716355768964, -386.99175776494667, 0.8800000417977571, 0.3840000182390213, 0.41600001975893974, 0.0, 0.0, 0.0, 0.0, 0.0, 1.7103945917053664E9, 0.0, 2024-03-13 22:36:31.705
9.0, -716.7667861077935, -339.19583633122966, -461.8682947778143, -380.6750667397864, 0.8800000417977571, 0.3840000182390213, 0.41600001975893974, 0.0, 0.0, 0.0, 0.0, 0.0, 1.7103945917053664E9, 0.0, 2024-03-13 22:36:31.705
10.0, -716.0225460166112, -334.86503218254074, -449.69118052208796, -377.10346228210256, 0.8800000417977571, 0.3840000182390213, 0.41600001975893974, 0.0, 0.0, 0.0, 0.0, 0.0, 1.7103945917059784E9, 0.0, 2024-03-13 22:36:31.705
10.0, -713.9169823415577, -333.90387789392844, -452.73919898597524, -373.1167289293371, 0.8800000417977571, 0.3840000182390213, 0.41600001975893974, 0.0, 0.0, 0.0, 0.0, 0.0, 1.7103945917059784E9, 0.0, 2024-03-13 22:36:31.705
11.0, -707.8134656138718, -333.0698802038096, -453.92474727192894, -369.7844780688174, 0.8800000417977571, 0.3840000182390213, 0.41600001975893974, 0.0, 0.0, 0.0, 0.0, 0.0, 1.710394591719434E9, 0.0, 2024-03-13 22:36:31.719
11.0, -713.6065706452355, -338.3693184410222, -441.1567288232036, -371.056044053752, 0.8800000417977571, 0.3840000182390213, 0.41600001975893974, 0.0, 0.0, 0.0, 0.0, 0.0, 1.710394591719434E9, 0.0, 2024-03-13 22:36:31.719
12.0, -722.7693255366758, -344.19608257198706, -454.3847549664788, -377.170780481305, 0.8800000417977571, 0.3840000182390213, 0.41600001975893974, 0.0, 0.0, 0.0, 0.0, 0.0, 1.710394591735131E9, 0.0, 2024-03-13 22:36:31.735
12.0, -717.5671246983111, -342.15783709613606, -464.74053794378415, -379.69895285135135, 0.8800000417977571, 0.3840000182390213, 0.41600001975893974, 0.0, 0.0, 0.0, 0.0, 0.0, 1.710394591735131E9, 0.0, 2024-03-13 22:36:31.735
13.0, -718.8536502830684, -342.79735998855904, -451.88650179607794, -381.4567058305256, 0.8800000417977571, 0.3840000182390213, 0.41600001975893974, 0.0, 0.0, 0.0, 0.0, 0.0, 1.710394591735828E9, 0.0, 2024-03-13 22:36:31.735
13.0, -721.8754894472659, -339.0387605330907, -449.4630466247909, -378.99211175972596, 0.8800000417977571, 0.3840000182390213, 0.41600001975893974, 0.0, 0.0, 0.0, 0.0, 0.0, 1.710394591735828E9, 0.0, 2024-03-13 22:36:31.735
14.0, -716.7518265079707, -340.01487442152575, -462.73595156753436, -380.59278894076124, 0.8800000417977571, 0.3840000182390213, 0.41600001975893974, 0.0, 0.0, 0.0, 0.0, 0.0, 1.7103945917491553E9, 0.0, 2024-03-13 22:36:31.749
14.0, -712.7688330551609, -334.30778708914295, -451.28437790321186, -377.7878639739938, 0.8800000417977571, 0.3840000182390213, 0.41600001975893974, 0.0, 0.0, 0.0, 0.0, 0.0, 1.7103945917491553E9, 0.0, 2024-03-13 22:36:31.749
15.0, -723.887555623427, -342.27003409480676, -450.44290041318163, -376.80801018560305, 0.8800000417977571, 0.3840000182390213, 0.41600001975893974, 0.0, 0.0, 0.0, 0.0, 0.0, 1.710394591765205E9, 0.0, 2024-03-13 22:36:31.765
15.0, -728.4988522687927, -344.4840548685752, -463.6559669566341, -381.1238547344692, 0.8800000417977571, 0.3840000182390213, 0.41600001975893974, 0.0, 0.0, 0.0, 0.0, 0.0, 1.710394591765205E9, 0.0, 2024-03-13 22:36:31.765
16.0, -716.1534425150603, -349.1925889127888, -467.2761901137419, -389.4264326361008, 0.8800000417977571, 0.3840000182390213, 0.41600001975893974, 0.0, 0.0, 0.0, 0.0, 0.0, 1.710394591765624E9, 0.0, 2024-03-13 22:36:31.765
16.0, -722.1073632445186, -346.00993405049667, -461.66260028025135, -387.3171290610917, 0.8800000417977571, 0.3840000182390213, 0.41600001975893974, 0.0, 0.0, 0.0, 0.0, 0.0, 1.710394591765624E9, 0.0, 2024-03-13 22:36:31.765
17.0, -722.0325652454048, -341.93344309879467, -460.92583998898044, -385.99320447677746, 0.8800000417977571, 0.3840000182390213, 0.41600001975893974, 0.0, 0.0, 0.0, 0.0, 0.0, 1.710394591779291E9, 0.0, 2024-03-13 22:36:31.779
17.0, -711.175635674037, -338.27208104217425, -470.9113728706725, -384.4561055949889, 0.8800000417977571, 0.3840000182390213, 0.41600001975893974, 0.0, 0.0, 0.0, 0.0, 0.0, 1.710394591779291E9, 0.0, 2024-03-13 22:36:31.779
18.0, -715.5625383220613, -334.9959286809899, -457.91896042460576, -381.76711752684787, 0.8800000417977571, 0.3840000182390213, 0.41600001975893974, 0.0, 0.0, 0.0, 0.0, 0.0, 1.7103945917951508E9, 0.0, 2024-03-13 22:36:31.795
18.0, -718.9471477819607, -341.4809152041562, -457.21585923293605, -385.14798708679155, 0.8800000417977571, 0.3840000182390213, 0.41600001975893974, 0.0, 0.0, 0.0, 0.0, 0.0, 1.7103945917951508E9, 0.0, 2024-03-13 22:36:31.795
19.0, -720.7796987602487, -338.9116039345972, -472.497090451885, -387.33208866091445, 0.8800000417977571, 0.3840000182390213, 0.41600001975893974, 0.0, 0.0, 0.0, 0.0, 0.0, 1.7103945917957163E9, 0.0, 2024-03-13 22:36:31.795
19.0, -711.8862166656181, -339.6558440257795, -460.88844098942354, -386.5354899703525, 0.8800000417977571, 0.3840000182390213, 0.41600001975893974, 0.0, 0.0, 0.0, 0.0, 0.0, 1.7103945917957163E9, 0.0, 2024-03-13 22:36:31.795
20.0, -720.8993755588308, -345.43024955736473, -455.7236391506158, -386.88330066623166, 0.8800000417977571, 0.3840000182390213, 0.41600001975893974, 0.0, 0.0, 0.0, 0.0, 0.0, 1.71039459180956E9, 0.0, 2024-03-13 22:36:31.809
20.0, -719.0481250807643, -342.4458093927242, -463.73824475565925, -383.4164134073071, 0.8800000417977571, 0.3840000182390213, 0.41600001975893974, 0.0, 0.0, 0.0, 0.0, 0.0, 1.71039459180956E9, 0.0, 2024-03-13 22:36:31.809
21.0, -711.3140119723976, -335.9608228695579, -461.25121128512546, -379.47829875396565, 0.8800000417977571, 0.3840000182390213, 0.41600001975893974, 0.0, 0.0, 0.0, 0.0, 0.0, 1.710394591824905E9, 0.0, 2024-03-13 22:36:31.824
21.0, -709.4365821946412, -335.56065357429907, -451.43023400148377, -380.6825465396978, 0.8800000417977571, 0.3840000182390213, 0.41600001975893974, 0.0, 0.0, 0.0, 0.0, 0.0, 1.710394591824905E9, 0.0, 2024-03-13 22:36:31.824
22.0, -717.5820842981339, -336.8845781586133, -460.7949434905313, -382.97136531258, 0.8800000417977571, 0.3840000182390213, 0.41600001975893974, 0.0, 0.0, 0.0, 0.0, 0.0, 1.710394591825641E9, 0.0, 2024-03-13 22:36:31.825
22.0, -719.1565821794793, -346.2941664471291, -474.5428157276474, -388.99260424124077, 0.8800000417977571, 0.3840000182390213, 0.41600001975893974, 0.0, 0.0, 0.0, 0.0, 0.0, 1.710394591825641E9, 0.0, 2024-03-13 22:36:31.825
23.0, -718.9359280820936, -341.6305112023838, -457.07000313466415, -382.380461119581, 0.8800000417977571, 0.3840000182390213, 0.41600001975893974, 0.0, 0.0, 0.0, 0.0, 0.0, 1.7103945918396208E9, 0.0, 2024-03-13 22:36:31.839
23.0, -736.6293947724625, -354.2339740530588, -464.7592374435626, -389.77798323193565, 0.8800000417977571, 0.3840000182390213, 0.41600001975893974, 0.0, 0.0, 0.0, 0.0, 0.0, 1.7103945918396208E9, 0.0, 2024-03-13 22:36:31.839
24.0, -732.3883482227102, -359.46983399102464, -479.9881100631319, -398.7313037258573, 0.8800000417977571, 0.3840000182390213, 0.41600001975893974, 0.0, 0.0, 0.0, 0.0, 0.0, 1.7103945918549688E9, 0.0, 2024-03-13 22:36:31.854
24.0, -726.9954124866053, -355.8982295333408, -469.5837083864026, -398.7574830255471, 0.8800000417977571, 0.3840000182390213, 0.41600001975893974, 0.0, 0.0, 0.0, 0.0, 0.0, 1.7103945918549688E9, 0.0, 2024-03-13 22:36:31.854
25.0, -724.5569977154955, -352.1097108782269, -459.59069570479915, -388.7195915444754, 0.8800000417977571, 0.3840000182390213, 0.41600001975893974, 0.0, 0.0, 0.0, 0.0, 0.0, 1.7103945918556645E9, 0.0, 2024-03-13 22:36:31.855
25.0, -730.9447468398139, -351.9264557803981, -468.7272712965496, -392.3211152018048, 0.8800000417977571, 0.3840000182390213, 0.41600001975893974, 0.0, 0.0, 0.0, 0.0, 0.0, 1.7103945918556645E9, 0.0, 2024-03-13 22:36:31.855
26.0, -715.6373363211751, -348.369810922537, -467.6090412097983, -389.6022079340182, 0.8800000417977571, 0.3840000182390213, 0.41600001975893974, 0.0, 0.0, 0.0, 0.0, 0.0, 1.7103945918692865E9, 0.0, 2024-03-13 22:36:31.869
26.0, -716.3890562122688, -343.27980708284304, -452.21935289213434, -385.8585680783726, 0.8800000417977571, 0.3840000182390213, 0.41600001975893974, 0.0, 0.0, 0.0, 0.0, 0.0, 1.7103945918692865E9, 0.0, 2024-03-13 22:36:31.869
27.0, -725.6565283024684, -345.78927995311096, -468.97036479366943, -395.47759076440707, 0.8800000417977571, 0.3840000182390213, 0.41600001975893974, 0.0, 0.0, 0.0, 0.0, 0.0, 1.710394591885102E9, 0.0, 2024-03-13 22:36:31.885
27.0, -722.4963128399104, -344.3942972696386, -479.9918499630876, -398.3834930299781, 0.8800000417977571, 0.3840000182390213, 0.41600001975893974, 0.0, 0.0, 0.0, 0.0, 0.0, 1.710394591885102E9, 0.0, 2024-03-13 22:36:31.885
28.0, -714.6462628329173, -338.5488336388953, -468.97036479366943, -392.2724965023808, 0.8800000417977571, 0.3840000182390213, 0.41600001975893974, 0.0, 0.0, 0.0, 0.0, 0.0, 1.7103945918859572E9, 0.0, 2024-03-13 22:36:31.885
28.0, -723.936174322851, -347.52833343250677, -460.5742893931456, -390.29034952586517, 0.8800000417977571, 0.3840000182390213, 0.41600001975893974, 0.0, 0.0, 0.0, 0.0, 0.0, 1.7103945918859572E9, 0.0, 2024-03-13 22:36:31.885
29.0, -717.5372054986656, -341.8062865003012, -473.1665325439535, -389.0636623403989, 0.8800000417977571, 0.3840000182390213, 0.41600001975893974, 0.0, 0.0, 0.0, 0.0, 0.0, 1.7103945918992453E9, 0.0, 2024-03-13 22:36:31.899
29.0, -708.8344583017752, -347.1506035369821, -463.77938365517184, -385.4172598836012, 0.8800000417977571, 0.3840000182390213, 0.41600001975893974, 0.0, 0.0, 0.0, 0.0, 0.0, 1.7103945918992453E9, 0.0, 2024-03-13 22:36:31.899
30.0, -724.4747199164703, -349.0729121142067, -464.2693105493672, -389.00382394110784, 0.8800000417977571, 0.3840000182390213, 0.43200002051889896, 0.0, 0.0, 0.0, 0.0, 0.0, 1.710394591914872E9, 0.0, 2024-03-13 22:36:31.914
30.0, -723.0834771329537, -344.4840548685752, -475.55632861563936, -399.6064403154887, 0.8800000417977571, 0.3840000182390213, 0.43200002051889896, 0.0, 0.0, 0.0, 0.0, 0.0, 1.710394591914872E9, 0.0, 2024-03-13 22:36:31.914
31.0, -720.6263628620654, -345.71822185395285, -478.720283978153, -395.3130351663567, 0.8800000417977571, 0.3840000182390213, 0.43200002051889896, 0.0, 0.0, 0.0, 0.0, 0.0, 1.7103945919157836E9, 0.0, 2024-03-13 22:36:31.915
31.0, -720.933034658432, -350.90172319253907, -468.7983293957077, -392.73998399684206, 0.8800000417977571, 0.3840000182390213, 0.43200002051889896, 0.0, 0.0, 0.0, 0.0, 0.0, 1.7103945919157836E9, 0.0, 2024-03-13 22:36:31.915
32.0, -732.9119342165068, -360.13179628318176, -472.1679792557843, -397.45225794101134, 0.8800000417977571, 0.3840000182390213, 0.43200002051889896, 0.0, 0.0, 0.0, 0.0, 0.0, 1.71039459192925E9, 0.0, 2024-03-13 22:36:31.929
32.0, -731.5655702324584, -360.1056169834919, -481.7570827421732, -399.0940740215592, 0.8800000417977571, 0.3840000182390213, 0.43200002051889896, 0.0, 0.0, 0.0, 0.0, 0.0, 1.71039459192925E9, 0.0, 2024-03-13 22:36:31.929
33.0, -725.8771823998541, -360.8498570746742, -469.5388295869343, -391.34126141341403, 0.8800000417977571, 0.3840000182390213, 0.43200002051889896, 0.0, 0.0, 0.0, 0.0, 0.0, 1.7103945919451096E9, 0.0, 2024-03-13 22:36:31.945
33.0, -728.9887791629881, -355.7822926347144, -467.96059180563316, -390.70173852099106, 0.8800000417977571, 0.3840000182390213, 0.43200002051889896, 0.0, 0.0, 0.0, 0.0, 0.0, 1.7103945919451096E9, 0.0, 2024-03-13 22:36:31.945
34.0, -726.3521496942267, -358.2244473057799, -475.6909650140442, -396.1245934567414, 0.8800000417977571, 0.3840000182390213, 0.43200002051889896, 0.0, 0.0, 0.0, 0.0, 0.0, 1.7103945919457853E9, 0.0, 2024-03-13 22:36:31.945
34.0, -720.2448930665851, -342.15783709613606, -462.836928866338, -389.7966827317141, 0.8800000417977571, 0.3840000182390213, 0.43200002051889896, 0.0, 0.0, 0.0, 0.0, 0.0, 1.7103945919457853E9, 0.0, 2024-03-13 22:36:31.945
35.0, -728.8990215640515, -357.42410871526226, -458.9810920120217, -390.92239261837676, 0.8800000417977571, 0.3840000182390213, 0.43200002051889896, 0.0, 0.0, 0.0, 0.0, 0.0, 1.7103945919592724E9, 0.0, 2024-03-13 22:36:31.959
35.0, -732.885754916817, -356.13758313050494, -474.1987449317239, -393.74975698487833, 0.8800000417977571, 0.3840000182390213, 0.43200002051889896, 0.0, 0.0, 0.0, 0.0, 0.0, 1.7103945919592724E9, 0.0, 2024-03-13 22:36:31.959
36.0, -728.3342966707423, -355.09041114291176, -475.34315431816503, -395.8702802597545, 0.8800000417977571, 0.3840000182390213, 0.43200002051889896, 0.0, 0.0, 0.0, 0.0, 0.0, 1.7103945919753451E9, 0.0, 2024-03-13 22:36:31.975
36.0, -730.6006760438904, -358.561038301792, -463.9028003537096, -394.7931890725158, 0.8800000417977571, 0.3840000182390213, 0.43200002051889896, 0.0, 0.0, 0.0, 0.0, 0.0, 1.7103945919753451E9, 0.0, 2024-03-13 22:36:31.975
37.0, -736.707932671532, -361.13408947130665, -471.11706736823544, -396.7192375496961, 0.8800000417977571, 0.3840000182390213, 0.43200002051889896, 0.0, 0.0, 0.0, 0.0, 0.0, 1.710394591975808E9, 0.0, 2024-03-13 22:36:31.975
37.0, -723.1657549319789, -357.9252553093247, -481.2035775487311, -402.979830075521, 0.8800000417977571, 0.3840000182390213, 0.43200002051889896, 0.0, 0.0, 0.0, 0.0, 0.0, 1.710394591975808E9, 0.0, 2024-03-13 22:36:31.975
38.0, -717.2342736022547, -348.7475408180617, -472.2726964545436, -396.56216175155714, 0.8800000417977571, 0.3840000182390213, 0.43200002051889896, 0.0, 0.0, 0.0, 0.0, 0.0, 1.7103945919895687E9, 0.0, 2024-03-13 22:36:31.989
38.0, -717.3838696004823, -344.9889413625933, -477.2056244960986, -393.5814614868723, 0.8800000417977571, 0.3840000182390213, 0.43200002051889896, 0.0, 0.0, 0.0, 0.0, 0.0, 1.7103945919895687E9, 0.0, 2024-03-13 22:36:31.989
39.0, -719.2799988780171, -347.6330506312661, -486.37959908740595, -396.9548512469046, 0.8800000417977571, 0.3840000182390213, 0.43200002051889896, 0.0, 0.0, 0.0, 0.0, 0.0, 1.7103945920052323E9, 0.0, 2024-03-13 22:36:32.005
39.0, -718.2851854898036, -345.8528582523577, -473.30490884231403, -394.26960307871923, 0.8800000417977571, 0.3840000182390213, 0.43200002051889896, 0.0, 0.0, 0.0, 0.0, 0.0, 1.7103945920052323E9, 0.0, 2024-03-13 22:36:32.005
40.0, -721.6623151497915, -343.46306218067184, -464.6021616454236, -388.06884895218536, 0.8800000417977571, 0.3840000182390213, 0.41600001975893974, 0.0, 0.0, 0.0, 0.0, 0.0, 1.7103945920058944E9, 0.0, 2024-03-13 22:36:32.005
40.0, -727.5713570797816, -348.9195762160234, -478.4958899808116, -393.27104979055, 0.8800000417977571, 0.3840000182390213, 0.41600001975893974, 0.0, 0.0, 0.0, 0.0, 0.0, 1.7103945920058944E9, 0.0, 2024-03-13 22:36:32.005
41.0, -713.8272247426212, -342.64776399033144, -469.4228926883079, -388.73829104425386, 0.8800000417977571, 0.3840000182390213, 0.41600001975893974, 0.0, 0.0, 0.0, 0.0, 0.0, 1.710394592019245E9, 0.0, 2024-03-13 22:36:32.019
41.0, -722.2046006433666, -341.8025466003455, -458.7155591151677, -386.36719447234645, 0.8800000417977571, 0.3840000182390213, 0.41600001975893974, 0.0, 0.0, 0.0, 0.0, 0.0, 1.710394592019245E9, 0.0, 2024-03-13 22:36:32.019
42.0, -727.8481096765026, -349.7722734059207, -467.7586372080259, -389.77798323193565, 0.8800000417977571, 0.3840000182390213, 0.41600001975893974, 0.0, 0.0, 0.0, 0.0, 0.0, 1.7103945920351143E9, 0.0, 2024-03-13 22:36:32.035
42.0, -726.2025536959991, -355.97676743241027, -474.2137045315467, -392.0518424049951, 0.8800000417977571, 0.3840000182390213, 0.41600001975893974, 0.0, 0.0, 0.0, 0.0, 0.0, 1.7103945920351143E9, 0.0, 2024-03-13 22:36:32.035
43.0, -728.0425844741985, -355.54293903755024, -463.03140366403386, -391.1206073160283, 0.8800000417977571, 0.3840000182390213, 0.41600001975893974, 0.0, 0.0, 0.0, 0.0, 0.0, 1.71039459203563E9, 0.0, 2024-03-13 22:36:32.035
43.0, -729.460006557405, -351.64596328372136, -468.36450100084767, -396.1993914558552, 0.8800000417977571, 0.3840000182390213, 0.41600001975893974, 0.0, 0.0, 0.0, 0.0, 0.0, 1.71039459203563E9, 0.0, 2024-03-13 22:36:32.035
44.0, -733.6000758083537, -353.7889259583317, -486.5404147855006, -398.5817077276297, 0.8800000417977571, 0.3840000182390213, 0.41600001975893974, 0.0, 0.0, 0.0, 0.0, 0.0, 1.7103945920491705E9, 0.0, 2024-03-13 22:36:32.049
44.0, -718.7975517837331, -347.82752542896196, -472.52326975157484, -393.1401532921009, 0.8800000417977571, 0.3840000182390213, 0.41600001975893974, 0.0, 0.0, 0.0, 0.0, 0.0, 1.7103945920491705E9, 0.0, 2024-03-13 22:36:32.049
45.0, -723.1133963325992, -350.841884793248, -467.18643251480535, -394.5426157754846, 0.8800000417977571, 0.3840000182390213, 0.41600001975893974, 0.0, 0.0, 0.0, 0.0, 0.0, 1.7103945920650747E9, 0.0, 2024-03-13 22:36:32.065
45.0, -727.1711877845228, -357.7120810118504, -483.8065479178913, -399.2361902198754, 0.8800000417977571, 0.3840000182390213, 0.41600001975893974, 0.0, 0.0, 0.0, 0.0, 0.0, 1.7103945920650747E9, 0.0, 2024-03-13 22:36:32.065
46.0, -726.5241850921884, -359.6717885886319, -482.1684717372991, -397.74771003751084, 0.8800000417977571, 0.3840000182390213, 0.41600001975893974, 0.0, 0.0, 0.0, 0.0, 0.0, 1.710394592065637E9, 0.0, 2024-03-13 22:36:32.065
46.0, -733.8207299057394, -354.5256862496026, -465.15192693891004, -396.7154976497404, 0.8800000417977571, 0.3840000182390213, 0.41600001975893974, 0.0, 0.0, 0.0, 0.0, 0.0, 1.710394592065637E9, 0.0, 2024-03-13 22:36:32.065
47.0, -736.696712971665, -360.2290336820297, -476.9213920994662, -400.52645570458844, 0.8800000417977571, 0.3840000182390213, 0.41600001975893974, 0.0, 0.0, 0.0, 0.0, 0.0, 1.710394592079478E9, 0.0, 2024-03-13 22:36:32.079
47.0, -724.0221920218319, -354.09559775469825, -475.14867952046916, -397.7589297373779, 0.8800000417977571, 0.3840000182390213, 0.41600001975893974, 0.0, 0.0, 0.0, 0.0, 0.0, 1.710394592079478E9, 0.0, 2024-03-13 22:36:32.079
48.0, -721.3818226531148, -351.57864508451894, -464.85647484241053, -394.21724447933957, 0.8800000417977571, 0.3840000182390213, 0.41600001975893974, 0.0, 0.0, 0.0, 0.0, 0.0, 1.710394592095162E9, 0.0, 2024-03-13 22:36:32.095
48.0, -729.508625256829, -353.53461276134476, -473.08051484497264, -396.5846011512913, 0.8800000417977571, 0.3840000182390213, 0.41600001975893974, 0.0, 0.0, 0.0, 0.0, 0.0, 1.710394592095162E9, 0.0, 2024-03-13 22:36:32.095
49.0, -726.2736117951572, -353.13070356613025, -480.1713651609607, -398.8696800242178, 0.8800000417977571, 0.3840000182390213, 0.41600001975893974, 0.0, 0.0, 0.0, 0.0, 0.0, 1.7103945920956354E9, 0.0, 2024-03-13 22:36:32.095
49.0, -718.9882866814733, -345.9650552510284, -469.3181754895486, -388.4652783474885, 0.8800000417977571, 0.3840000182390213, 0.41600001975893974, 0.0, 0.0, 0.0, 0.0, 0.0, 1.7103945920956354E9, 0.0, 2024-03-13 22:36:32.095
50.0, -722.0250854454935, -349.82837190525606, -458.3490489195101, -384.527163694147, 0.8800000417977571, 0.3840000182390213, 0.43200002051889896, 0.0, 0.0, 0.0, 0.0, 0.0, 1.7103945921092193E9, 0.0, 2024-03-13 22:36:32.109
50.0, -727.3955817818642, -349.08413181407377, -468.5402762987651, -389.63212713366374, 0.8800000417977571, 0.3840000182390213, 0.43200002051889896, 0.0, 0.0, 0.0, 0.0, 0.0, 1.7103945921092193E9, 0.0, 2024-03-13 22:36:32.109
51.0, -715.4802605230361, -349.49552080919966, -473.9182524350472, -388.9365057419054, 0.8800000417977571, 0.3840000182390213, 0.43200002051889896, 0.0, 0.0, 0.0, 0.0, 0.0, 1.7103945921249557E9, 0.0, 2024-03-13 22:36:32.124
51.0, -723.139575632289, -350.0752053023316, -459.9871251001023, -390.9485719180666, 0.8800000417977571, 0.3840000182390213, 0.43200002051889896, 0.0, 0.0, 0.0, 0.0, 0.0, 1.7103945921249557E9, 0.0, 2024-03-13 22:36:32.124
52.0, -730.2042466485873, -353.02224646741524, -473.0505956453271, -393.21869119117036, 0.8800000417977571, 0.3840000182390213, 0.43200002051889896, 0.0, 0.0, 0.0, 0.0, 0.0, 1.7103945921402638E9, 0.0, 2024-03-13 22:36:32.140
52.0, -729.5497641563416, -355.97676743241027, -479.40842556999996, -393.36828718939796, 0.8800000417977571, 0.3840000182390213, 0.43200002051889896, 0.0, 0.0, 0.0, 0.0, 0.0, 1.7103945921402638E9, 0.0, 2024-03-13 22:36:32.140
53.0, -732.1078557260334, -357.4914269144647, -465.9447857295163, -389.5760286343284, 0.8800000417977571, 0.3840000182390213, 0.43200002051889896, 0.0, 0.0, 0.0, 0.0, 0.0, 1.710394592140726E9, 0.0, 2024-03-13 22:36:32.140
53.0, -730.533357844688, -349.8620310048573, -468.0129504050128, -389.7293645325117, 0.8800000417977571, 0.3840000182390213, 0.43200002051889896, 0.0, 0.0, 0.0, 0.0, 0.0, 1.710394592140726E9, 0.0, 2024-03-13 22:36:32.140
54.0, -731.6852470310405, -359.91114218579605, -486.74610928306356, -398.77992242528126, 0.8800000417977571, 0.3840000182390213, 0.43200002051889896, 0.0, 0.0, 0.0, 0.0, 0.0, 1.7103945921712365E9, 0.0, 2024-03-13 22:36:32.171
54.0, -730.5520573444664, -363.13119604764506, -479.2812689715065, -399.48302361695096, 0.8800000417977571, 0.3840000182390213, 0.43200002051889896, 0.0, 0.0, 0.0, 0.0, 0.0, 1.7103945921712365E9, 0.0, 2024-03-13 22:36:32.171
55.0, -731.3000373356044, -361.68759466474876, -472.4222924527712, -401.9850166873075, 0.8800000417977571, 0.3840000182390213, 0.43200002051889896, 0.0, 0.0, 0.0, 0.0, 0.0, 1.7103945921719804E9, 0.0, 2024-03-13 22:36:32.171
55.0, -728.5325113683939, -358.57225800165907, -482.37042633490637, -402.82275427738205, 0.8800000417977571, 0.3840000182390213, 0.43200002051889896, 0.0, 0.0, 0.0, 0.0, 0.0, 1.7103945921719804E9, 0.0, 2024-03-13 22:36:32.171
56.0, -718.5544582866132, -354.68650194769725, -485.6877175956033, -403.9858631636016, 0.8800000417977571, 0.3840000182390213, 0.43200002051889896, 0.0, 0.0, 0.0, 0.0, 0.0, 1.7103945921729312E9, 0.0, 2024-03-13 22:36:32.172
56.0, -723.2667322307825, -353.5944511606358, -468.18872570293024, -395.0624618693255, 0.8800000417977571, 0.3840000182390213, 0.43200002051889896, 0.0, 0.0, 0.0, 0.0, 0.0, 1.7103945921729312E9, 0.0, 2024-03-13 22:36:32.172
57.0, -723.3864090293646, -353.085824766662, -471.41625936469063, -394.5052167759277, 0.8800000417977571, 0.3840000182390213, 0.43200002051889896, 0.0, 0.0, 0.0, 0.0, 0.0, 1.7103945921736968E9, 0.0, 2024-03-13 22:36:32.173
57.0, -728.3043774710968, -356.3357978281565, -477.3514805943705, -397.0932275452651, 0.8800000417977571, 0.3840000182390213, 0.43200002051889896, 0.0, 0.0, 0.0, 0.0, 0.0, 1.7103945921736968E9, 0.0, 2024-03-13 22:36:32.173
58.0, -722.586070438847, -348.7325812182389, -461.8346356782131, -389.4301725360565, 0.8800000417977571, 0.3840000182390213, 0.43200002051889896, 0.0, 0.0, 0.0, 0.0, 0.0, 1.7103945921841466E9, 0.0, 2024-03-13 22:36:32.184
58.0, -725.9781596986577, -345.57610565563664, -465.74657103186473, -391.26272351434454, 0.8800000417977571, 0.3840000182390213, 0.43200002051889896, 0.0, 0.0, 0.0, 0.0, 0.0, 1.7103945921841466E9, 0.0, 2024-03-13 22:36:32.184
59.0, -727.5376979801804, -353.28403946431354, -477.0261092982255, -392.92697899462655, 0.8800000417977571, 0.3840000182390213, 0.43200002051889896, 0.0, 0.0, 0.0, 0.0, 0.0, 1.710394592199174E9, 0.0, 2024-03-13 22:36:32.199
59.0, -720.2000142671168, -358.43388170329854, -466.3449550247751, -385.7613306795247, 0.8800000417977571, 0.3840000182390213, 0.43200002051889896, 0.0, 0.0, 0.0, 0.0, 0.0, 1.710394592199174E9, 0.0, 2024-03-13 22:36:32.199
60.0, -722.0961435446516, -352.4388220743276, -456.0901493462734, -380.92190013686195, 0.8800000417977571, 0.3840000182390213, 0.43200002051889896, 0.0, 0.0, 0.0, 0.0, 0.0, 1.7103945922149017E9, 0.0, 2024-03-13 22:36:32.214
60.0, -727.2759049832821, -354.4733276502229, -477.26172299543396, -393.2373906909488, 0.8800000417977571, 0.3840000182390213, 0.43200002051889896, 0.0, 0.0, 0.0, 0.0, 0.0, 1.7103945922149017E9, 0.0, 2024-03-13 22:36:32.214
61.0, -726.5877633914351, -352.1134507781826, -478.1405994850211, -394.52391627570614, 0.8800000417977571, 0.3680000174790621, 0.43200002051889896, 0.0, 0.0, 0.0, 0.0, 0.0, 1.7103945922156205E9, 0.0, 2024-03-13 22:36:32.215
61.0, -728.8167437650263, -351.17099598934874, -465.249164337758, -387.4592452594079, 0.8800000417977571, 0.3680000174790621, 0.43200002051889896, 0.0, 0.0, 0.0, 0.0, 0.0, 1.7103945922156205E9, 0.0, 2024-03-13 22:36:32.215
62.0, -732.1676941253245, -350.1761826011352, -467.73619780829176, -388.760730443988, 0.8800000417977571, 0.3680000174790621, 0.43200002051889896, 0.0, 0.0, 0.0, 0.0, 0.0, 1.71039459222967E9, 0.0, 2024-03-13 22:36:32.229
62.0, -724.2054471196607, -344.3269790704362, -472.73644404904917, -389.44139223592356, 0.8800000417977571, 0.3680000174790621, 0.43200002051889896, 0.0, 0.0, 0.0, 0.0, 0.0, 1.71039459222967E9, 0.0, 2024-03-13 22:36:32.229
63.0, -722.4476941404864, -334.82015338307247, -456.80821013776585, -381.0153976357542, 0.8800000417977571, 0.3680000174790621, 0.43200002051889896, 0.0, 0.0, 0.0, 0.0, 0.0, 1.710394592244911E9, 0.0, 2024-03-13 22:36:32.244
63.0, -724.9534271107987, -351.1859555891715, -459.44857950648293, -388.29324294952676, 0.8800000417977571, 0.3680000174790621, 0.43200002051889896, 0.0, 0.0, 0.0, 0.0, 0.0, 1.710394592244911E9, 0.0, 2024-03-13 22:36:32.244
64.0, -730.8624690407887, -362.54029185464606, -477.5721346917562, -400.2796223075129, 0.8800000417977571, 0.3680000174790621, 0.43200002051889896, 0.0, 0.0, 0.0, 0.0, 0.0, 1.7103945922455907E9, 0.0, 2024-03-13 22:36:32.245
64.0, -724.2989446185529, -356.9753207205795, -473.1665325439535, -394.344401077833, 0.8800000417977571, 0.3680000174790621, 0.43200002051889896, 0.0, 0.0, 0.0, 0.0, 0.0, 1.7103945922455907E9, 0.0, 2024-03-13 22:36:32.245
65.0, -736.539637173526, -359.4137354916893, -466.3935737241991, -397.3101417426951, 0.8800000417977571, 0.3680000174790621, 0.43200002051889896, 0.0, 0.0, 0.0, 0.0, 0.0, 1.7103945922594793E9, 0.0, 2024-03-13 22:36:32.259
65.0, -741.3341889167204, -361.72125376434997, -483.387679122854, -404.7974214539863, 0.8800000417977571, 0.3680000174790621, 0.43200002051889896, 0.0, 0.0, 0.0, 0.0, 0.0, 1.7103945922594793E9, 0.0, 2024-03-13 22:36:32.259
66.0, -729.6395217552781, -359.80268508708104, -476.730657201726, -399.81587471300736, 0.8800000417977571, 0.3680000174790621, 0.43200002051889896, 0.0, 0.0, 0.0, 0.0, 0.0, 1.7103945922751586E9, 0.0, 2024-03-13 22:36:32.275
66.0, -739.6437541367486, -367.32362389797345, -468.7160515966825, -398.2376369317062, 0.8800000417977571, 0.3680000174790621, 0.43200002051889896, 0.0, 0.0, 0.0, 0.0, 0.0, 1.7103945922751586E9, 0.0, 2024-03-13 22:36:32.275
67.0, -746.3119957577437, -369.77325836895034, -472.59432785073295, -401.33427409501746, 0.8800000417977571, 0.3680000174790621, 0.43200002051889896, 0.0, 0.0, 0.0, 0.0, 0.0, 1.7103945922757337E9, 0.0, 2024-03-13 22:36:32.275
67.0, -736.479798774235, -361.4145819679834, -475.7208842136897, -395.1671790680848, 0.8800000417977571, 0.3680000174790621, 0.43200002051889896, 0.0, 0.0, 0.0, 0.0, 0.0, 1.7103945922757337E9, 0.0, 2024-03-13 22:36:32.275
68.0, -725.058144309558, -352.3640240752138, -456.8755283369683, -387.40314676007256, 0.8800000417977571, 0.3680000174790621, 0.43200002051889896, 0.0, 0.0, 0.0, 0.0, 0.0, 1.7103945922892833E9, 0.0, 2024-03-13 22:36:32.289
68.0, -730.8849084405228, -356.83320452226326, -466.62918742140755, -391.9172060065903, 0.8800000417977571, 0.3680000174790621, 0.43200002051889896, 0.0, 0.0, 0.0, 0.0, 0.0, 1.7103945922892833E9, 0.0, 2024-03-13 22:36:32.289
