%OpenBCI Raw EXG Data
%Number of channels = 4
%Sample Rate = 200 Hz
%Board = OpenBCI_GUI$BoardGanglionBLE
Sample Index, EXG Channel 0, EXG Channel 1, EXG Channel 2, EXG Channel 3, Accel Channel 0, Accel Channel 1, Accel Channel 2, Other, Other, Other, Other, Other, Timestamp, Other, Timestamp (Formatted)
0.0, 226.91468991152942, 132.81506712641567, -19.258614821825176, 113.48352425545454, 0.0, 0.0, 0.0, 0.0, 0.0, 0.0, 0.0, 0.0, 1.7103910916707473E9, 0.0, 2024-03-13 21:38:11.670
1.0, 227.43453600537032, 140.97178892977536, -23.267787574324757, 120.33876087423414, 0.0, 0.6720000319182873, 0.0, 0.0, 0.0, 0.0, 0.0, 0.0, 1.710391091684395E9, 0.0, 2024-03-13 21:38:11.684
1.0, 226.3312655184418, 134.8420929023996, -17.306387044955045, 112.52236996684223, 0.0, 0.6720000319182873, 0.0, 0.0, 0.0, 0.0, 0.0, 0.0, 1.710391091684395E9, 0.0, 2024-03-13 21:38:11.684
2.0, 222.57266606297344, 130.8366600498557, -15.541154265869409, 109.3097959049046, 0.5120000243186951, 0.6720000319182873, 0.0, 0.0, 0.0, 0.0, 0.0, 0.0, 1.7103910917008185E9, 0.0, 2024-03-13 21:38:11.700
2.0, 228.8893570881337, 128.85451307334006, -31.091658281628042, 109.9792379969731, 0.5120000243186951, 0.6720000319182873, 0.0, 0.0, 0.0, 0.0, 0.0, 0.0, 1.7103910917008185E9, 0.0, 2024-03-13 21:38:11.700
3.0, 234.1850554253906, 134.84957270231098, -15.230742569547147, 114.71021144092083, 0.5120000243186951, 0.6720000319182873, 0.0, 0.0, 0.0, 0.0, 0.0, 0.0, 1.7103910917016077E9, 0.0, 2024-03-13 21:38:11.701
3.0, 224.7418080372736, 124.92761811986566, -29.801392796915025, 102.91830688063055, 0.5120000243186951, 0.6720000319182873, 0.0, 0.0, 0.0, 0.0, 0.0, 0.0, 1.7103910917016077E9, 0.0, 2024-03-13 21:38:11.701
4.0, 219.6555440975353, 125.48112331330776, -29.898630195762962, 95.99201216269284, 0.5120000243186951, 0.6720000319182873, 0.0, 0.0, 0.0, 0.0, 0.0, 0.0, 1.710391091730356E9, 0.0, 2024-03-13 21:38:11.730
4.0, 229.6672562789172, 133.3648324199021, -17.411104243714362, 107.56700252555311, 0.5120000243186951, 0.6720000319182873, 0.0, 0.0, 0.0, 0.0, 0.0, 0.0, 1.710391091730356E9, 0.0, 2024-03-13 21:38:11.730
5.0, 235.78947250638157, 134.85705250222236, -16.031081160064787, 106.96861853264272, 0.5120000243186951, 0.6720000319182873, 0.0, 0.0, 0.0, 0.0, 0.0, 0.0, 1.7103910917311392E9, 0.0, 2024-03-13 21:38:11.731
5.0, 231.2604536600411, 136.03886088822037, -15.425217367243022, 107.58570202533156, 0.5120000243186951, 0.6720000319182873, 0.0, 0.0, 0.0, 0.0, 0.0, 0.0, 1.7103910917311392E9, 0.0, 2024-03-13 21:38:11.731
6.0, 233.97936092782766, 142.5126277115196, -32.76339356182143, 110.30086939316243, 0.5120000243186951, 0.6720000319182873, 0.0, 0.0, 0.0, 0.0, 0.0, 0.0, 1.710391091731809E9, 0.0, 2024-03-13 21:38:11.731
6.0, 233.90456292871386, 140.08169274032116, -11.991989207919687, 117.60863390658051, 0.5120000243186951, 0.6720000319182873, 0.0, 0.0, 0.0, 0.0, 0.0, 0.0, 1.710391091731809E9, 0.0, 2024-03-13 21:38:11.731
7.0, 230.71068836655468, 133.29377432074398, -12.190203905571252, 108.34116181638092, 0.5120000243186951, 0.6720000319182873, 0.0, 0.0, 0.0, 0.0, 0.0, 0.0, 1.710391091760311E9, 0.0, 2024-03-13 21:38:11.760
7.0, 230.5872716680169, 135.89674468990415, -32.10517116962001, 109.96801829710603, 0.5120000243186951, 0.6720000319182873, 0.0, 0.0, 0.0, 0.0, 0.0, 0.0, 1.710391091760311E9, 0.0, 2024-03-13 21:38:11.760
8.0, 233.30991883575916, 144.67054998595268, -10.103339730296284, 118.96621759049594, 0.5120000243186951, 0.6720000319182873, 0.0, 0.0, 0.0, 0.0, 0.0, 0.0, 1.7103910917610848E9, 0.0, 2024-03-13 21:38:11.761
8.0, 233.82976492960006, 134.81591360270977, -13.005502095911652, 108.16912641841918, 0.5120000243186951, 0.6720000319182873, 0.0, 0.0, 0.0, 0.0, 0.0, 0.0, 1.7103910917610848E9, 0.0, 2024-03-13 21:38:11.761
9.0, 223.28324705455452, 125.76909560989588, -34.12471714569256, 104.0140975676477, 0.5120000243186951, 0.6720000319182873, 0.0, 0.0, 0.0, 0.0, 0.0, 0.0, 1.710391091761935E9, 0.0, 2024-03-13 21:38:11.761
9.0, 238.84123087022454, 142.04140031710267, -25.20131585141644, 114.96078473795205, 0.5120000243186951, 0.6720000319182873, 0.0, 0.0, 0.0, 0.0, 0.0, 0.0, 1.710391091761935E9, 0.0, 2024-03-13 21:38:11.761
10.0, 234.783439418301, 133.04694092366844, -12.66891109989956, 105.41282015107572, 0.5120000243186951, 0.6720000319182873, 0.6240000296384096, 0.0, 0.0, 0.0, 0.0, 0.0, 1.7103910917739613E9, 0.0, 2024-03-13 21:38:11.773
10.0, 225.13823743257672, 125.53722181264311, -15.189603670034558, 106.04486324358732, 0.5120000243186951, 0.6720000319182873, 0.6240000296384096, 0.0, 0.0, 0.0, 0.0, 0.0, 1.7103910917739613E9, 0.0, 2024-03-13 21:38:11.773
11.0, 227.27746020723134, 132.51587512996048, -22.504847983364016, 105.40534035116434, 0.5120000243186951, 0.6720000319182873, 0.6240000296384096, 0.0, 0.0, 0.0, 0.0, 0.0, 1.7103910917901173E9, 0.0, 2024-03-13 21:38:11.790
11.0, 232.1468099495396, 133.07312022335827, -17.665417440701276, 108.06814911961555, 0.5120000243186951, 0.6720000319182873, 0.6240000296384096, 0.0, 0.0, 0.0, 0.0, 0.0, 1.7103910917901173E9, 0.0, 2024-03-13 21:38:11.790
12.0, 223.61235825065523, 121.81228145677596, -23.12567137600854, 103.14644077792764, 0.5120000243186951, 0.6720000319182873, 0.6240000296384096, 0.0, 0.0, 0.0, 0.0, 0.0, 1.7103910917905016E9, 0.0, 2024-03-13 21:38:11.790
12.0, 225.1045783329755, 128.85825297329575, -27.445255824830383, 102.61911488417536, 0.5120000243186951, 0.6720000319182873, 0.6240000296384096, 0.0, 0.0, 0.0, 0.0, 0.0, 1.7103910917905016E9, 0.0, 2024-03-13 21:38:11.790
13.0, 237.01615969184786, 136.7270024800673, -21.98874178947881, 128.68247767537832, 0.5120000243186951, 0.6720000319182873, 0.6240000296384096, 0.0, 0.0, 0.0, 0.0, 0.0, 1.7103910918043585E9, 0.0, 2024-03-13 21:38:11.804
13.0, 235.9278488047421, 131.52480164170265, -17.298907245043665, 105.7194919474423, 0.5120000243186951, 0.6720000319182873, 0.6240000296384096, 0.0, 0.0, 0.0, 0.0, 0.0, 1.7103910918043585E9, 0.0, 2024-03-13 21:38:11.804
14.0, 227.5168138043955, 135.2908808970824, -23.52210077131167, 105.21460545342416, 0.5120000243186951, 0.6720000319182873, 0.6240000296384096, 0.0, 0.0, 0.0, 0.0, 0.0, 1.710391091819632E9, 0.0, 2024-03-13 21:38:11.819
14.0, 233.62407043203712, 141.880584619008, -28.178276216145605, 112.4587916675955, 0.5120000243186951, 0.6720000319182873, 0.6240000296384096, 0.0, 0.0, 0.0, 0.0, 0.0, 1.710391091819632E9, 0.0, 2024-03-13 21:38:11.819
15.0, 238.03341247979552, 145.41479007713497, -9.44885723805055, 117.07382821291685, 0.5120000243186951, 0.6720000319182873, 0.6240000296384096, 0.0, 0.0, 0.0, 0.0, 0.0, 1.7103910918203456E9, 0.0, 2024-03-13 21:38:11.820
15.0, 229.09505158569664, 136.42407058365643, -16.199376658070832, 103.87946116924286, 0.5120000243186951, 0.6720000319182873, 0.6240000296384096, 0.0, 0.0, 0.0, 0.0, 0.0, 1.7103910918203456E9, 0.0, 2024-03-13 21:38:11.820
16.0, 231.58208505623043, 140.6576373334974, -23.93722966639325, 115.93689862638712, 0.5120000243186951, 0.6720000319182873, 0.6240000296384096, 0.0, 0.0, 0.0, 0.0, 0.0, 1.7103910918341572E9, 0.0, 2024-03-13 21:38:11.834
16.0, 243.21691381838173, 144.6630701860413, -17.88233163813129, 122.53034224826843, 0.5120000243186951, 0.6720000319182873, 0.6240000296384096, 0.0, 0.0, 0.0, 0.0, 0.0, 1.7103910918341572E9, 0.0, 2024-03-13 21:38:11.834
17.0, 236.28687920048833, 135.52649459429085, -21.88776449067518, 116.67365891765803, 0.5120000243186951, 0.6720000319182873, 0.6240000296384096, 0.0, 0.0, 0.0, 0.0, 0.0, 1.710391091849888E9, 0.0, 2024-03-13 21:38:11.849
17.0, 229.7009153785184, 134.6214388050139, -19.56528661819175, 108.49075781460851, 0.5120000243186951, 0.6720000319182873, 0.6240000296384096, 0.0, 0.0, 0.0, 0.0, 0.0, 1.710391091849888E9, 0.0, 2024-03-13 21:38:11.849
18.0, 231.63444365561008, 137.7741744676605, -22.886317778844386, 112.50367046706378, 0.5120000243186951, 0.6720000319182873, 0.6240000296384096, 0.0, 0.0, 0.0, 0.0, 0.0, 1.7103910918507733E9, 0.0, 2024-03-13 21:38:11.850
18.0, 229.51018048077822, 134.71867620386183, -17.48590224282816, 106.94243923295289, 0.5120000243186951, 0.6720000319182873, 0.6240000296384096, 0.0, 0.0, 0.0, 0.0, 0.0, 1.7103910918507733E9, 0.0, 2024-03-13 21:38:11.850
19.0, 222.8082797601819, 126.96212369576097, -32.04159287037328, 99.35792212281376, 0.5120000243186951, 0.6720000319182873, 0.6240000296384096, 0.0, 0.0, 0.0, 0.0, 0.0, 1.710391091863956E9, 0.0, 2024-03-13 21:38:11.863
19.0, 222.61380496248603, 132.57571352925152, -27.864124619867653, 110.48412449099123, 0.5120000243186951, 0.6720000319182873, 0.6240000296384096, 0.0, 0.0, 0.0, 0.0, 0.0, 1.710391091863956E9, 0.0, 2024-03-13 21:38:11.863
20.0, 222.41933016479015, 120.51827607210726, -21.90272409049794, 102.65277398377657, 0.5120000243186951, 0.6720000319182873, 0.6240000296384096, 0.0, 0.0, 0.0, 0.0, 0.0, 1.7103910918796248E9, 0.0, 2024-03-13 21:38:11.879
20.0, 212.8414463782683, 117.69839150551707, -40.53490566974506, 101.24283170048147, 0.5120000243186951, 0.6720000319182873, 0.6240000296384096, 0.0, 0.0, 0.0, 0.0, 0.0, 1.7103910918796248E9, 0.0, 2024-03-13 21:38:11.879
21.0, 221.93688307050616, 131.7304961392656, -28.41015001339838, 110.85437458660454, 0.5120000243186951, 0.6720000319182873, 0.6240000296384096, 0.0, 0.0, 0.0, 0.0, 0.0, 1.7103910918803544E9, 0.0, 2024-03-13 21:38:11.880
21.0, 226.57809891551733, 137.97238916531205, -7.762162358034402, 116.35950732138008, 0.5120000243186951, 0.6720000319182873, 0.6240000296384096, 0.0, 0.0, 0.0, 0.0, 0.0, 1.7103910918803544E9, 0.0, 2024-03-13 21:38:11.880
22.0, 223.38796425331384, 131.73797593917698, -17.714036140125245, 107.38000752776861, 0.5120000243186951, 0.6720000319182873, 0.6240000296384096, 0.0, 0.0, 0.0, 0.0, 0.0, 1.710391091893967E9, 0.0, 2024-03-13 21:38:11.893
22.0, 229.71587497834116, 134.87201210204512, -34.82033853745088, 111.78186977561563, 0.5120000243186951, 0.6720000319182873, 0.6240000296384096, 0.0, 0.0, 0.0, 0.0, 0.0, 1.710391091893967E9, 0.0, 2024-03-13 21:38:11.893
23.0, 237.75291998311877, 145.57934567518532, -21.715729092713445, 112.36155426874757, 0.5120000243186951, 0.6720000319182873, 0.6240000296384096, 0.0, 0.0, 0.0, 0.0, 0.0, 1.7103910919100957E9, 0.0, 2024-03-13 21:38:11.910
23.0, 235.49028050992638, 141.48041532374918, -29.659276598598808, 110.77957658749074, 0.5120000243186951, 0.6720000319182873, 0.6240000296384096, 0.0, 0.0, 0.0, 0.0, 0.0, 1.7103910919100957E9, 0.0, 2024-03-13 21:38:11.910
24.0, 227.8908037999645, 132.52335492987186, -20.530180806759745, 109.97175819706172, 0.5120000243186951, 0.6720000319182873, 0.6240000296384096, 0.0, 0.0, 0.0, 0.0, 0.0, 1.7103910919105012E9, 0.0, 2024-03-13 21:38:11.910
24.0, 238.05585187952965, 139.0980990519747, -21.356698696967214, 115.46941113192588, 0.5120000243186951, 0.6720000319182873, 0.6240000296384096, 0.0, 0.0, 0.0, 0.0, 0.0, 1.7103910919105012E9, 0.0, 2024-03-13 21:38:11.910
25.0, 232.43104234617203, 134.37086550798267, -15.836606362368912, 116.0939744245261, 0.5120000243186951, 0.6720000319182873, 0.6240000296384096, 0.0, 0.0, 0.0, 0.0, 0.0, 1.7103910919240716E9, 0.0, 2024-03-13 21:38:11.924
25.0, 227.5130739044398, 134.59151960536838, -12.025648307520896, 111.02267008461058, 0.5120000243186951, 0.6720000319182873, 0.6240000296384096, 0.0, 0.0, 0.0, 0.0, 0.0, 1.7103910919240716E9, 0.0, 2024-03-13 21:38:11.924
26.0, 229.7794532775879, 130.27567505650222, -21.723208892624825, 114.03702944889665, 0.5120000243186951, 0.6720000319182873, 0.6240000296384096, 0.0, 0.0, 0.0, 0.0, 0.0, 1.710391091939836E9, 0.0, 2024-03-13 21:38:11.939
26.0, 229.98888767510653, 136.48016908299178, -18.435836831573397, 123.08758734166622, 0.5120000243186951, 0.6720000319182873, 0.6240000296384096, 0.0, 0.0, 0.0, 0.0, 0.0, 1.710391091939836E9, 0.0, 2024-03-13 21:38:11.939
27.0, 225.23921473138034, 127.91953808441758, -9.598453236278147, 110.51030379068106, 0.5120000243186951, 0.6720000319182873, 0.6240000296384096, 0.0, 0.0, 0.0, 0.0, 0.0, 1.7103910919406247E9, 0.0, 2024-03-13 21:38:11.940
27.0, 228.79959948919713, 139.22525565046817, -8.869172744918615, 123.50645613670349, 0.5120000243186951, 0.6720000319182873, 0.6240000296384096, 0.0, 0.0, 0.0, 0.0, 0.0, 1.7103910919406247E9, 0.0, 2024-03-13 21:38:11.940
28.0, 228.76594038959593, 137.25806827377528, -17.4709426430054, 115.23005753476173, 0.5120000243186951, 0.6720000319182873, 0.6240000296384096, 0.0, 0.0, 0.0, 0.0, 0.0, 1.710391091954362E9, 0.0, 2024-03-13 21:38:11.954
28.0, 210.51896850578487, 117.59367430675775, -23.428603272419423, 98.22473243623972, 0.5120000243186951, 0.6720000319182873, 0.6240000296384096, 0.0, 0.0, 0.0, 0.0, 0.0, 1.710391091954362E9, 0.0, 2024-03-13 21:38:11.954
29.0, 209.56903391703963, 118.7979220924899, -28.290473214816302, 103.22871857695282, 0.5120000243186951, 0.6720000319182873, 0.6240000296384096, 0.0, 0.0, 0.0, 0.0, 0.0, 1.7103910919701407E9, 0.0, 2024-03-13 21:38:11.970
29.0, 220.96450908202678, 130.70202365145087, -15.043747571762651, 116.68861851748079, 0.5120000243186951, 0.6720000319182873, 0.6240000296384096, 0.0, 0.0, 0.0, 0.0, 0.0, 1.7103910919701407E9, 0.0, 2024-03-13 21:38:11.970
30.0, 226.5855787154287, 136.1061790874228, -8.061354354489595, 117.7208309052512, 0.5120000243186951, 0.6720000319182873, 0.6240000296384096, 0.0, 0.0, 0.0, 0.0, 0.0, 1.7103910919706116E9, 0.0, 2024-03-13 21:38:11.970
30.0, 212.49363568238914, 128.61141957622021, -29.464801800902933, 102.92204678058624, 0.5120000243186951, 0.6720000319182873, 0.6240000296384096, 0.0, 0.0, 0.0, 0.0, 0.0, 1.7103910919706116E9, 0.0, 2024-03-13 21:38:11.970
31.0, 222.75966106075794, 133.82484011445194, -28.71308190980926, 108.30376281682402, 0.5120000243186951, 0.6720000319182873, 0.6240000296384096, 0.0, 0.0, 0.0, 0.0, 0.0, 1.7103910919843113E9, 0.0, 2024-03-13 21:38:11.984
31.0, 221.92940327059478, 131.0947131467983, -17.373705244157463, 102.27878398820758, 0.5120000243186951, 0.6720000319182873, 0.6240000296384096, 0.0, 0.0, 0.0, 0.0, 0.0, 1.7103910919843113E9, 0.0, 2024-03-13 21:38:11.984
32.0, 211.33052679616958, 114.10808754805475, -15.642131564673036, 97.15138114895672, 0.5120000243186951, 0.6720000319182873, 0.6240000296384096, 0.0, 0.0, 0.0, 0.0, 0.0, 1.7103910919996345E9, 0.0, 2024-03-13 21:38:11.999
32.0, 209.70367031544447, 110.40932649187744, -33.31689875526354, 95.09443617332727, 0.5120000243186951, 0.6720000319182873, 0.6240000296384096, 0.0, 0.0, 0.0, 0.0, 0.0, 1.7103910919996345E9, 0.0, 2024-03-13 21:38:11.999
33.0, 217.1011924277991, 123.9851633310318, -28.548526311758906, 102.28252388816327, 0.5120000243186951, 0.6720000319182873, 0.6240000296384096, 0.0, 0.0, 0.0, 0.0, 0.0, 1.7103910920005193E9, 0.0, 2024-03-13 21:38:12.000
33.0, 206.74914935044944, 115.30111563391984, -19.57650631805882, 94.7503653774038, 0.5120000243186951, 0.6720000319182873, 0.6240000296384096, 0.0, 0.0, 0.0, 0.0, 0.0, 1.7103910920005193E9, 0.0, 2024-03-13 21:38:12.000
34.0, 213.96341636497527, 118.11352040059865, -29.375044201966375, 103.95051926840097, 0.5120000243186951, 0.6720000319182873, 0.6240000296384096, 0.0, 0.0, 0.0, 0.0, 0.0, 1.7103910920139997E9, 0.0, 2024-03-13 21:38:12.013
34.0, 209.6587915159762, 120.67535187024623, -23.97462866595015, 100.06102331448346, 0.5120000243186951, 0.6720000319182873, 0.6240000296384096, 0.0, 0.0, 0.0, 0.0, 0.0, 1.7103910920139997E9, 0.0, 2024-03-13 21:38:12.013
35.0, 212.51981498207897, 122.03667545411736, -21.203362798783928, 102.4956981856376, 0.5120000243186951, 0.6720000319182873, 0.6240000296384096, 0.0, 0.0, 0.0, 0.0, 0.0, 1.71039109202969E9, 0.0, 2024-03-13 21:38:12.029
35.0, 216.53646753448993, 128.29352807998657, -29.11325120506808, 106.02990364376456, 0.5120000243186951, 0.6720000319182873, 0.6240000296384096, 0.0, 0.0, 0.0, 0.0, 0.0, 1.71039109202969E9, 0.0, 2024-03-13 21:38:12.029
36.0, 226.34996501822025, 139.33371274918318, -26.921669831033796, 110.4953441908583, 0.5120000243186951, 0.6720000319182873, 0.6240000296384096, 0.0, 0.0, 0.0, 0.0, 0.0, 1.7103910920303576E9, 0.0, 2024-03-13 21:38:12.030
36.0, 220.87475148309022, 134.77851460315287, -17.777614439371973, 110.95909178536385, 0.5120000243186951, 0.6720000319182873, 0.6240000296384096, 0.0, 0.0, 0.0, 0.0, 0.0, 1.7103910920303576E9, 0.0, 2024-03-13 21:38:12.030
37.0, 218.55601351056248, 131.00869544781744, -21.4726355955936, 114.08564814832062, 0.5120000243186951, 0.6720000319182873, 0.6240000296384096, 0.0, 0.0, 0.0, 0.0, 0.0, 1.7103910920449512E9, 0.0, 2024-03-13 21:38:12.044
37.0, 220.35864528920501, 129.9503037603572, -25.90815694304183, 110.9067331859842, 0.5120000243186951, 0.6720000319182873, 0.6240000296384096, 0.0, 0.0, 0.0, 0.0, 0.0, 1.7103910920449512E9, 0.0, 2024-03-13 21:38:12.044
38.0, 225.5533663276583, 135.97528258897364, -15.47383606666699, 118.47255079634488, 0.5120000243186951, 0.6720000319182873, 0.6240000296384096, 0.0, 0.0, 0.0, 0.0, 0.0, 1.7103910920596159E9, 0.0, 2024-03-13 21:38:12.059
38.0, 214.41594425961375, 127.59790668822825, -12.070527106989175, 119.49728338420391, 0.5120000243186951, 0.6720000319182873, 0.6240000296384096, 0.0, 0.0, 0.0, 0.0, 0.0, 1.7103910920596159E9, 0.0, 2024-03-13 21:38:12.059
39.0, 217.33680612500757, 129.44915716629475, -19.640084617305547, 115.91071932669729, 0.5120000243186951, 0.6720000319182873, 0.6240000296384096, 0.0, 0.0, 0.0, 0.0, 0.0, 1.7103910920603707E9, 0.0, 2024-03-13 21:38:12.060
39.0, 224.74928783718497, 132.94596362486482, -24.139184264000505, 117.51139650773257, 0.5120000243186951, 0.6720000319182873, 0.6240000296384096, 0.0, 0.0, 0.0, 0.0, 0.0, 1.7103910920603707E9, 0.0, 2024-03-13 21:38:12.060
40.0, 228.79959948919713, 135.2871409971267, -12.478176202159375, 119.49728338420391, 0.5120000243186951, 0.6720000319182873, 0.6240000296384096, 0.0, 0.0, 0.0, 0.0, 0.0, 1.7103910920743003E9, 0.0, 2024-03-13 21:38:12.074
40.0, 229.71587497834116, 137.14587127510458, -15.167164270300418, 113.15815295930952, 0.5120000243186951, 0.6720000319182873, 0.6240000296384096, 0.0, 0.0, 0.0, 0.0, 0.0, 1.7103910920743003E9, 0.0, 2024-03-13 21:38:12.074
41.0, 236.21582110133022, 146.8845707597211, -19.688703316729516, 116.02291632536799, 0.5120000243186951, 0.6720000319182873, 0.6240000296384096, 0.0, 0.0, 0.0, 0.0, 0.0, 1.7103910920895965E9, 0.0, 2024-03-13 21:38:12.089
41.0, 237.64072298444808, 151.15179660916328, -12.085486706811935, 124.68452462274581, 0.5120000243186951, 0.6720000319182873, 0.6240000296384096, 0.0, 0.0, 0.0, 0.0, 0.0, 1.7103910920895965E9, 0.0, 2024-03-13 21:38:12.089
42.0, 246.32477068156004, 151.6679028030485, -9.015028843190521, 121.08300096541643, 0.5120000243186951, 0.6720000319182873, 0.6240000296384096, 0.0, 0.0, 0.0, 0.0, 0.0, 1.7103910920903325E9, 0.0, 2024-03-13 21:38:12.090
42.0, 245.93956098612398, 158.6689955201, -14.078853383194655, 125.96731030754745, 0.5120000243186951, 0.6720000319182873, 0.6240000296384096, 0.0, 0.0, 0.0, 0.0, 0.0, 1.7103910920903325E9, 0.0, 2024-03-13 21:38:12.090
43.0, 249.4887260440737, 160.13877620268613, 1.6025471310131252, 134.34842610824853, 0.5120000243186951, 0.6720000319182873, 0.6240000296384096, 0.0, 0.0, 0.0, 0.0, 0.0, 1.7103910921042767E9, 0.0, 2024-03-13 21:38:12.104
43.0, 238.31390497647226, 150.46365501731634, -4.343893798533827, 122.76595594547689, 0.5120000243186951, 0.6720000319182873, 0.6240000296384096, 0.0, 0.0, 0.0, 0.0, 0.0, 1.7103910921042767E9, 0.0, 2024-03-13 21:38:12.104
44.0, 238.594397473149, 145.38861077744514, -19.374551720451564, 126.43479780200869, 0.5120000243186951, 0.6720000319182873, 0.6240000296384096, 0.0, 0.0, 0.0, 0.0, 0.0, 1.7103910921197517E9, 0.0, 2024-03-13 21:38:12.119
44.0, 238.23910697735846, 142.67718330956995, -15.08114657131955, 119.52346268389374, 0.5120000243186951, 0.6720000319182873, 0.6240000296384096, 0.0, 0.0, 0.0, 0.0, 0.0, 1.7103910921197517E9, 0.0, 2024-03-13 21:38:12.119
45.0, 239.8921427577734, 141.2560213264078, -2.286948822904378, 129.60249306447804, 0.5120000243186951, 0.6720000319182873, 0.6240000296384096, 0.0, 0.0, 0.0, 0.0, 0.0, 1.710391092120407E9, 0.0, 2024-03-13 21:38:12.120
45.0, 229.7046552784741, 134.86453230213374, -13.798360886517912, 114.37736034486443, 0.5120000243186951, 0.6720000319182873, 0.6240000296384096, 0.0, 0.0, 0.0, 0.0, 0.0, 1.710391092120407E9, 0.0, 2024-03-13 21:38:12.120
46.0, 235.08263141475618, 142.98385510593653, -13.263555192854255, 122.68367814645171, 0.5120000243186951, 0.6720000319182873, 0.6240000296384096, 0.0, 0.0, 0.0, 0.0, 0.0, 1.7103910921340845E9, 0.0, 2024-03-13 21:38:12.134
46.0, 241.76583263557404, 154.08387817442417, -1.250996535178274, 135.3208000967279, 0.5120000243186951, 0.6720000319182873, 0.6240000296384096, 0.0, 0.0, 0.0, 0.0, 0.0, 1.7103910921340845E9, 0.0, 2024-03-13 21:38:12.134
47.0, 231.8176987534389, 145.90097707137465, 5.2938283872790635, 129.97648306004703, 0.5120000243186951, 0.6720000319182873, 0.6240000296384096, 0.0, 0.0, 0.0, 0.0, 0.0, 1.7103910921503975E9, 0.0, 2024-03-13 21:38:12.150
47.0, 233.08926473837346, 141.4056173246354, -19.329672920983285, 125.08469391800463, 0.5120000243186951, 0.6720000319182873, 0.6240000296384096, 0.0, 0.0, 0.0, 0.0, 0.0, 1.7103910921503975E9, 0.0, 2024-03-13 21:38:12.150
48.0, 236.78802579455078, 144.8874641833827, -7.608826459851116, 127.42213139031082, 0.5120000243186951, 0.6720000319182873, 0.6240000296384096, 0.0, 0.0, 0.0, 0.0, 0.0, 1.7103910921646965E9, 0.0, 2024-03-13 21:38:12.164
48.0, 235.71093460731208, 150.59829141572118, -3.135906112845987, 129.04524797108024, 0.5120000243186951, 0.6720000319182873, 0.6240000296384096, 0.0, 0.0, 0.0, 0.0, 0.0, 1.7103910921646965E9, 0.0, 2024-03-13 21:38:12.164
49.0, 235.9615079043433, 141.44301632419229, -9.415198138449341, 132.25782203301787, 0.5120000243186951, 0.6720000319182873, 0.6240000296384096, 0.0, 0.0, 0.0, 0.0, 0.0, 1.7103910921655328E9, 0.0, 2024-03-13 21:38:12.165
49.0, 244.19676760677248, 149.16964963264763, -10.731642922852188, 131.44252384267747, 0.5120000243186951, 0.6720000319182873, 0.6240000296384096, 0.0, 0.0, 0.0, 0.0, 0.0, 1.7103910921655328E9, 0.0, 2024-03-13 21:38:12.165
50.0, 239.0805844673887, 146.13285086862743, 2.61979991896078, 130.11485935840756, 0.5120000243186951, 0.6720000319182873, 0.6240000296384096, 0.0, 0.0, 0.0, 0.0, 0.0, 1.7103910921797688E9, 0.0, 2024-03-13 21:38:12.179
50.0, 229.71961487829685, 135.25722179748118, -13.532827989663929, 119.6506192823872, 0.5120000243186951, 0.6720000319182873, 0.6240000296384096, 0.0, 0.0, 0.0, 0.0, 0.0, 1.7103910921797688E9, 0.0, 2024-03-13 21:38:12.179
51.0, 242.39413582812995, 144.82762578409165, -12.725009599234909, 121.37097326200455, 0.5120000243186951, 0.6720000319182873, 0.6240000296384096, 0.0, 0.0, 0.0, 0.0, 0.0, 1.710391092180405E9, 0.0, 2024-03-13 21:38:12.180
51.0, 245.53565179090947, 149.41274312976748, -6.879545968491584, 124.95753731951118, 0.5120000243186951, 0.6720000319182873, 0.6240000296384096, 0.0, 0.0, 0.0, 0.0, 0.0, 1.710391092180405E9, 0.0, 2024-03-13 21:38:12.180
52.0, 243.84521701093763, 146.34602516610175, -9.88268563291058, 119.53468238376081, 0.5120000243186951, 0.6720000319182873, 0.6240000296384096, 0.0, 0.0, 0.0, 0.0, 0.0, 1.7103910921941257E9, 0.0, 2024-03-13 21:38:12.194
52.0, 237.7790992828086, 145.98325487039983, -24.30373986205086, 114.40353964455426, 0.5120000243186951, 0.6720000319182873, 0.6240000296384096, 0.0, 0.0, 0.0, 0.0, 0.0, 1.7103910921941257E9, 0.0, 2024-03-13 21:38:12.194
53.0, 246.373389380984, 156.7092879433185, -8.25956905214116, 120.1293264767155, 0.5120000243186951, 0.6720000319182873, 0.6240000296384096, 0.0, 0.0, 0.0, 0.0, 0.0, 1.7103910922097008E9, 0.0, 2024-03-13 21:38:12.209
53.0, 242.3043782291934, 151.0695188101381, -4.411211997736245, 120.63047307077795, 0.5120000243186951, 0.6720000319182873, 0.6240000296384096, 0.0, 0.0, 0.0, 0.0, 0.0, 1.7103910922097008E9, 0.0, 2024-03-13 21:38:12.209
54.0, 239.69392806012183, 148.94525563530624, -12.855906097684056, 115.39461313281208, 0.5120000243186951, 0.6720000319182873, 0.6240000296384096, 0.0, 0.0, 0.0, 0.0, 0.0, 1.7103910922107193E9, 0.0, 2024-03-13 21:38:12.210
54.0, 236.38037669938058, 143.93378969468176, -16.057260459754616, 117.37676010932773, 0.5120000243186951, 0.6720000319182873, 0.6240000296384096, 0.0, 0.0, 0.0, 0.0, 0.0, 1.7103910922107193E9, 0.0, 2024-03-13 21:38:12.210
55.0, 233.67642903141677, 146.2525276672095, -13.375752191524953, 125.83267390914261, 0.5120000243186951, 0.6720000319182873, 0.6240000296384096, 0.0, 0.0, 0.0, 0.0, 0.0, 1.7103910922239382E9, 0.0, 2024-03-13 21:38:12.223
55.0, 233.95692152809352, 142.471488812007, -11.84239320969209, 115.77608292829245, 0.5120000243186951, 0.6720000319182873, 0.6240000296384096, 0.0, 0.0, 0.0, 0.0, 0.0, 1.7103910922239382E9, 0.0, 2024-03-13 21:38:12.223
56.0, 237.95487458072603, 143.11101170442998, -22.40761058451608, 113.95101174991578, 0.5120000243186951, 0.6720000319182873, 0.6240000296384096, 0.0, 0.0, 0.0, 0.0, 0.0, 1.7103910922401133E9, 0.0, 2024-03-13 21:38:12.240
56.0, 237.24429358914495, 147.76718714926392, -7.590126960072666, 120.92592516727746, 0.5120000243186951, 0.6720000319182873, 0.6240000296384096, 0.0, 0.0, 0.0, 0.0, 0.0, 1.7103910922401133E9, 0.0, 2024-03-13 21:38:12.240
57.0, 234.74978031869978, 144.93608288280666, -8.23338975245133, 119.242970187217, 0.5120000243186951, 0.6720000319182873, 0.6240000296384096, 0.0, 0.0, 0.0, 0.0, 0.0, 1.7103910922405424E9, 0.0, 2024-03-13 21:38:12.240
57.0, 236.3691569995135, 143.15589050389826, -22.35899188509211, 112.06610217224807, 0.5120000243186951, 0.6720000319182873, 0.6240000296384096, 0.0, 0.0, 0.0, 0.0, 0.0, 1.7103910922405424E9, 0.0, 2024-03-13 21:38:12.240
58.0, 240.0791377555579, 151.09569810982794, -12.713789899367839, 120.98950346652418, 0.5120000243186951, 0.6720000319182873, 0.6240000296384096, 0.0, 0.0, 0.0, 0.0, 0.0, 1.710391092253978E9, 0.0, 2024-03-13 21:38:12.253
58.0, 239.57425126153976, 147.15384355653077, -1.6848249300383031, 122.15261235274374, 0.5120000243186951, 0.6720000319182873, 0.6240000296384096, 0.0, 0.0, 0.0, 0.0, 0.0, 1.710391092253978E9, 0.0, 2024-03-13 21:38:12.253
59.0, 234.05789882689714, 136.56244688201696, -25.418230048846453, 117.63107330631465, 0.5120000243186951, 0.6720000319182873, 0.6240000296384096, 0.0, 0.0, 0.0, 0.0, 0.0, 1.7103910922704473E9, 0.0, 2024-03-13 21:38:12.270
59.0, 234.20749482512474, 145.16421678010374, -22.953635978046805, 117.59367430675775, 0.5120000243186951, 0.6720000319182873, 0.6240000296384096, 0.0, 0.0, 0.0, 0.0, 0.0, 1.7103910922704473E9, 0.0, 2024-03-13 21:38:12.270
60.0, 241.64241593703628, 148.08507864549756, 0.21878414740785956, 122.19749115221202, 0.5120000243186951, 0.6720000319182873, 0.6240000296384096, 0.0, 0.0, 0.0, 0.0, 0.0, 1.7103910922857509E9, 0.0, 2024-03-13 21:38:12.285
60.0, 232.69283534307033, 140.70625603292137, -17.025894548278302, 120.86608676798642, 0.5120000243186951, 0.6720000319182873, 0.6240000296384096, 0.0, 0.0, 0.0, 0.0, 0.0, 1.7103910922857509E9, 0.0, 2024-03-13 21:38:12.285
61.0, 231.8476179530844, 138.37255846057087, -22.246794886421412, 110.91421298589557, 0.5120000243186951, 0.6880000326782465, 0.6240000296384096, 0.0, 0.0, 0.0, 0.0, 0.0, 1.7103910923003373E9, 0.0, 2024-03-13 21:38:12.300
61.0, 231.20061526075006, 138.1444245632738, -11.677837611641735, 116.99155041389167, 0.5120000243186951, 0.6880000326782465, 0.6240000296384096, 0.0, 0.0, 0.0, 0.0, 0.0, 1.7103910923003373E9, 0.0, 2024-03-13 21:38:12.300
62.0, 227.6664098026231, 135.89674468990415, -20.30204690946266, 112.88514026254416, 0.5120000243186951, 0.6880000326782465, 0.6240000296384096, 0.0, 0.0, 0.0, 0.0, 0.0, 1.7103910923011727E9, 0.0, 2024-03-13 21:38:12.301
62.0, 227.3709577061236, 138.5109347589314, -19.617645217571408, 108.11676781903952, 0.5120000243186951, 0.6880000326782465, 0.6240000296384096, 0.0, 0.0, 0.0, 0.0, 0.0, 1.7103910923011727E9, 0.0, 2024-03-13 21:38:12.301
63.0, 234.2224544249475, 137.53856077045202, -12.762408598791808, 115.85462082736194, 0.5120000243186951, 0.6880000326782465, 0.6240000296384096, 0.0, 0.0, 0.0, 0.0, 0.0, 1.710391092302075E9, 0.0, 2024-03-13 21:38:12.302
63.0, 236.61973029654473, 147.48295475263149, -3.4089188096113503, 118.75304329302162, 0.5120000243186951, 0.6880000326782465, 0.6240000296384096, 0.0, 0.0, 0.0, 0.0, 0.0, 1.710391092302075E9, 0.0, 2024-03-13 21:38:12.302
64.0, 237.93617508094758, 145.02210058178753, -16.468649454880506, 119.02979588974267, 0.5120000243186951, 0.6880000326782465, 0.6240000296384096, 0.0, 0.0, 0.0, 0.0, 0.0, 1.7103910923139312E9, 0.0, 2024-03-13 21:38:12.313
64.0, 242.03510543238372, 151.84367810096592, -9.011288943234831, 113.82011525146663, 0.5120000243186951, 0.6880000326782465, 0.6240000296384096, 0.0, 0.0, 0.0, 0.0, 0.0, 1.7103910923139312E9, 0.0, 2024-03-13 21:38:12.313
65.0, 238.16056907828897, 148.2571140434593, 0.5965140429325402, 115.94811832625419, 0.5120000243186951, 0.6880000326782465, 0.6240000296384096, 0.0, 0.0, 0.0, 0.0, 0.0, 1.7103910923461456E9, 0.0, 2024-03-13 21:38:12.346
65.0, 237.61828358471394, 142.56498631089926, -19.1389380232431, 112.97115796152502, 0.5120000243186951, 0.6880000326782465, 0.6240000296384096, 0.0, 0.0, 0.0, 0.0, 0.0, 1.7103910923461456E9, 0.0, 2024-03-13 21:38:12.346
66.0, 236.25322010088712, 146.4806615645066, -24.640330858062953, 114.81118873972446, 0.5120000243186951, 0.6880000326782465, 0.6240000296384096, 0.0, 0.0, 0.0, 0.0, 0.0, 1.710391092346856E9, 0.0, 2024-03-13 21:38:12.346
66.0, 247.4878795677796, 149.94006902351975, -6.969303567428142, 116.95041151437908, 0.5120000243186951, 0.6880000326782465, 0.6240000296384096, 0.0, 0.0, 0.0, 0.0, 0.0, 1.710391092346856E9, 0.0, 2024-03-13 21:38:12.346
67.0, 240.4830469507724, 143.1035319045186, -11.165471317712218, 124.56110792420805, 0.5120000243186951, 0.6880000326782465, 0.6240000296384096, 0.0, 0.0, 0.0, 0.0, 0.0, 1.710391092348075E9, 0.0, 2024-03-13 21:38:12.348
67.0, 233.31739863567054, 139.96575584169477, -25.287333550397307, 109.84834149852395, 0.5120000243186951, 0.6880000326782465, 0.6240000296384096, 0.0, 0.0, 0.0, 0.0, 0.0, 1.710391092348075E9, 0.0, 2024-03-13 21:38:12.348
68.0, 231.51102695707232, 135.29836069699377, -27.045086529571563, 107.88489402178675, 0.5120000243186951, 0.6880000326782465, 0.6240000296384096, 0.0, 0.0, 0.0, 0.0, 0.0, 1.7103910923483615E9, 0.0, 2024-03-13 21:38:12.348
68.0, 226.0320735219866, 132.1418851343915, -17.631758341100067, 109.84460159856826, 0.5120000243186951, 0.6880000326782465, 0.6240000296384096, 0.0, 0.0, 0.0, 0.0, 0.0, 1.7103910923483615E9, 0.0, 2024-03-13 21:38:12.348
69.0, 225.7702805250883, 125.53348191268742, -36.45093491813168, 100.44997290987521, 0.5120000243186951, 0.6880000326782465, 0.6240000296384096, 0.0, 0.0, 0.0, 0.0, 0.0, 1.7103910923593087E9, 0.0, 2024-03-13 21:38:12.359
69.0, 237.28169258870184, 140.46690243575722, -32.00419387081638, 105.35298175178468, 0.5120000243186951, 0.6880000326782465, 0.6240000296384096, 0.0, 0.0, 0.0, 0.0, 0.0, 1.7103910923593087E9, 0.0, 2024-03-13 21:38:12.359
70.0, 234.28977262414992, 142.5836858106777, -21.5100345951505, 107.32016912847757, 0.5120000243186951, 0.6880000326782465, 0.6400000303983688, 0.0, 0.0, 0.0, 0.0, 0.0, 1.7103910923745575E9, 0.0, 2024-03-13 21:38:12.374
70.0, 231.82891845330596, 138.61565195769072, -23.013474377337843, 107.6081414250657, 0.5120000243186951, 0.6880000326782465, 0.6400000303983688, 0.0, 0.0, 0.0, 0.0, 0.0, 1.7103910923745575E9, 0.0, 2024-03-13 21:38:12.374
71.0, 234.24115392472595, 142.78938030824065, -19.445609819609672, 108.05692941974849, 0.5120000243186951, 0.6880000326782465, 0.6400000303983688, 0.0, 0.0, 0.0, 0.0, 0.0, 1.7103910923896463E9, 0.0, 2024-03-13 21:38:12.389
71.0, 241.29460524115711, 149.26688703149557, -10.088380130473524, 123.17734494060278, 0.5120000243186951, 0.6880000326782465, 0.6400000303983688, 0.0, 0.0, 0.0, 0.0, 0.0, 1.7103910923896463E9, 0.0, 2024-03-13 21:38:12.389
72.0, 244.32018430531025, 150.2243014201522, -25.474328548181802, 120.18916487600654, 0.5120000243186951, 0.6880000326782465, 0.6400000303983688, 0.0, 0.0, 0.0, 0.0, 0.0, 1.7103910923903596E9, 0.0, 2024-03-13 21:38:12.390
72.0, 236.50005349796265, 142.9988147057593, -32.561438964214176, 110.95535188540816, 0.5120000243186951, 0.6880000326782465, 0.6400000303983688, 0.0, 0.0, 0.0, 0.0, 0.0, 1.7103910923903596E9, 0.0, 2024-03-13 21:38:12.390
73.0, 243.7404998121783, 153.53785278089345, -14.475282778497785, 122.64627914689481, 0.5120000243186951, 0.6880000326782465, 0.6400000303983688, 0.0, 0.0, 0.0, 0.0, 0.0, 1.7103910924043324E9, 0.0, 2024-03-13 21:38:12.404
73.0, 241.6386760370806, 151.09569810982794, -17.613058841321617, 117.87790670339018, 0.5120000243186951, 0.6880000326782465, 0.6400000303983688, 0.0, 0.0, 0.0, 0.0, 0.0, 1.7103910924043324E9, 0.0, 2024-03-13 21:38:12.404
74.0, 238.15682917833328, 136.41285088378936, -32.52403996465728, 110.59258158970624, 0.5120000243186951, 0.6880000326782465, 0.6400000303983688, 0.0, 0.0, 0.0, 0.0, 0.0, 1.7103910924197469E9, 0.0, 2024-03-13 21:38:12.419
74.0, 241.98648673295975, 142.69214290939271, -11.374905715230852, 120.17794517613947, 0.5120000243186951, 0.6880000326782465, 0.6400000303983688, 0.0, 0.0, 0.0, 0.0, 0.0, 1.7103910924197469E9, 0.0, 2024-03-13 21:38:12.419
75.0, 230.5947514679283, 139.251434950158, -17.14183144690469, 120.71649076975882, 0.5120000243186951, 0.6880000326782465, 0.6400000303983688, 0.0, 0.0, 0.0, 0.0, 0.0, 1.7103910924206667E9, 0.0, 2024-03-13 21:38:12.420
75.0, 225.68800272606313, 132.45603673066944, -18.29746053321287, 113.24791055824608, 0.5120000243186951, 0.6880000326782465, 0.6400000303983688, 0.0, 0.0, 0.0, 0.0, 0.0, 1.7103910924206667E9, 0.0, 2024-03-13 21:38:12.420
76.0, 232.87609044089913, 144.65559038612992, -25.50424774782732, 118.52864929568022, 0.5120000243186951, 0.6880000326782465, 0.6400000303983688, 0.0, 0.0, 0.0, 0.0, 0.0, 1.710391092434217E9, 0.0, 2024-03-13 21:38:12.434
76.0, 233.57171183265746, 141.71228912100196, -3.8801462040282786, 118.16213910002261, 0.5120000243186951, 0.6880000326782465, 0.6400000303983688, 0.0, 0.0, 0.0, 0.0, 0.0, 1.710391092434217E9, 0.0, 2024-03-13 21:38:12.434
77.0, 228.4742281930521, 138.5071948589757, -9.647071935702115, 117.05138881318271, 0.5120000243186951, 0.6880000326782465, 0.6400000303983688, 0.0, 0.0, 0.0, 0.0, 0.0, 1.7103910924501305E9, 0.0, 2024-03-13 21:38:12.450
77.0, 224.13220434449613, 134.89445150177926, -27.808026120532304, 111.92772587388754, 0.5120000243186951, 0.6880000326782465, 0.6400000303983688, 0.0, 0.0, 0.0, 0.0, 0.0, 1.7103910924501305E9, 0.0, 2024-03-13 21:38:12.450
78.0, 232.65543634351343, 135.05526719987392, -17.691596740391105, 118.04620220139623, 0.5120000243186951, 0.6880000326782465, 0.6400000303983688, 0.0, 0.0, 0.0, 0.0, 0.0, 1.7103910924646642E9, 0.0, 2024-03-13 21:38:12.464
78.0, 233.04438593890518, 138.57451305817813, -5.679038082715124, 125.33900711499155, 0.5120000243186951, 0.6880000326782465, 0.6400000303983688, 0.0, 0.0, 0.0, 0.0, 0.0, 1.7103910924646642E9, 0.0, 2024-03-13 21:38:12.464
79.0, 234.79465911816806, 137.81905326712877, -18.806086927186698, 116.5764215188101, 0.5120000243186951, 0.6880000326782465, 0.6400000303983688, 0.0, 0.0, 0.0, 0.0, 0.0, 1.7103910924653826E9, 0.0, 2024-03-13 21:38:12.465
79.0, 236.58607119694352, 141.08398592844605, -12.414597902912647, 120.1330663766712, 0.5120000243186951, 0.6880000326782465, 0.6400000303983688, 0.0, 0.0, 0.0, 0.0, 0.0, 1.7103910924653826E9, 0.0, 2024-03-13 21:38:12.465
80.0, 234.95547481626272, 134.90567120164633, -9.497475937474519, 113.18433225899935, 0.5120000243186951, 0.6880000326782465, 0.6400000303983688, 0.0, 0.0, 0.0, 0.0, 0.0, 1.7103910924796314E9, 0.0, 2024-03-13 21:38:12.479
80.0, 223.08129245694727, 130.11111945845187, -22.456229283940047, 106.34031534008682, 0.5120000243186951, 0.6880000326782465, 0.6400000303983688, 0.0, 0.0, 0.0, 0.0, 0.0, 1.7103910924796314E9, 0.0, 2024-03-13 21:38:12.479
81.0, 228.4817079929635, 134.04923411179334, -30.912143083754927, 103.28855697624385, 0.5120000243186951, 0.6880000326782465, 0.6400000303983688, 0.0, 0.0, 0.0, 0.0, 0.0, 1.7103910924804718E9, 0.0, 2024-03-13 21:38:12.480
81.0, 235.699714907445, 139.78624064382166, -23.069572876673192, 119.51972278393805, 0.5120000243186951, 0.6880000326782465, 0.6400000303983688, 0.0, 0.0, 0.0, 0.0, 0.0, 1.7103910924804718E9, 0.0, 2024-03-13 21:38:12.480
82.0, 236.2233009012416, 141.96286241803318, -16.483609054703265, 110.83941498678178, 0.5120000243186951, 0.6880000326782465, 0.6400000303983688, 0.0, 0.0, 0.0, 0.0, 0.0, 1.7103910924940183E9, 0.0, 2024-03-13 21:38:12.494
82.0, 227.13534400891513, 128.60767967626452, -37.385909907054156, 96.10420916136354, 0.5120000243186951, 0.6880000326782465, 0.6400000303983688, 0.0, 0.0, 0.0, 0.0, 0.0, 1.7103910924940183E9, 0.0, 2024-03-13 21:38:12.494
83.0, 233.39967643469572, 134.81591360270977, -19.262354721780866, 103.79344347026199, 0.5120000243186951, 0.6880000326782465, 0.6400000303983688, 0.0, 0.0, 0.0, 0.0, 0.0, 1.7103910925093875E9, 0.0, 2024-03-13 21:38:12.509
83.0, 232.9209692403674, 137.68067696876824, -14.617398976814002, 112.47749116737396, 0.5120000243186951, 0.6880000326782465, 0.6400000303983688, 0.0, 0.0, 0.0, 0.0, 0.0, 1.7103910925093875E9, 0.0, 2024-03-13 21:38:12.509
84.0, 230.23946097213775, 131.52106174174696, -28.275513614993542, 105.6820929478854, 0.5120000243186951, 0.6880000326782465, 0.6400000303983688, 0.0, 0.0, 0.0, 0.0, 0.0, 1.7103910925248084E9, 0.0, 2024-03-13 21:38:12.524
84.0, 229.64481687918305, 131.8015542384237, -25.268634050618857, 106.89756043348461, 0.5120000243186951, 0.6880000326782465, 0.6400000303983688, 0.0, 0.0, 0.0, 0.0, 0.0, 1.7103910925248084E9, 0.0, 2024-03-13 21:38:12.524
85.0, 230.19458217266947, 136.36797208432108, -13.962916484568268, 108.77873011119664, 0.5120000243186951, 0.6880000326782465, 0.6400000303983688, 0.0, 0.0, 0.0, 0.0, 0.0, 1.7103910925253437E9, 0.0, 2024-03-13 21:38:12.525
85.0, 226.61923781502992, 131.12463234644383, -26.633697534445673, 106.47869163844734, 0.5120000243186951, 0.6880000326782465, 0.6400000303983688, 0.0, 0.0, 0.0, 0.0, 0.0, 1.7103910925253437E9, 0.0, 2024-03-13 21:38:12.525
86.0, 236.93388189282268, 140.03681394085288, -21.603532094042748, 111.41909947991371, 0.5120000243186951, 0.6880000326782465, 0.6400000303983688, 0.0, 0.0, 0.0, 0.0, 0.0, 1.710391092539715E9, 0.0, 2024-03-13 21:38:12.539
86.0, 231.56712545640767, 141.67115022148937, -16.999715248588473, 113.52466315496713, 0.5120000243186951, 0.6880000326782465, 0.6400000303983688, 0.0, 0.0, 0.0, 0.0, 0.0, 1.710391092539715E9, 0.0, 2024-03-13 21:38:12.539
87.0, 228.42934939358383, 137.53856077045202, -21.16970369918272, 100.02736421488225, 0.5120000243186951, 0.6880000326782465, 0.6400000303983688, 0.0, 0.0, 0.0, 0.0, 0.0, 1.7103910925405383E9, 0.0, 2024-03-13 21:38:12.540
87.0, 231.97477455157787, 135.48161579482257, -36.649149615783244, 104.33946886379272, 0.5120000243186951, 0.6880000326782465, 0.6400000303983688, 0.0, 0.0, 0.0, 0.0, 0.0, 1.7103910925405383E9, 0.0, 2024-03-13 21:38:12.540
88.0, 242.76438592374325, 140.13031143974513, -21.854105391073972, 110.57388208992779, 0.5120000243186951, 0.6880000326782465, 0.6400000303983688, 0.0, 0.0, 0.0, 0.0, 0.0, 1.7103910925539625E9, 0.0, 2024-03-13 21:38:12.553
88.0, 235.17612891364843, 140.1789301391691, -16.72670255182311, 110.88803368620574, 0.5120000243186951, 0.6880000326782465, 0.6400000303983688, 0.0, 0.0, 0.0, 0.0, 0.0, 1.7103910925539625E9, 0.0, 2024-03-13 21:38:12.553
89.0, 235.39304311107844, 137.08603287581354, -27.815505920443684, 107.49220452643931, 0.5120000243186951, 0.6880000326782465, 0.6400000303983688, 0.0, 0.0, 0.0, 0.0, 0.0, 1.7103910925863075E9, 0.0, 2024-03-13 21:38:12.586
89.0, 239.20026126597077, 142.91279700677842, -23.264047674369067, 108.0120506202802, 0.5120000243186951, 0.6880000326782465, 0.6400000303983688, 0.0, 0.0, 0.0, 0.0, 0.0, 1.7103910925863075E9, 0.0, 2024-03-13 21:38:12.586
90.0, 239.39473606366664, 142.85295860748738, -16.199376658070832, 108.86100791022182, 0.5120000243186951, 0.6880000326782465, 0.6400000303983688, 0.0, 0.0, 0.0, 0.0, 0.0, 1.7103910925873616E9, 0.0, 2024-03-13 21:38:12.587
90.0, 238.45228127483279, 140.4743822356686, -20.6947364048101, 112.0137435728684, 0.5120000243186951, 0.6880000326782465, 0.6400000303983688, 0.0, 0.0, 0.0, 0.0, 0.0, 1.7103910925873616E9, 0.0, 2024-03-13 21:38:12.587
91.0, 250.62939553055912, 147.48669465258718, -18.2862408333458, 110.1998920943588, 0.5120000243186951, 0.6880000326782465, 0.6400000303983688, 0.0, 0.0, 0.0, 0.0, 0.0, 1.7103910925878572E9, 0.0, 2024-03-13 21:38:12.587
91.0, 249.50368564389646, 153.08532488625497, -5.121792989317328, 124.1310194293037, 0.5120000243186951, 0.6880000326782465, 0.6400000303983688, 0.0, 0.0, 0.0, 0.0, 0.0, 1.7103910925878572E9, 0.0, 2024-03-13 21:38:12.587
92.0, 237.2218541894108, 148.93029603548348, -14.523901477921754, 122.40692554973066, 0.5120000243186951, 0.6880000326782465, 0.6400000303983688, 0.0, 0.0, 0.0, 0.0, 0.0, 1.7103910925883863E9, 0.0, 2024-03-13 21:38:12.588
92.0, 245.1579218953848, 147.63629065081477, -25.53416694747284, 115.58534803055227, 0.5120000243186951, 0.6880000326782465, 0.6400000303983688, 0.0, 0.0, 0.0, 0.0, 0.0, 1.7103910925883863E9, 0.0, 2024-03-13 21:38:12.588
93.0, 253.99156559072435, 161.35050378832966, -9.587233536411077, 125.08095401804894, 0.5120000243186951, 0.6880000326782465, 0.6400000303983688, 0.0, 0.0, 0.0, 0.0, 0.0, 1.710391092598984E9, 0.0, 2024-03-13 21:38:12.598
93.0, 247.38316236902028, 160.09389740321785, -6.535475172568113, 127.51562888920307, 0.5120000243186951, 0.6880000326782465, 0.6400000303983688, 0.0, 0.0, 0.0, 0.0, 0.0, 1.710391092598984E9, 0.0, 2024-03-13 21:38:12.598
94.0, 246.79225817602128, 154.3007923718542, -4.893659092020243, 126.5769140003249, 0.5120000243186951, 0.6880000326782465, 0.6400000303983688, 0.0, 0.0, 0.0, 0.0, 0.0, 1.7103910926139276E9, 0.0, 2024-03-13 21:38:12.613
94.0, 252.4133278094232, 151.42854920588434, -16.027341260109097, 125.28664851561189, 0.5120000243186951, 0.6880000326782465, 0.6400000303983688, 0.0, 0.0, 0.0, 0.0, 0.0, 1.7103910926139276E9, 0.0, 2024-03-13 21:38:12.613
95.0, 244.87368949875236, 149.2930663311854, -4.2840553992427886, 121.872119856067, 0.5120000243186951, 0.6880000326782465, 0.6400000303983688, 0.0, 0.0, 0.0, 0.0, 0.0, 1.710391092629675E9, 0.0, 2024-03-13 21:38:12.629
95.0, 237.93991498090327, 142.24335491470993, -22.007441289257258, 113.44986515585333, 0.5120000243186951, 0.6880000326782465, 0.6400000303983688, 0.0, 0.0, 0.0, 0.0, 0.0, 1.710391092629675E9, 0.0, 2024-03-13 21:38:12.629
96.0, 242.61852982547134, 145.59804517496377, -18.585432829800993, 117.9826239021495, 0.5120000243186951, 0.6880000326782465, 0.6400000303983688, 0.0, 0.0, 0.0, 0.0, 0.0, 1.7103910926303935E9, 0.0, 2024-03-13 21:38:12.630
96.0, 247.62625586614013, 153.94176197610795, -12.403378203045577, 126.48715640138835, 0.5120000243186951, 0.6880000326782465, 0.6400000303983688, 0.0, 0.0, 0.0, 0.0, 0.0, 1.7103910926303935E9, 0.0, 2024-03-13 21:38:12.630
97.0, 250.64809503033757, 155.6995149552822, -9.157145041506737, 126.11316640581936, 0.5120000243186951, 0.6880000326782465, 0.6400000303983688, 0.0, 0.0, 0.0, 0.0, 0.0, 1.710391092644339E9, 0.0, 2024-03-13 21:38:12.644
97.0, 252.01689841412008, 156.72424754314125, -16.775321251247078, 126.41609830223024, 0.5120000243186951, 0.6880000326782465, 0.6400000303983688, 0.0, 0.0, 0.0, 0.0, 0.0, 1.710391092644339E9, 0.0, 2024-03-13 21:38:12.644
98.0, 253.59139629546553, 154.4092494705692, -11.07197381881997, 128.0205153832212, 0.5120000243186951, 0.6880000326782465, 0.6400000303983688, 0.0, 0.0, 0.0, 0.0, 0.0, 1.710391092659672E9, 0.0, 2024-03-13 21:38:12.659
98.0, 251.0856633251533, 154.2222544727847, -4.055921501945704, 125.73543651029468, 0.5120000243186951, 0.6880000326782465, 0.6400000303983688, 0.0, 0.0, 0.0, 0.0, 0.0, 1.710391092659672E9, 0.0, 2024-03-13 21:38:12.659
99.0, 247.80577106401324, 147.29969965480268, -13.4692496904172, 120.18168507609516, 0.5120000243186951, 0.6880000326782465, 0.6400000303983688, 0.0, 0.0, 0.0, 0.0, 0.0, 1.7103910926603928E9, 0.0, 2024-03-13 21:38:12.660
99.0, 246.1190761839971, 149.52868002839386, -8.768195446114987, 124.36663312651217, 0.5120000243186951, 0.6880000326782465, 0.6400000303983688, 0.0, 0.0, 0.0, 0.0, 0.0, 1.7103910926603928E9, 0.0, 2024-03-13 21:38:12.660
100.0, 248.62480915430933, 154.32323177158833, -2.6123201190494, 127.62782588787377, 0.5120000243186951, 0.6880000326782465, 0.6400000303983688, 0.0, 0.0, 0.0, 0.0, 0.0, 1.7103910926749976E9, 0.0, 2024-03-13 21:38:12.674
100.0, 235.58003810886294, 143.02499400544912, -16.434990355279297, 110.58510178979486, 0.5120000243186951, 0.6880000326782465, 0.6400000303983688, 0.0, 0.0, 0.0, 0.0, 0.0, 1.7103910926749976E9, 0.0, 2024-03-13 21:38:12.674
0.0, 240.61768334917724, 141.89928411878645, -24.479515159968287, 112.55789901642129, 0.5120000243186951, 0.6880000326782465, 0.6400000303983688, 0.0, 0.0, 0.0, 0.0, 0.0, 1.7103910926755269E9, 0.0, 2024-03-13 21:38:12.675
1.0, 248.51261215563864, 152.1466099973768, -8.584940348286182, 124.40216217609122, 0.5120000243186951, 0.6880000326782465, 0.6400000303983688, 0.0, 0.0, 0.0, 0.0, 0.0, 1.7103910926893837E9, 0.0, 2024-03-13 21:38:12.689
1.0, 239.06562486756593, 147.54279315192252, -14.445363578852266, 122.10212370334193, 0.5120000243186951, 0.6880000326782465, 0.6400000303983688, 0.0, 0.0, 0.0, 0.0, 0.0, 1.7103910926893837E9, 0.0, 2024-03-13 21:38:12.689
2.0, 244.21172720659524, 146.86961115989834, -21.790527091827244, 117.26643306063488, 0.5120000243186951, 0.6880000326782465, 0.6400000303983688, 0.0, 0.0, 0.0, 0.0, 0.0, 1.7103910927050333E9, 0.0, 2024-03-13 21:38:12.705
2.0, 247.95162716228515, 153.036706186831, -7.010442466940731, 129.57070391485468, 0.5120000243186951, 0.6880000326782465, 0.6400000303983688, 0.0, 0.0, 0.0, 0.0, 0.0, 1.7103910927050333E9, 0.0, 2024-03-13 21:38:12.705
3.0, 240.16515545453876, 150.06348572205752, -7.481669861357659, 124.47696017520502, 0.5120000243186951, 0.6880000326782465, 0.6400000303983688, 0.0, 0.0, 0.0, 0.0, 0.0, 1.710391092705542E9, 0.0, 2024-03-13 21:38:12.705
3.0, 240.68126164842397, 153.80338567774743, -29.397483601700515, 122.53595209820196, 0.5120000243186951, 0.6880000326782465, 0.6400000303983688, 0.0, 0.0, 0.0, 0.0, 0.0, 1.710391092705542E9, 0.0, 2024-03-13 21:38:12.705
4.0, 251.1155825247988, 158.52687932178378, -5.282608687411994, 127.84287013532594, 0.5120000243186951, 0.6880000326782465, 0.6400000303983688, 0.0, 0.0, 0.0, 0.0, 0.0, 1.7103910927189777E9, 0.0, 2024-03-13 21:38:12.718
4.0, 246.90445517469198, 150.5122737167403, -7.208657164592296, 126.7433395483531, 0.5120000243186951, 0.6880000326782465, 0.6400000303983688, 0.0, 0.0, 0.0, 0.0, 0.0, 1.7103910927189777E9, 0.0, 2024-03-13 21:38:12.718
5.0, 244.39498230442405, 152.8534510890022, -14.744555575307459, 127.70075393700972, 0.5120000243186951, 0.6880000326782465, 0.6400000303983688, 0.0, 0.0, 0.0, 0.0, 0.0, 1.7103910927348585E9, 0.0, 2024-03-13 21:38:12.734
5.0, 257.1293416535482, 160.86431679408997, -6.397098874207586, 132.92165427515283, 0.5120000243186951, 0.6880000326782465, 0.6400000303983688, 0.0, 0.0, 0.0, 0.0, 0.0, 1.7103910927348585E9, 0.0, 2024-03-13 21:38:12.734
6.0, 257.14430125337094, 162.03116558026522, -1.1014005369506776, 138.92793360399082, 0.5120000243186951, 0.6880000326782465, 0.6400000303983688, 0.0, 0.0, 0.0, 0.0, 0.0, 1.7103910927353933E9, 0.0, 2024-03-13 21:38:12.735
6.0, 240.69248134829104, 151.91473620012403, -19.389511320274323, 125.80462465947494, 0.5120000243186951, 0.6880000326782465, 0.6400000303983688, 0.0, 0.0, 0.0, 0.0, 0.0, 1.7103910927353933E9, 0.0, 2024-03-13 21:38:12.735
7.0, 239.87344325799495, 142.8080798080191, -27.845425120089203, 119.28597903670743, 0.5120000243186951, 0.6880000326782465, 0.6400000303983688, 0.0, 0.0, 0.0, 0.0, 0.0, 1.7103910927489877E9, 0.0, 2024-03-13 21:38:12.748
7.0, 242.670888424851, 146.45448226481676, -14.336906480137259, 122.97352039301768, 0.5120000243186951, 0.6880000326782465, 0.6400000303983688, 0.0, 0.0, 0.0, 0.0, 0.0, 1.7103910927489877E9, 0.0, 2024-03-13 21:38:12.748
8.0, 240.2249938538298, 146.56667926348746, -9.796667933929712, 125.23241996625438, 0.5120000243186951, 0.6880000326782465, 0.6400000303983688, 0.0, 0.0, 0.0, 0.0, 0.0, 1.710391092764856E9, 0.0, 2024-03-13 21:38:12.764
8.0, 239.80238515883684, 148.41792974155396, -15.638391664717346, 121.69073470821604, 0.5120000243186951, 0.6880000326782465, 0.6400000303983688, 0.0, 0.0, 0.0, 0.0, 0.0, 1.710391092764856E9, 0.0, 2024-03-13 21:38:12.764
9.0, 245.30751789361238, 152.28498629573733, -17.16801074659452, 124.3011848772876, 0.5120000243186951, 0.6880000326782465, 0.6400000303983688, 0.0, 0.0, 0.0, 0.0, 0.0, 1.7103910927653787E9, 0.0, 2024-03-13 21:38:12.765
9.0, 243.98733320925385, 152.71507479064167, -6.456937273498625, 124.3759828764014, 0.5120000243186951, 0.6880000326782465, 0.6400000303983688, 0.0, 0.0, 0.0, 0.0, 0.0, 1.7103910927653787E9, 0.0, 2024-03-13 21:38:12.765
10.0, 239.28627896495163, 146.57041916344315, -9.531135037075728, 120.49396672239527, 0.5120000243186951, 0.6880000326782465, 0.6400000303983688, 0.0, 0.0, 0.0, 0.0, 0.0, 1.7103910927792473E9, 0.0, 2024-03-13 21:38:12.779
10.0, 243.7853786116466, 147.52035375218838, -21.07246630033478, 123.23157348996028, 0.5120000243186951, 0.6880000326782465, 0.6400000303983688, 0.0, 0.0, 0.0, 0.0, 0.0, 1.7103910927792473E9, 0.0, 2024-03-13 21:38:12.779
11.0, 242.4502343274653, 149.50250072870404, -3.9736437029205263, 128.2318197307177, 0.5120000243186951, 0.6720000319182873, 0.6400000303983688, 0.0, 0.0, 0.0, 0.0, 0.0, 1.7103910927947588E9, 0.0, 2024-03-13 21:38:12.794
11.0, 235.6660558078438, 154.218514572829, -10.447410526219755, 125.08282396802679, 0.5120000243186951, 0.6720000319182873, 0.6400000303983688, 0.0, 0.0, 0.0, 0.0, 0.0, 1.7103910927947588E9, 0.0, 2024-03-13 21:38:12.794
12.0, 237.23307388927788, 144.45737568847835, -26.222308539319783, 118.23132724920288, 0.5120000243186951, 0.6720000319182873, 0.6400000303983688, 0.0, 0.0, 0.0, 0.0, 0.0, 1.710391092795369E9, 0.0, 2024-03-13 21:38:12.795
12.0, 245.7450861884281, 150.32527871895581, -5.6528587830252945, 122.65188899682835, 0.5120000243186951, 0.6720000319182873, 0.6400000303983688, 0.0, 0.0, 0.0, 0.0, 0.0, 1.710391092795369E9, 0.0, 2024-03-13 21:38:12.795
13.0, 241.10761024337262, 143.12597130425274, -16.580846453551203, 119.05036533949897, 0.5120000243186951, 0.6720000319182873, 0.6400000303983688, 0.0, 0.0, 0.0, 0.0, 0.0, 1.7103910928089666E9, 0.0, 2024-03-13 21:38:12.808
13.0, 230.76304696593434, 132.52709482982755, -32.643716763239354, 107.76334727322683, 0.5120000243186951, 0.6720000319182873, 0.6400000303983688, 0.0, 0.0, 0.0, 0.0, 0.0, 1.7103910928089666E9, 0.0, 2024-03-13 21:38:12.808
14.0, 236.0774448029697, 135.12258539907634, -32.3295651669614, 105.19777590362355, 0.5120000243186951, 0.6720000319182873, 0.6400000303983688, 0.0, 0.0, 0.0, 0.0, 0.0, 1.710391092824948E9, 0.0, 2024-03-13 21:38:12.824
14.0, 242.18096153065562, 141.28220062609762, -14.811873774509877, 110.79640613729134, 0.5120000243186951, 0.6720000319182873, 0.6400000303983688, 0.0, 0.0, 0.0, 0.0, 0.0, 1.710391092824948E9, 0.0, 2024-03-13 21:38:12.824
15.0, 228.72480149008334, 134.14647151064128, -27.91274331929162, 103.98230841802433, 0.5120000243186951, 0.6720000319182873, 0.6400000303983688, 0.0, 0.0, 0.0, 0.0, 0.0, 1.7103910928254023E9, 0.0, 2024-03-13 21:38:12.825
15.0, 245.44215429201722, 140.8782914308831, -25.758560944814235, 115.53859928110614, 0.5120000243186951, 0.6720000319182873, 0.6400000303983688, 0.0, 0.0, 0.0, 0.0, 0.0, 1.7103910928254023E9, 0.0, 2024-03-13 21:38:12.825
16.0, 249.21197344735265, 150.57211211603135, -11.632958812173456, 122.38261620001867, 0.5120000243186951, 0.6720000319182873, 0.6400000303983688, 0.0, 0.0, 0.0, 0.0, 0.0, 1.7103910928394656E9, 0.0, 2024-03-13 21:38:12.839
16.0, 235.53515930939466, 138.6941898567602, -19.50170831894502, 111.29007293144241, 0.5120000243186951, 0.6720000319182873, 0.6400000303983688, 0.0, 0.0, 0.0, 0.0, 0.0, 1.7103910928394656E9, 0.0, 2024-03-13 21:38:12.839
17.0, 243.36276991665363, 141.56269312277436, -18.596652529668063, 116.39503637095913, 0.5120000243186951, 0.6720000319182873, 0.6400000303983688, 0.0, 0.0, 0.0, 0.0, 0.0, 1.7103910928555548E9, 0.0, 2024-03-13 21:38:12.855
17.0, 248.47147325612605, 149.73063462600112, -20.38806460844353, 115.94250847632065, 0.5120000243186951, 0.6720000319182873, 0.6400000303983688, 0.0, 0.0, 0.0, 0.0, 0.0, 1.7103910928555548E9, 0.0, 2024-03-13 21:38:12.855
18.0, 238.99082686845213, 141.76464772038162, -21.442716395948082, 109.53231995226815, 0.5120000243186951, 0.6720000319182873, 0.6400000303983688, 0.0, 0.0, 0.0, 0.0, 0.0, 1.7103910928557873E9, 0.0, 2024-03-13 21:38:12.855
18.0, 230.69572876673192, 133.619145616889, -27.50883412407711, 100.08533266419545, 0.5120000243186951, 0.6720000319182873, 0.6400000303983688, 0.0, 0.0, 0.0, 0.0, 0.0, 1.7103910928557873E9, 0.0, 2024-03-13 21:38:12.855
19.0, 237.4425082867965, 137.16831067483872, -22.220615586731583, 105.90087709529325, 0.5120000243186951, 0.6720000319182873, 0.6400000303983688, 0.0, 0.0, 0.0, 0.0, 0.0, 1.7103910928694067E9, 0.0, 2024-03-13 21:38:12.869
19.0, 234.8844167171046, 139.3972910484299, -11.247749116737396, 114.53630609298125, 0.5120000243186951, 0.6720000319182873, 0.6400000303983688, 0.0, 0.0, 0.0, 0.0, 0.0, 1.7103910928694067E9, 0.0, 2024-03-13 21:38:12.869
20.0, 225.09709853306413, 124.44143112562597, -36.52947281720117, 100.2910271617584, 0.5120000243186951, 0.6720000319182873, 0.6400000303983688, 0.0, 0.0, 0.0, 0.0, 0.0, 1.7103910928846896E9, 0.0, 2024-03-13 21:38:12.884
20.0, 227.90576339978725, 127.1341590937227, -32.542739464435726, 106.65259698638692, 0.5120000243186951, 0.6720000319182873, 0.6400000303983688, 0.0, 0.0, 0.0, 0.0, 0.0, 1.7103910928846896E9, 0.0, 2024-03-13 21:38:12.884
21.0, 228.2573139956221, 129.6585915638134, -25.380831049289554, 106.39080398948863, 0.5120000243186951, 0.6720000319182873, 0.6400000303983688, 0.0, 0.0, 0.0, 0.0, 0.0, 1.7103910928856742E9, 0.0, 2024-03-13 21:38:12.885
21.0, 218.1371447155252, 120.06200827751309, -26.211088839452714, 103.29790672613308, 0.5120000243186951, 0.6720000319182873, 0.6400000303983688, 0.0, 0.0, 0.0, 0.0, 0.0, 1.7103910928856742E9, 0.0, 2024-03-13 21:38:12.885
22.0, 222.6998226614669, 118.67824529390782, -37.434528606478125, 98.96710257744417, 0.5120000243186951, 0.6720000319182873, 0.6400000303983688, 0.0, 0.0, 0.0, 0.0, 0.0, 1.7103910928989787E9, 0.0, 2024-03-13 21:38:12.898
22.0, 230.54613276850432, 133.45085011888295, -26.521500535774976, 102.3629317372106, 0.5120000243186951, 0.6720000319182873, 0.6400000303983688, 0.0, 0.0, 0.0, 0.0, 0.0, 1.7103910928989787E9, 0.0, 2024-03-13 21:38:12.898
23.0, 228.9192762877792, 132.96840302459896, -26.278407038655132, 105.18655620375648, 0.5120000243186951, 0.6720000319182873, 0.6400000303983688, 0.0, 0.0, 0.0, 0.0, 0.0, 1.7103910929147203E9, 0.0, 2024-03-13 21:38:12.914
23.0, 227.53177340421826, 128.49174277763814, -34.988634035456926, 97.3626854964532, 0.5120000243186951, 0.6720000319182873, 0.6400000303983688, 0.0, 0.0, 0.0, 0.0, 0.0, 1.7103910929147203E9, 0.0, 2024-03-13 21:38:12.914
24.0, 233.91204272862524, 132.919784325175, -26.38686413737014, 101.40925724850968, 0.5120000243186951, 0.6720000319182873, 0.6400000303983688, 0.0, 0.0, 0.0, 0.0, 0.0, 1.7103910929153712E9, 0.0, 2024-03-13 21:38:12.915
24.0, 228.83699848875403, 130.9525969484821, -27.96884181862697, 107.94660237105563, 0.5120000243186951, 0.6720000319182873, 0.6400000303983688, 0.0, 0.0, 0.0, 0.0, 0.0, 1.7103910929153712E9, 0.0, 2024-03-13 21:38:12.915
25.0, 225.1045783329755, 122.53408214822412, -37.834697901736945, 101.31949964957312, 0.5120000243186951, 0.6720000319182873, 0.6400000303983688, 0.0, 0.0, 0.0, 0.0, 0.0, 1.7103910929289708E9, 0.0, 2024-03-13 21:38:12.928
25.0, 236.31305850017816, 127.24261619243771, -40.38156977156177, 101.79446694394574, 0.5120000243186951, 0.6720000319182873, 0.6400000303983688, 0.0, 0.0, 0.0, 0.0, 0.0, 1.7103910929289708E9, 0.0, 2024-03-13 21:38:12.928
26.0, 237.46494768653065, 137.48620217107236, -11.236529416870326, 112.53171971673146, 0.5120000243186951, 0.6720000319182873, 0.6400000303983688, 0.0, 0.0, 0.0, 0.0, 0.0, 1.7103910929446368E9, 0.0, 2024-03-13 21:38:12.944
26.0, 231.21557486057281, 137.93873006571084, -21.5100345951505, 112.38212371850386, 0.5120000243186951, 0.6720000319182873, 0.6400000303983688, 0.0, 0.0, 0.0, 0.0, 0.0, 1.7103910929446368E9, 0.0, 2024-03-13 21:38:12.944
27.0, 225.09709853306413, 135.05152729991823, -35.64311652770266, 101.04274705285206, 0.5120000243186951, 0.6720000319182873, 0.6400000303983688, 0.0, 0.0, 0.0, 0.0, 0.0, 1.7103910929453335E9, 0.0, 2024-03-13 21:38:12.945
27.0, 237.05355869140476, 139.61046534590423, -10.2454559286125, 107.35195827810094, 0.5120000243186951, 0.6720000319182873, 0.6400000303983688, 0.0, 0.0, 0.0, 0.0, 0.0, 1.7103910929453335E9, 0.0, 2024-03-13 21:38:12.945
28.0, 227.1465637087822, 135.78828759118915, -21.248241598252207, 112.04553272249177, 0.5120000243186951, 0.6720000319182873, 0.6400000303983688, 0.0, 0.0, 0.0, 0.0, 0.0, 1.7103910929593644E9, 0.0, 2024-03-13 21:38:12.959
28.0, 223.13739095628262, 132.5121352300048, -34.01999994693324, 108.51132726436481, 0.5120000243186951, 0.6720000319182873, 0.6400000303983688, 0.0, 0.0, 0.0, 0.0, 0.0, 1.7103910929593644E9, 0.0, 2024-03-13 21:38:12.959
29.0, 239.42839516326785, 139.8086800435558, -26.42426313692704, 115.890149876941, 0.5120000243186951, 0.6720000319182873, 0.6400000303983688, 0.0, 0.0, 0.0, 0.0, 0.0, 1.7103910929746392E9, 0.0, 2024-03-13 21:38:12.974
29.0, 234.3757903231308, 140.25746803823858, -19.823339715134352, 117.55066545726731, 0.5120000243186951, 0.6720000319182873, 0.6400000303983688, 0.0, 0.0, 0.0, 0.0, 0.0, 1.7103910929746392E9, 0.0, 2024-03-13 21:38:12.974
30.0, 230.71442826651037, 136.8803383782506, -19.628864917438477, 117.8909963532351, 0.5120000243186951, 0.6720000319182873, 0.6240000296384096, 0.0, 0.0, 0.0, 0.0, 0.0, 1.7103910929753833E9, 0.0, 2024-03-13 21:38:12.975
30.0, 233.87464372906834, 140.09291244018823, -27.258260827045888, 112.49432071717456, 0.5120000243186951, 0.6720000319182873, 0.6240000296384096, 0.0, 0.0, 0.0, 0.0, 0.0, 1.7103910929753833E9, 0.0, 2024-03-13 21:38:12.975
31.0, 231.35021125897765, 135.67983049247414, -15.036267771851271, 118.19766814960167, 0.5120000243186951, 0.6720000319182873, 0.6240000296384096, 0.0, 0.0, 0.0, 0.0, 0.0, 1.7103910929893396E9, 0.0, 2024-03-13 21:38:12.989
31.0, 224.59595193900168, 138.7353287562728, -10.458630226086825, 117.6292033563368, 0.5120000243186951, 0.6720000319182873, 0.6240000296384096, 0.0, 0.0, 0.0, 0.0, 0.0, 1.7103910929893396E9, 0.0, 2024-03-13 21:38:12.989
32.0, 234.1139973262325, 139.93209674209356, -23.55201997095719, 114.76817989023402, 0.5120000243186951, 0.6720000319182873, 0.6240000296384096, 0.0, 0.0, 0.0, 0.0, 0.0, 1.710391093004969E9, 0.0, 2024-03-13 21:38:13.004
32.0, 235.4865406099707, 140.40706403646618, -15.313020368572325, 116.7428470668383, 0.5120000243186951, 0.6720000319182873, 0.6240000296384096, 0.0, 0.0, 0.0, 0.0, 0.0, 1.710391093004969E9, 0.0, 2024-03-13 21:38:13.004
33.0, 231.8924967525527, 144.65185048617423, -18.940723325591534, 116.67552886763588, 0.5120000243186951, 0.6720000319182873, 0.6240000296384096, 0.0, 0.0, 0.0, 0.0, 0.0, 1.7103910930056455E9, 0.0, 2024-03-13 21:38:13.005
33.0, 227.1465637087822, 134.6550979046151, -19.419430519919842, 106.46186208864674, 0.5120000243186951, 0.6720000319182873, 0.6240000296384096, 0.0, 0.0, 0.0, 0.0, 0.0, 1.7103910930056455E9, 0.0, 2024-03-13 21:38:13.005
34.0, 232.1094109499827, 137.213189474307, -17.631758341100067, 111.38357043033466, 0.5120000243186951, 0.6720000319182873, 0.6240000296384096, 0.0, 0.0, 0.0, 0.0, 0.0, 1.7103910930193532E9, 0.0, 2024-03-13 21:38:13.019
34.0, 232.16550944931805, 133.5480875177309, -7.45549056166783, 108.32059236662462, 0.5120000243186951, 0.6720000319182873, 0.6240000296384096, 0.0, 0.0, 0.0, 0.0, 0.0, 1.7103910930193532E9, 0.0, 2024-03-13 21:38:13.019
35.0, 217.9875487172976, 125.40632531419396, -27.785586720798165, 102.56862623477355, 0.5120000243186951, 0.6720000319182873, 0.6240000296384096, 0.0, 0.0, 0.0, 0.0, 0.0, 1.7103910930349057E9, 0.0, 2024-03-13 21:38:13.034
35.0, 221.64143097400665, 125.22681011632085, -29.333905302453786, 101.96650234190747, 0.5120000243186951, 0.6720000319182873, 0.6240000296384096, 0.0, 0.0, 0.0, 0.0, 0.0, 1.7103910930349057E9, 0.0, 2024-03-13 21:38:13.034
36.0, 224.96620203461498, 131.66691784001887, -23.18550977529958, 113.58637150423601, 0.5120000243186951, 0.6720000319182873, 0.6240000296384096, 0.0, 0.0, 0.0, 0.0, 0.0, 1.7103910930354376E9, 0.0, 2024-03-13 21:38:13.035
36.0, 221.45817587617785, 128.96671007201076, -19.13519812328741, 107.16122338036075, 0.5120000243186951, 0.6720000319182873, 0.6240000296384096, 0.0, 0.0, 0.0, 0.0, 0.0, 1.7103910930354376E9, 0.0, 2024-03-13 21:38:13.035
37.0, 221.18516317941248, 126.03088860679418, -31.850857972633094, 100.38826456060633, 0.5120000243186951, 0.6720000319182873, 0.6240000296384096, 0.0, 0.0, 0.0, 0.0, 0.0, 1.7103910930490391E9, 0.0, 2024-03-13 21:38:13.049
37.0, 230.08238517399877, 132.55327412951738, -21.397837596479803, 110.94600213551894, 0.5120000243186951, 0.6720000319182873, 0.6240000296384096, 0.0, 0.0, 0.0, 0.0, 0.0, 1.7103910930490391E9, 0.0, 2024-03-13 21:38:13.049
38.0, 234.79465911816806, 141.94042301829904, -12.048087707255036, 118.42580204689875, 0.5120000243186951, 0.6720000319182873, 0.6240000296384096, 0.0, 0.0, 0.0, 0.0, 0.0, 1.7103910930649288E9, 0.0, 2024-03-13 21:38:13.064
38.0, 230.7443474661559, 134.93559040129185, -29.93976909527555, 110.31395904300734, 0.5120000243186951, 0.6720000319182873, 0.6240000296384096, 0.0, 0.0, 0.0, 0.0, 0.0, 1.7103910930649288E9, 0.0, 2024-03-13 21:38:13.064
39.0, 235.78573260642588, 138.9522429537028, -26.39808383723721, 112.26992671983317, 0.5120000243186951, 0.6720000319182873, 0.6240000296384096, 0.0, 0.0, 0.0, 0.0, 0.0, 1.710391093065699E9, 0.0, 2024-03-13 21:38:13.065
39.0, 236.82916469406337, 139.48330874741077, -21.427756796125323, 112.72619451442733, 0.5120000243186951, 0.6720000319182873, 0.6240000296384096, 0.0, 0.0, 0.0, 0.0, 0.0, 1.710391093065699E9, 0.0, 2024-03-13 21:38:13.065
40.0, 229.61489767953753, 134.34468620829284, -14.325686780270189, 111.77999982563779, 0.5120000243186951, 0.6720000319182873, 0.6400000303983688, 0.0, 0.0, 0.0, 0.0, 0.0, 1.7103910930789483E9, 0.0, 2024-03-13 21:38:13.078
40.0, 232.03087305091321, 138.51841455884278, -27.57615232327953, 118.16400905000046, 0.5120000243186951, 0.6720000319182873, 0.6400000303983688, 0.0, 0.0, 0.0, 0.0, 0.0, 1.7103910930789483E9, 0.0, 2024-03-13 21:38:13.078
41.0, 229.75701387785375, 139.34493244905025, -4.579507495742291, 117.49456695793197, 0.5120000243186951, 0.6720000319182873, 0.6400000303983688, 0.0, 0.0, 0.0, 0.0, 0.0, 1.7103910930946467E9, 0.0, 2024-03-13 21:38:13.094
41.0, 227.19518240820616, 136.85041917860508, -16.23677565762773, 111.17039613286033, 0.5120000243186951, 0.6720000319182873, 0.6400000303983688, 0.0, 0.0, 0.0, 0.0, 0.0, 1.7103910930946467E9, 0.0, 2024-03-13 21:38:13.094
42.0, 231.1482566613704, 133.6565446164459, -21.035067300777882, 111.38357043033466, 0.5120000243186951, 0.6720000319182873, 0.6400000303983688, 0.0, 0.0, 0.0, 0.0, 0.0, 1.7103910930953665E9, 0.0, 2024-03-13 21:38:13.095
42.0, 235.53889920935035, 135.81072699092329, -19.09031932381913, 111.6640629270114, 0.5120000243186951, 0.6720000319182873, 0.6400000303983688, 0.0, 0.0, 0.0, 0.0, 0.0, 1.7103910930953665E9, 0.0, 2024-03-13 21:38:13.095
43.0, 235.12751021422446, 136.37171198427677, -15.4700961667113, 116.87000366533175, 0.5120000243186951, 0.6720000319182873, 0.6400000303983688, 0.0, 0.0, 0.0, 0.0, 0.0, 1.7103910931089957E9, 0.0, 2024-03-13 21:38:13.108
43.0, 226.4359827172011, 128.01303558330983, -19.711142716463655, 106.34966508997604, 0.5120000243186951, 0.6720000319182873, 0.6400000303983688, 0.0, 0.0, 0.0, 0.0, 0.0, 1.7103910931089957E9, 0.0, 2024-03-13 21:38:13.108
44.0, 231.8176987534389, 135.6162521932274, -23.59315887046978, 113.49287400534377, 0.5120000243186951, 0.6720000319182873, 0.6400000303983688, 0.0, 0.0, 0.0, 0.0, 0.0, 1.7103910931250603E9, 0.0, 2024-03-13 21:38:13.125
44.0, 229.22968798410147, 132.19424373377115, -9.85276643326506, 120.16485552629456, 0.5120000243186951, 0.6720000319182873, 0.6400000303983688, 0.0, 0.0, 0.0, 0.0, 0.0, 1.7103910931250603E9, 0.0, 2024-03-13 21:38:13.125
45.0, 219.75652139633894, 121.09796056523919, -26.484101536218077, 107.00414758222178, 0.5120000243186951, 0.6720000319182873, 0.6400000303983688, 0.0, 0.0, 0.0, 0.0, 0.0, 1.7103910931254227E9, 0.0, 2024-03-13 21:38:13.125
45.0, 228.91179648786783, 129.48655616585165, -28.073559017386287, 109.43508255342022, 0.5120000243186951, 0.6720000319182873, 0.6400000303983688, 0.0, 0.0, 0.0, 0.0, 0.0, 1.7103910931254227E9, 0.0, 2024-03-13 21:38:13.125
46.0, 234.05415892694145, 135.98276238888502, -7.795821457635611, 114.36427069501951, 0.5120000243186951, 0.6720000319182873, 0.6400000303983688, 0.0, 0.0, 0.0, 0.0, 0.0, 1.710391093139334E9, 0.0, 2024-03-13 21:38:13.139
46.0, 229.86547097656876, 140.9194303303957, -26.76459403289482, 117.04203906329349, 0.5120000243186951, 0.6720000319182873, 0.6400000303983688, 0.0, 0.0, 0.0, 0.0, 0.0, 1.710391093139334E9, 0.0, 2024-03-13 21:38:13.139
47.0, 233.4819542337209, 138.08458616398275, -35.048472434747964, 113.85190440109, 0.5120000243186951, 0.6720000319182873, 0.6400000303983688, 0.0, 0.0, 0.0, 0.0, 0.0, 1.7103910931546712E9, 0.0, 2024-03-13 21:38:13.154
47.0, 236.19338170159608, 147.52409365214407, -11.625479012262076, 117.8498574537225, 0.5120000243186951, 0.6720000319182873, 0.6400000303983688, 0.0, 0.0, 0.0, 0.0, 0.0, 1.7103910931546712E9, 0.0, 2024-03-13 21:38:13.154
48.0, 232.4048630464822, 136.59610598161817, -16.921177349518985, 120.98015371663496, 0.5120000243186951, 0.6720000319182873, 0.6400000303983688, 0.0, 0.0, 0.0, 0.0, 0.0, 1.7103910931554143E9, 0.0, 2024-03-13 21:38:13.155
48.0, 228.23861449584365, 129.8044476620853, -17.1006925473921, 108.05131956981495, 0.5120000243186951, 0.6720000319182873, 0.6400000303983688, 0.0, 0.0, 0.0, 0.0, 0.0, 1.7103910931554143E9, 0.0, 2024-03-13 21:38:13.155
49.0, 237.521046185866, 135.45169659517705, -22.31411308562383, 111.20031533250585, 0.5120000243186951, 0.6720000319182873, 0.6400000303983688, 0.0, 0.0, 0.0, 0.0, 0.0, 1.7103910931689477E9, 0.0, 2024-03-13 21:38:13.168
49.0, 237.08347789105028, 139.82737954333425, -5.207810688298196, 119.8881029295735, 0.5120000243186951, 0.6720000319182873, 0.6400000303983688, 0.0, 0.0, 0.0, 0.0, 0.0, 1.7103910931689477E9, 0.0, 2024-03-13 21:38:13.168
50.0, 226.90347021166235, 133.39101171959192, -7.616306259762496, 115.81909177778289, 0.5120000243186951, 0.6720000319182873, 0.6400000303983688, 0.0, 0.0, 0.0, 0.0, 0.0, 1.7103910931847095E9, 0.0, 2024-03-13 21:38:13.184
50.0, 233.1117041381076, 131.4649632424116, -21.237021898385137, 111.26763353170827, 0.5120000243186951, 0.6720000319182873, 0.6400000303983688, 0.0, 0.0, 0.0, 0.0, 0.0, 1.7103910931847095E9, 0.0, 2024-03-13 21:38:13.184
51.0, 231.01736016292125, 136.24081548582762, -10.350173127371818, 116.90366276493296, 0.5120000243186951, 0.6880000326782465, 0.6400000303983688, 0.0, 0.0, 0.0, 0.0, 0.0, 1.710391093185429E9, 0.0, 2024-03-13 21:38:13.185
51.0, 223.18974955566227, 130.30559425614774, -19.07909962395206, 109.36402445426211, 0.5120000243186951, 0.6880000326782465, 0.6400000303983688, 0.0, 0.0, 0.0, 0.0, 0.0, 1.710391093185429E9, 0.0, 2024-03-13 21:38:13.185
52.0, 228.7734201895073, 130.83292014990002, -28.088518617209047, 110.35135804256424, 0.5120000243186951, 0.6880000326782465, 0.6400000303983688, 0.0, 0.0, 0.0, 0.0, 0.0, 1.710391093198984E9, 0.0, 2024-03-13 21:38:13.198
52.0, 225.63564412668347, 134.31476700864732, -14.72211617557332, 109.18824915634468, 0.5120000243186951, 0.6880000326782465, 0.6400000303983688, 0.0, 0.0, 0.0, 0.0, 0.0, 1.710391093198984E9, 0.0, 2024-03-13 21:38:13.198
53.0, 227.19518240820616, 138.5445938585326, -8.035175054799765, 111.24893403192982, 0.5120000243186951, 0.6880000326782465, 0.6400000303983688, 0.0, 0.0, 0.0, 0.0, 0.0, 1.7103910932147224E9, 0.0, 2024-03-13 21:38:13.214
53.0, 227.2924198070541, 130.7693418506533, -23.305186573881656, 111.9258559239097, 0.5120000243186951, 0.6880000326782465, 0.6400000303983688, 0.0, 0.0, 0.0, 0.0, 0.0, 1.7103910932147224E9, 0.0, 2024-03-13 21:38:13.214
54.0, 232.2552670482546, 137.4712425712496, -15.316760268528014, 116.78398596635088, 0.5120000243186951, 0.6880000326782465, 0.6400000303983688, 0.0, 0.0, 0.0, 0.0, 0.0, 1.7103910932154236E9, 0.0, 2024-03-13 21:38:13.215
54.0, 227.90576339978725, 130.4364907545969, -15.724409363698214, 110.44485554145649, 0.5120000243186951, 0.6880000326782465, 0.6400000303983688, 0.0, 0.0, 0.0, 0.0, 0.0, 1.7103910932154236E9, 0.0, 2024-03-13 21:38:13.215
55.0, 224.44635594077408, 128.6151594761759, -18.405917631927878, 111.04697943432257, 0.5120000243186951, 0.6880000326782465, 0.6400000303983688, 0.0, 0.0, 0.0, 0.0, 0.0, 1.7103910932291038E9, 0.0, 2024-03-13 21:38:13.229
55.0, 230.83036516513675, 135.64617139287293, -18.951943025458604, 114.24085399648175, 0.5120000243186951, 0.6880000326782465, 0.6400000303983688, 0.0, 0.0, 0.0, 0.0, 0.0, 1.7103910932291038E9, 0.0, 2024-03-13 21:38:13.229
56.0, 236.50753329787403, 139.2102960506454, -7.4255713620223105, 114.3306115954183, 0.5120000243186951, 0.6880000326782465, 0.6400000303983688, 0.0, 0.0, 0.0, 0.0, 0.0, 1.7103910932450287E9, 0.0, 2024-03-13 21:38:13.245
56.0, 231.82517855335027, 142.87539800722152, -9.127225841861218, 115.29924568394199, 0.5120000243186951, 0.6880000326782465, 0.6400000303983688, 0.0, 0.0, 0.0, 0.0, 0.0, 1.7103910932450287E9, 0.0, 2024-03-13 21:38:13.245
57.0, 233.11918393801898, 140.33974583726376, -30.00334739452228, 112.63643691549078, 0.5120000243186951, 0.6880000326782465, 0.6400000303983688, 0.0, 0.0, 0.0, 0.0, 0.0, 1.7103910932454472E9, 0.0, 2024-03-13 21:38:13.245
57.0, 238.42984187509865, 144.98844148218632, -1.2248172354884446, 118.76613294286653, 0.5120000243186951, 0.6880000326782465, 0.6400000303983688, 0.0, 0.0, 0.0, 0.0, 0.0, 1.7103910932454472E9, 0.0, 2024-03-13 21:38:13.245
58.0, 231.18939556088299, 139.23273545037955, -0.6787918419577181, 116.5932510686107, 0.5120000243186951, 0.6880000326782465, 0.6400000303983688, 0.0, 0.0, 0.0, 0.0, 0.0, 1.7103910932589686E9, 0.0, 2024-03-13 21:38:13.258
58.0, 235.41548251081258, 141.5514734229073, -22.32907268544659, 116.19682167330757, 0.5120000243186951, 0.6880000326782465, 0.6400000303983688, 0.0, 0.0, 0.0, 0.0, 0.0, 1.7103910932589686E9, 0.0, 2024-03-13 21:38:13.258
59.0, 246.62022277805954, 153.86322407703847, -1.8680800278671086, 123.08571739168838, 0.5120000243186951, 0.6880000326782465, 0.6400000303983688, 0.0, 0.0, 0.0, 0.0, 0.0, 1.7103910932749767E9, 0.0, 2024-03-13 21:38:13.274
59.0, 246.3434701813385, 159.47681391052902, -9.587233536411077, 132.27839148277417, 0.5120000243186951, 0.6880000326782465, 0.6400000303983688, 0.0, 0.0, 0.0, 0.0, 0.0, 1.7103910932749767E9, 0.0, 2024-03-13 21:38:13.274
60.0, 236.7094878954813, 139.82363964337856, -5.903432080056518, 121.67951500834897, 0.5120000243186951, 0.6880000326782465, 0.6400000303983688, 0.0, 0.0, 0.0, 0.0, 0.0, 1.7103910932755115E9, 0.0, 2024-03-13 21:38:13.275
60.0, 248.81180415209383, 151.89603670034558, -17.56818004185334, 129.76143881259486, 0.5120000243186951, 0.6880000326782465, 0.6400000303983688, 0.0, 0.0, 0.0, 0.0, 0.0, 1.7103910932755115E9, 0.0, 2024-03-13 21:38:13.275
61.0, 245.09434359613806, 149.61843762733042, 5.641639083158225, 131.87074238760397, 0.5120000243186951, 0.6720000319182873, 0.6400000303983688, 0.0, 0.0, 0.0, 0.0, 0.0, 1.7103910932893927E9, 0.0, 2024-03-13 21:38:13.289
61.0, 242.94390112161636, 154.52518636919558, 9.467556737829, 129.8175373119302, 0.5120000243186951, 0.6720000319182873, 0.6400000303983688, 0.0, 0.0, 0.0, 0.0, 0.0, 1.7103910932893927E9, 0.0, 2024-03-13 21:38:13.289
62.0, 241.77331243548542, 149.79795282520354, -5.334967286791652, 126.73959964839742, 0.5120000243186951, 0.6720000319182873, 0.6400000303983688, 0.0, 0.0, 0.0, 0.0, 0.0, 1.7103910933050585E9, 0.0, 2024-03-13 21:38:13.305
62.0, 247.31958406977355, 153.0703652864322, -7.328333963174373, 128.70304712513462, 0.5120000243186951, 0.6720000319182873, 0.6400000303983688, 0.0, 0.0, 0.0, 0.0, 0.0, 1.7103910933050585E9, 0.0, 2024-03-13 21:38:13.305
63.0, 235.6323967082426, 143.42890320066363, -2.6272797188721597, 123.17173509066924, 0.5120000243186951, 0.6720000319182873, 0.6400000303983688, 0.0, 0.0, 0.0, 0.0, 0.0, 1.7103910933054996E9, 0.0, 2024-03-13 21:38:13.305
63.0, 231.09589806199074, 135.3282798966393, -19.44934971956536, 114.32313179550692, 0.5120000243186951, 0.6720000319182873, 0.6400000303983688, 0.0, 0.0, 0.0, 0.0, 0.0, 1.7103910933054996E9, 0.0, 2024-03-13 21:38:13.305
64.0, 242.73072682414204, 140.65015753358603, -18.24510193383321, 114.13239689776674, 0.5120000243186951, 0.6720000319182873, 0.6400000303983688, 0.0, 0.0, 0.0, 0.0, 0.0, 1.710391093319126E9, 0.0, 2024-03-13 21:38:13.319
64.0, 239.5181527622044, 139.97323564160615, -10.619445924181491, 117.47212755819783, 0.5120000243186951, 0.6720000319182873, 0.6400000303983688, 0.0, 0.0, 0.0, 0.0, 0.0, 1.710391093319126E9, 0.0, 2024-03-13 21:38:13.319
65.0, 229.87295077648014, 136.4016311839223, -24.913343554828316, 104.71906870929524, 0.5120000243186951, 0.6720000319182873, 0.6400000303983688, 0.0, 0.0, 0.0, 0.0, 0.0, 1.710391093334669E9, 0.0, 2024-03-13 21:38:13.334
65.0, 240.7074409481138, 139.89843764249235, -13.734782587271184, 113.369457306806, 0.5120000243186951, 0.6720000319182873, 0.6400000303983688, 0.0, 0.0, 0.0, 0.0, 0.0, 1.710391093334669E9, 0.0, 2024-03-13 21:38:13.334
66.0, 234.06537862680852, 134.51672160625458, -5.634159283246845, 112.80099251354113, 0.5120000243186951, 0.6720000319182873, 0.6400000303983688, 0.0, 0.0, 0.0, 0.0, 0.0, 1.7103910933356187E9, 0.0, 2024-03-13 21:38:13.335
66.0, 232.68535554315895, 135.23104249779135, -12.463216602336615, 114.88411678886041, 0.5120000243186951, 0.6720000319182873, 0.6400000303983688, 0.0, 0.0, 0.0, 0.0, 0.0, 1.7103910933356187E9, 0.0, 2024-03-13 21:38:13.335
67.0, 234.94799501635134, 132.45229683071375, -18.099245835561305, 109.401423453819, 0.5120000243186951, 0.6720000319182873, 0.6400000303983688, 0.0, 0.0, 0.0, 0.0, 0.0, 1.7103910933489735E9, 0.0, 2024-03-13 21:38:13.348
67.0, 236.27565950062126, 141.31585972569883, -16.932397049386054, 119.34207753604278, 0.5120000243186951, 0.6720000319182873, 0.6400000303983688, 0.0, 0.0, 0.0, 0.0, 0.0, 1.7103910933489735E9, 0.0, 2024-03-13 21:38:13.348
68.0, 229.31196578312665, 138.11076546367258, -11.05701421899721, 114.53256619302556, 0.5120000243186951, 0.6720000319182873, 0.6400000303983688, 0.0, 0.0, 0.0, 0.0, 0.0, 1.710391093364688E9, 0.0, 2024-03-13 21:38:13.364
68.0, 227.24754100758582, 135.1412848988548, -14.882931873667985, 115.36282398318872, 0.5120000243186951, 0.6720000319182873, 0.6400000303983688, 0.0, 0.0, 0.0, 0.0, 0.0, 1.710391093364688E9, 0.0, 2024-03-13 21:38:13.364
69.0, 242.1473024310544, 143.42516330070794, -17.590619441587478, 122.16570200258866, 0.5120000243186951, 0.6720000319182873, 0.6400000303983688, 0.0, 0.0, 0.0, 0.0, 0.0, 1.7103910933654044E9, 0.0, 2024-03-13 21:38:13.365
69.0, 241.84063063468784, 149.18834913242608, 6.6514120711945, 130.23640610696748, 0.5120000243186951, 0.6720000319182873, 0.6400000303983688, 0.0, 0.0, 0.0, 0.0, 0.0, 1.7103910933654044E9, 0.0, 2024-03-13 21:38:13.365
70.0, 238.7813924709335, 139.3636319488287, -17.182970346417278, 121.90390900569037, 0.5120000243186951, 0.6720000319182873, 0.6400000303983688, 0.0, 0.0, 0.0, 0.0, 0.0, 1.7103910933790264E9, 0.0, 2024-03-13 21:38:13.379
70.0, 253.7484720936045, 149.93632912356406, -17.261508245486766, 121.7804923071526, 0.5120000243186951, 0.6720000319182873, 0.6400000303983688, 0.0, 0.0, 0.0, 0.0, 0.0, 1.7103910933790264E9, 0.0, 2024-03-13 21:38:13.379
71.0, 248.57993035484105, 153.72858767863363, -3.5136360083706677, 124.39468237617984, 0.5120000243186951, 0.6720000319182873, 0.6400000303983688, 0.0, 0.0, 0.0, 0.0, 0.0, 1.710391093395088E9, 0.0, 2024-03-13 21:38:13.395
71.0, 239.32367796450853, 151.67912250291556, 7.242316264193505, 129.5258251153864, 0.5120000243186951, 0.6720000319182873, 0.6400000303983688, 0.0, 0.0, 0.0, 0.0, 0.0, 1.710391093395088E9, 0.0, 2024-03-13 21:38:13.395
72.0, 242.1547822309658, 150.01112712267786, -11.509542113635689, 129.675421113614, 0.5120000243186951, 0.6720000319182873, 0.6400000303983688, 0.0, 0.0, 0.0, 0.0, 0.0, 1.7103910933955047E9, 0.0, 2024-03-13 21:38:13.395
72.0, 247.88804886303842, 150.8152056131512, -3.0760677135549486, 132.62246227869764, 0.5120000243186951, 0.6720000319182873, 0.6400000303983688, 0.0, 0.0, 0.0, 0.0, 0.0, 1.7103910933955047E9, 0.0, 2024-03-13 21:38:13.395
73.0, 240.84581724647433, 152.0344129987061, 3.4313582093454897, 128.6319890259765, 0.5120000243186951, 0.6720000319182873, 0.6400000303983688, 0.0, 0.0, 0.0, 0.0, 0.0, 1.7103910934090085E9, 0.0, 2024-03-13 21:38:13.409
73.0, 241.75087303575128, 147.23238145560026, -12.313620604109019, 125.51665236288682, 0.5120000243186951, 0.6720000319182873, 0.6400000303983688, 0.0, 0.0, 0.0, 0.0, 0.0, 1.7103910934090085E9, 0.0, 2024-03-13 21:38:13.409
74.0, 250.5620773313567, 150.87504401244223, -16.988495548721403, 124.09923027968034, 0.5120000243186951, 0.6720000319182873, 0.6400000303983688, 0.0, 0.0, 0.0, 0.0, 0.0, 1.7103910934250476E9, 0.0, 2024-03-13 21:38:13.425
74.0, 251.6728276181966, 156.0772448508069, -0.07292804913595319, 130.0793303088285, 0.5120000243186951, 0.6720000319182873, 0.6400000303983688, 0.0, 0.0, 0.0, 0.0, 0.0, 1.7103910934250476E9, 0.0, 2024-03-13 21:38:13.425
75.0, 248.40789495687932, 154.0315195750445, -4.504709496628493, 123.53824528632686, 0.5120000243186951, 0.6720000319182873, 0.6400000303983688, 0.0, 0.0, 0.0, 0.0, 0.0, 1.7103910934255817E9, 0.0, 2024-03-13 21:38:13.425
75.0, 254.80686378106475, 155.8491109535098, -21.12856479967013, 125.8906423584558, 0.5120000243186951, 0.6720000319182873, 0.6400000303983688, 0.0, 0.0, 0.0, 0.0, 0.0, 1.7103910934255817E9, 0.0, 2024-03-13 21:38:13.425
76.0, 249.91881453897804, 156.39139644708484, 3.1920046121813357, 127.28562504192814, 0.5120000243186951, 0.6720000319182873, 0.6400000303983688, 0.0, 0.0, 0.0, 0.0, 0.0, 1.7103910934392943E9, 0.0, 2024-03-13 21:38:13.439
76.0, 250.37134243361652, 153.39199668262154, -0.7835090407170355, 125.42315486399457, 0.5120000243186951, 0.6720000319182873, 0.6400000303983688, 0.0, 0.0, 0.0, 0.0, 0.0, 1.7103910934392943E9, 0.0, 2024-03-13 21:38:13.439
77.0, 257.2602381519973, 158.13044992648065, -10.428711026441306, 120.47526722261682, 0.5120000243186951, 0.6720000319182873, 0.6400000303983688, 0.0, 0.0, 0.0, 0.0, 0.0, 1.7103910934549806E9, 0.0, 2024-03-13 21:38:13.454
77.0, 250.44614043273032, 154.218514572829, -7.107679865788668, 128.3739359290339, 0.5120000243186951, 0.6720000319182873, 0.6400000303983688, 0.0, 0.0, 0.0, 0.0, 0.0, 1.7103910934549806E9, 0.0, 2024-03-13 21:38:13.454
78.0, 238.08951097913086, 145.41105017717928, -7.186217764858156, 125.60267006186768, 0.5120000243186951, 0.6720000319182873, 0.6400000303983688, 0.0, 0.0, 0.0, 0.0, 0.0, 1.7103910934557276E9, 0.0, 2024-03-13 21:38:13.455
78.0, 240.99541324470192, 148.79565963707864, -19.228695622179657, 112.98050771141425, 0.5120000243186951, 0.6720000319182873, 0.6400000303983688, 0.0, 0.0, 0.0, 0.0, 0.0, 1.7103910934557276E9, 0.0, 2024-03-13 21:38:13.455
79.0, 248.11244286037982, 151.589364903979, -1.452951132785529, 126.46658695163205, 0.5120000243186951, 0.6720000319182873, 0.6400000303983688, 0.0, 0.0, 0.0, 0.0, 0.0, 1.7103910934693868E9, 0.0, 2024-03-13 21:38:13.469
79.0, 244.52961870282888, 151.49586740508676, -1.733443629462272, 123.29515178920701, 0.5120000243186951, 0.6720000319182873, 0.6400000303983688, 0.0, 0.0, 0.0, 0.0, 0.0, 1.7103910934693868E9, 0.0, 2024-03-13 21:38:13.469
80.0, 234.42440902255476, 140.42202363628894, -15.241962269414216, 116.30527877202258, 0.5120000243186951, 0.6720000319182873, 0.6400000303983688, 0.0, 0.0, 0.0, 0.0, 0.0, 1.7103910934850705E9, 0.0, 2024-03-13 21:38:13.485
80.0, 243.5235856147483, 143.3241860019043, -25.231235051061958, 119.98908022837713, 0.5120000243186951, 0.6720000319182873, 0.6400000303983688, 0.0, 0.0, 0.0, 0.0, 0.0, 1.7103910934850705E9, 0.0, 2024-03-13 21:38:13.485
81.0, 232.60681764408946, 140.19014983903617, -14.078853383194655, 117.60676395660266, 0.5120000243186951, 0.6720000319182873, 0.6400000303983688, 0.0, 0.0, 0.0, 0.0, 0.0, 1.7103910934854984E9, 0.0, 2024-03-13 21:38:13.485
81.0, 229.0726121859625, 137.9910886650905, -10.23797612870112, 115.22818758478388, 0.5120000243186951, 0.6720000319182873, 0.6400000303983688, 0.0, 0.0, 0.0, 0.0, 0.0, 1.7103910934854984E9, 0.0, 2024-03-13 21:38:13.485
82.0, 232.89478994067758, 136.4352902835235, -20.806933403480798, 110.41493634181097, 0.5120000243186951, 0.6720000319182873, 0.6400000303983688, 0.0, 0.0, 0.0, 0.0, 0.0, 1.7103910934990995E9, 0.0, 2024-03-13 21:38:13.499
82.0, 239.1105036670342, 142.46774891205132, -0.966764138545841, 116.14446307392791, 0.5120000243186951, 0.6720000319182873, 0.6400000303983688, 0.0, 0.0, 0.0, 0.0, 0.0, 1.7103910934990995E9, 0.0, 2024-03-13 21:38:13.499
83.0, 235.45288151036948, 143.56353959906846, -11.307587516028434, 121.05121181579307, 0.5120000243186951, 0.6720000319182873, 0.6400000303983688, 0.0, 0.0, 0.0, 0.0, 0.0, 1.710391093514858E9, 0.0, 2024-03-13 21:38:13.514
83.0, 234.38701002299786, 136.94017677754164, -21.304340097587556, 113.96784129971638, 0.5120000243186951, 0.6720000319182873, 0.6400000303983688, 0.0, 0.0, 0.0, 0.0, 0.0, 1.710391093514858E9, 0.0, 2024-03-13 21:38:13.514
84.0, 242.58113082591444, 138.12946496345103, -11.004655619617552, 118.3360444479622, 0.5120000243186951, 0.6720000319182873, 0.6400000303983688, 0.0, 0.0, 0.0, 0.0, 0.0, 1.7103910935154376E9, 0.0, 2024-03-13 21:38:13.515
84.0, 241.18240824248642, 139.57306634634733, -2.496383220423013, 121.04747191583738, 0.5120000243186951, 0.6720000319182873, 0.6400000303983688, 0.0, 0.0, 0.0, 0.0, 0.0, 1.7103910935154376E9, 0.0, 2024-03-13 21:38:13.515
85.0, 232.17672914918512, 134.25866850931197, -8.66347824735567, 119.04288553958759, 0.5120000243186951, 0.6720000319182873, 0.6400000303983688, 0.0, 0.0, 0.0, 0.0, 0.0, 1.7103910935291843E9, 0.0, 2024-03-13 21:38:13.529
85.0, 236.5972908968106, 135.66487089265138, -22.628264681901783, 107.85310487216339, 0.5120000243186951, 0.6720000319182873, 0.6400000303983688, 0.0, 0.0, 0.0, 0.0, 0.0, 1.7103910935291843E9, 0.0, 2024-03-13 21:38:13.529
86.0, 235.82313160598278, 142.90531720686704, -9.418938038405031, 115.998606975656, 0.5120000243186951, 0.6720000319182873, 0.6400000303983688, 0.0, 0.0, 0.0, 0.0, 0.0, 1.7103910935447974E9, 0.0, 2024-03-13 21:38:13.544
86.0, 227.9581219991669, 139.71892244461924, -13.042901095468551, 117.85733725363389, 0.5120000243186951, 0.6720000319182873, 0.6400000303983688, 0.0, 0.0, 0.0, 0.0, 0.0, 1.7103910935447974E9, 0.0, 2024-03-13 21:38:13.544
87.0, 243.01869912073016, 143.31670620199293, -19.14267792319879, 112.26244691992179, 0.5120000243186951, 0.6720000319182873, 0.6400000303983688, 0.0, 0.0, 0.0, 0.0, 0.0, 1.7103910935453925E9, 0.0, 2024-03-13 21:38:13.545
87.0, 251.09314312506467, 151.98205439932644, -6.531735272612423, 129.76517871255055, 0.5120000243186951, 0.6720000319182873, 0.6400000303983688, 0.0, 0.0, 0.0, 0.0, 0.0, 1.7103910935453925E9, 0.0, 2024-03-13 21:38:13.545
88.0, 248.79684455227107, 154.1063175741583, 4.815121192950755, 125.97292015748098, 0.5120000243186951, 0.6720000319182873, 0.6400000303983688, 0.0, 0.0, 0.0, 0.0, 0.0, 1.7103910935592344E9, 0.0, 2024-03-13 21:38:13.559
88.0, 241.78827203530818, 145.76634067296982, -8.932751044165343, 120.3705500238575, 0.5120000243186951, 0.6720000319182873, 0.6400000303983688, 0.0, 0.0, 0.0, 0.0, 0.0, 1.7103910935592344E9, 0.0, 2024-03-13 21:38:13.559
89.0, 253.95042669121176, 154.51022676937282, -0.1888649477623403, 127.16968814330176, 0.5120000243186951, 0.6720000319182873, 0.6400000303983688, 0.0, 0.0, 0.0, 0.0, 0.0, 1.7103910935748944E9, 0.0, 2024-03-13 21:38:13.574
89.0, 250.07215043716133, 150.75536721386015, 6.314821075182408, 134.29793745884672, 0.5120000243186951, 0.6720000319182873, 0.6400000303983688, 0.0, 0.0, 0.0, 0.0, 0.0, 1.7103910935748944E9, 0.0, 2024-03-13 21:38:13.574
90.0, 239.42839516326785, 144.71542878542095, 1.3070950345136225, 123.17921489058062, 0.5120000243186951, 0.6720000319182873, 0.6400000303983688, 0.0, 0.0, 0.0, 0.0, 0.0, 1.710391093575395E9, 0.0, 2024-03-13 21:38:13.575
90.0, 251.98697921447456, 154.9290955644101, -14.508941878098994, 133.6733741662465, 0.5120000243186951, 0.6720000319182873, 0.6400000303983688, 0.0, 0.0, 0.0, 0.0, 0.0, 1.710391093575395E9, 0.0, 2024-03-13 21:38:13.575
91.0, 252.25999191123992, 154.001600375399, -7.560207760427147, 132.3382298820652, 0.5120000243186951, 0.6720000319182873, 0.6400000303983688, 0.0, 0.0, 0.0, 0.0, 0.0, 1.7103910935893075E9, 0.0, 2024-03-13 21:38:13.589
91.0, 248.34805655758828, 156.24928024876863, -11.004655619617552, 130.2326662070118, 0.5120000243186951, 0.6720000319182873, 0.6400000303983688, 0.0, 0.0, 0.0, 0.0, 0.0, 1.7103910935893075E9, 0.0, 2024-03-13 21:38:13.589
92.0, 253.20244670007378, 152.3298650952056, -9.303001139778644, 126.68724104901776, 0.5120000243186951, 0.6720000319182873, 0.6400000303983688, 0.0, 0.0, 0.0, 0.0, 0.0, 1.7103910936046803E9, 0.0, 2024-03-13 21:38:13.604
92.0, 254.80312388110906, 158.1828085258603, -3.8016083049587905, 135.16933414852247, 0.5120000243186951, 0.6720000319182873, 0.6400000303983688, 0.0, 0.0, 0.0, 0.0, 0.0, 1.7103910936046803E9, 0.0, 2024-03-13 21:38:13.604
93.0, 253.65123469475657, 155.8117119539529, 2.5898807193152606, 130.00079240975901, 0.5120000243186951, 0.6720000319182873, 0.6400000303983688, 0.0, 0.0, 0.0, 0.0, 0.0, 1.7103910936054103E9, 0.0, 2024-03-13 21:38:13.605
93.0, 247.7870715642348, 145.8149593723938, -22.39265098469332, 119.26727953692898, 0.5120000243186951, 0.6720000319182873, 0.6400000303983688, 0.0, 0.0, 0.0, 0.0, 0.0, 1.7103910936054103E9, 0.0, 2024-03-13 21:38:13.605
94.0, 245.81240438763052, 143.87769119534642, -13.88811848545447, 124.80981127126142, 0.5120000243186951, 0.6720000319182873, 0.6400000303983688, 0.0, 0.0, 0.0, 0.0, 0.0, 1.7103910936193705E9, 0.0, 2024-03-13 21:38:13.619
94.0, 241.0739511437714, 144.83884548395872, -2.7095575178973377, 119.5178528339602, 0.5120000243186951, 0.6720000319182873, 0.6400000303983688, 0.0, 0.0, 0.0, 0.0, 0.0, 1.7103910936193705E9, 0.0, 2024-03-13 21:38:13.619
95.0, 234.3383913235739, 139.60672544594854, -7.171258165035397, 112.46814141748473, 0.5120000243186951, 0.6720000319182873, 0.6400000303983688, 0.0, 0.0, 0.0, 0.0, 0.0, 1.7103910936350336E9, 0.0, 2024-03-13 21:38:13.635
95.0, 235.0040935156867, 140.92691013030708, -16.203116558026522, 114.6260636919178, 0.5120000243186951, 0.6720000319182873, 0.6400000303983688, 0.0, 0.0, 0.0, 0.0, 0.0, 1.7103910936350336E9, 0.0, 2024-03-13 21:38:13.635
96.0, 232.5170600451529, 138.40995746012777, -4.601946895476431, 118.61653694463894, 0.5120000243186951, 0.6720000319182873, 0.6400000303983688, 0.0, 0.0, 0.0, 0.0, 0.0, 1.710391093635429E9, 0.0, 2024-03-13 21:38:13.635
96.0, 230.49751406908035, 140.97552882973105, -13.90681798523292, 119.79460543068126, 0.5120000243186951, 0.6720000319182873, 0.6400000303983688, 0.0, 0.0, 0.0, 0.0, 0.0, 1.710391093635429E9, 0.0, 2024-03-13 21:38:13.635
97.0, 240.23995345365256, 141.68236992135644, -15.791727562900633, 118.24628684902564, 0.5120000243186951, 0.6720000319182873, 0.6400000303983688, 0.0, 0.0, 0.0, 0.0, 0.0, 1.7103910936490276E9, 0.0, 2024-03-13 21:38:13.649
97.0, 245.28133859392256, 147.35953805409372, 0.17016544798389077, 127.73067313665524, 0.5120000243186951, 0.6720000319182873, 0.6400000303983688, 0.0, 0.0, 0.0, 0.0, 0.0, 1.7103910936490276E9, 0.0, 2024-03-13 21:38:13.649
98.0, 236.1111039025709, 141.1737435273826, 1.9952366263605654, 126.66480164928362, 0.5120000243186951, 0.6720000319182873, 0.6400000303983688, 0.0, 0.0, 0.0, 0.0, 0.0, 1.7103910936646948E9, 0.0, 2024-03-13 21:38:13.664
98.0, 241.01785264443606, 142.17229681555182, -30.616690987255424, 111.37983053037897, 0.5120000243186951, 0.6720000319182873, 0.6400000303983688, 0.0, 0.0, 0.0, 0.0, 0.0, 1.7103910936646948E9, 0.0, 2024-03-13 21:38:13.664
99.0, 253.6400149948895, 150.8451248127967, -4.437391297426075, 124.15906867897138, 0.5120000243186951, 0.6720000319182873, 0.6400000303983688, 0.0, 0.0, 0.0, 0.0, 0.0, 1.7103910936653948E9, 0.0, 2024-03-13 21:38:13.665
99.0, 245.8198841875419, 149.53615982830524, 1.6549057303927839, 135.47600594488904, 0.5120000243186951, 0.6720000319182873, 0.6400000303983688, 0.0, 0.0, 0.0, 0.0, 0.0, 1.7103910936653948E9, 0.0, 2024-03-13 21:38:13.665
100.0, 240.8532970463857, 143.9150901949033, -1.8381608282215893, 118.38466314738616, 0.5120000243186951, 0.6720000319182873, 0.6400000303983688, 0.0, 0.0, 0.0, 0.0, 0.0, 1.7103910936796799E9, 0.0, 2024-03-13 21:38:13.679
100.0, 246.66510157752782, 146.331065566279, -8.053874554578215, 125.62136956164613, 0.5120000243186951, 0.6720000319182873, 0.6400000303983688, 0.0, 0.0, 0.0, 0.0, 0.0, 1.7103910936796799E9, 0.0, 2024-03-13 21:38:13.679
0.0, 242.62600962538272, 139.31875314936042, 0.1570757981389761, 124.23199672810733, 0.5120000243186951, 0.6720000319182873, 0.6400000303983688, 0.0, 0.0, 0.0, 0.0, 0.0, 1.710391093680444E9, 0.0, 2024-03-13 21:38:13.680
1.0, 231.72046135459095, 131.5397612415254, -6.04741822835058, 120.96332416683435, 0.5120000243186951, 0.6720000319182873, 0.6400000303983688, 0.0, 0.0, 0.0, 0.0, 0.0, 1.7103910936941316E9, 0.0, 2024-03-13 21:38:13.694
1.0, 234.79839901812375, 134.26614830922335, -25.3079030001536, 122.56026144791394, 0.5120000243186951, 0.6720000319182873, 0.6400000303983688, 0.0, 0.0, 0.0, 0.0, 0.0, 1.7103910936941316E9, 0.0, 2024-03-13 21:38:13.694
2.0, 242.0463251322508, 140.19762963894755, -18.5274643804878, 111.96886477340013, 0.5120000243186951, 0.6720000319182873, 0.6400000303983688, 0.0, 0.0, 0.0, 0.0, 0.0, 1.7103910937096803E9, 0.0, 2024-03-13 21:38:13.709
2.0, 227.8870639000088, 134.7261560037732, -15.958153110928833, 102.20024608913809, 0.5120000243186951, 0.6720000319182873, 0.6400000303983688, 0.0, 0.0, 0.0, 0.0, 0.0, 1.7103910937096803E9, 0.0, 2024-03-13 21:38:13.709
3.0, 236.27939940057695, 140.71373583283275, -35.84320117533207, 108.43839921522886, 0.5120000243186951, 0.6720000319182873, 0.6400000303983688, 0.0, 0.0, 0.0, 0.0, 0.0, 1.7103910937103944E9, 0.0, 2024-03-13 21:38:13.710
3.0, 245.6366290897131, 150.10088472161442, -20.356275458820164, 114.81118873972446, 0.5120000243186951, 0.6720000319182873, 0.6400000303983688, 0.0, 0.0, 0.0, 0.0, 0.0, 1.7103910937103944E9, 0.0, 2024-03-13 21:38:13.710
4.0, 244.98214659746736, 148.20475544407964, -10.827010371722281, 115.18891863524914, 0.5120000243186951, 0.6720000319182873, 0.6400000303983688, 0.0, 0.0, 0.0, 0.0, 0.0, 1.7103910937239883E9, 0.0, 2024-03-13 21:38:13.723
4.0, 234.5553055210039, 140.35470543708652, -10.759692172519863, 111.29194288142025, 0.5120000243186951, 0.6720000319182873, 0.6400000303983688, 0.0, 0.0, 0.0, 0.0, 0.0, 1.7103910937239883E9, 0.0, 2024-03-13 21:38:13.723
5.0, 245.64410888962448, 140.97178892977536, -19.3801615703851, 110.15875319484621, 0.5120000243186951, 0.6720000319182873, 0.6400000303983688, 0.0, 0.0, 0.0, 0.0, 0.0, 1.710391093739686E9, 0.0, 2024-03-13 21:38:13.739
5.0, 242.28941862937063, 146.1066715689376, -14.398614829406142, 113.94727184996009, 0.5120000243186951, 0.6720000319182873, 0.6400000303983688, 0.0, 0.0, 0.0, 0.0, 0.0, 1.710391093739686E9, 0.0, 2024-03-13 21:38:13.739
6.0, 239.0394455678761, 144.9622621824965, -27.78371677082032, 111.01145038474351, 0.5120000243186951, 0.6720000319182873, 0.6400000303983688, 0.0, 0.0, 0.0, 0.0, 0.0, 1.7103910937403865E9, 0.0, 2024-03-13 21:38:13.740
6.0, 246.30981108173728, 152.42710249405354, -31.265563629567623, 123.27084243949503, 0.5120000243186951, 0.6720000319182873, 0.6400000303983688, 0.0, 0.0, 0.0, 0.0, 0.0, 1.7103910937403865E9, 0.0, 2024-03-13 21:38:13.740
7.0, 249.57848364301026, 152.96938798762858, -20.8611619528383, 114.38110024482012, 0.5120000243186951, 0.6720000319182873, 0.6400000303983688, 0.0, 0.0, 0.0, 0.0, 0.0, 1.7103910937543E9, 0.0, 2024-03-13 21:38:13.754
7.0, 236.7805459946394, 143.51866079960018, -11.866702559404075, 118.04246230144054, 0.5120000243186951, 0.6720000319182873, 0.6400000303983688, 0.0, 0.0, 0.0, 0.0, 0.0, 1.7103910937543E9, 0.0, 2024-03-13 21:38:13.754
8.0, 236.91144249308854, 129.4641167661175, -28.94308575708419, 114.10434764809906, 0.5120000243186951, 0.6720000319182873, 0.6400000303983688, 0.0, 0.0, 0.0, 0.0, 0.0, 1.7103910937696776E9, 0.0, 2024-03-13 21:38:13.769
8.0, 234.93303541652858, 134.77477470319718, -14.985779122449458, 119.91241227928549, 0.5120000243186951, 0.6720000319182873, 0.6400000303983688, 0.0, 0.0, 0.0, 0.0, 0.0, 1.7103910937696776E9, 0.0, 2024-03-13 21:38:13.769
9.0, 233.5193532332778, 133.44337031897157, -14.424794129095972, 126.6180528998375, 0.5120000243186951, 0.6720000319182873, 0.6400000303983688, 0.0, 0.0, 0.0, 0.0, 0.0, 1.7103910937703843E9, 0.0, 2024-03-13 21:38:13.770
9.0, 224.49123474024236, 134.1763907102868, -20.423593658022583, 99.3803615225479, 0.5120000243186951, 0.6720000319182873, 0.6400000303983688, 0.0, 0.0, 0.0, 0.0, 0.0, 1.7103910937703843E9, 0.0, 2024-03-13 21:38:13.770
10.0, 235.34816431161016, 132.8375065261498, -20.47969215735793, 106.7180452356115, 0.5120000243186951, 0.6720000319182873, 0.6240000296384096, 0.0, 0.0, 0.0, 0.0, 0.0, 1.7103910937840288E9, 0.0, 2024-03-13 21:38:13.784
10.0, 239.87718315795064, 140.31356653757393, -5.920261629857123, 115.92193902656436, 0.5120000243186951, 0.6720000319182873, 0.6240000296384096, 0.0, 0.0, 0.0, 0.0, 0.0, 1.7103910937840288E9, 0.0, 2024-03-13 21:38:13.784
11.0, 240.36711005214602, 141.85440531931818, -20.48343205731362, 106.4599921386689, 0.5120000243186951, 0.6720000319182873, 0.6240000296384096, 0.0, 0.0, 0.0, 0.0, 0.0, 1.7103910937997243E9, 0.0, 2024-03-13 21:38:13.799
11.0, 245.20654059480876, 147.94670234713703, -25.75669099483639, 110.98901098500937, 0.5120000243186951, 0.6720000319182873, 0.6240000296384096, 0.0, 0.0, 0.0, 0.0, 0.0, 1.7103910937997243E9, 0.0, 2024-03-13 21:38:13.799
12.0, 249.64580184221268, 147.61011135112494, -6.45132742356509, 100.6407078076154, 0.5120000243186951, 0.6720000319182873, 0.6240000296384096, 0.0, 0.0, 0.0, 0.0, 0.0, 1.7103910938003864E9, 0.0, 2024-03-13 21:38:13.800
12.0, 238.5532585736364, 143.27556730248034, -12.756798748858273, 120.17794517613947, 0.5120000243186951, 0.6720000319182873, 0.6240000296384096, 0.0, 0.0, 0.0, 0.0, 0.0, 1.7103910938003864E9, 0.0, 2024-03-13 21:38:13.800
13.0, 240.1165367551148, 140.5865792343393, -26.11572139058262, 109.95305869728327, 0.5120000243186951, 0.6720000319182873, 0.6240000296384096, 0.0, 0.0, 0.0, 0.0, 0.0, 1.7103910938139954E9, 0.0, 2024-03-13 21:38:13.813
13.0, 242.76812582369894, 143.78793359640986, -18.763078077696264, 112.97489786148071, 0.5120000243186951, 0.6720000319182873, 0.6240000296384096, 0.0, 0.0, 0.0, 0.0, 0.0, 1.7103910938139954E9, 0.0, 2024-03-13 21:38:13.813
14.0, 239.2974986648187, 145.28389357868582, -11.313197365961969, 123.21474394015968, 0.5120000243186951, 0.6720000319182873, 0.6240000296384096, 0.0, 0.0, 0.0, 0.0, 0.0, 1.7103910938298745E9, 0.0, 2024-03-13 21:38:13.829
14.0, 231.89623665250838, 142.471488812007, -15.101716021075845, 125.79153500963002, 0.5120000243186951, 0.6720000319182873, 0.6240000296384096, 0.0, 0.0, 0.0, 0.0, 0.0, 1.7103910938298745E9, 0.0, 2024-03-13 21:38:13.829
15.0, 243.46000731550157, 143.2942668022588, -22.53663713298738, 123.95898403134197, 0.5120000243186951, 0.6720000319182873, 0.6240000296384096, 0.0, 0.0, 0.0, 0.0, 0.0, 1.7103910938303745E9, 0.0, 2024-03-13 21:38:13.830
15.0, 243.62830281350762, 140.5491802347824, -5.187241238541901, 116.24731032270938, 0.5120000243186951, 0.6720000319182873, 0.6240000296384096, 0.0, 0.0, 0.0, 0.0, 0.0, 1.7103910938303745E9, 0.0, 2024-03-13 21:38:13.830
16.0, 231.5895648561418, 135.1001459993422, -12.184594055637717, 117.05138881318271, 0.5120000243186951, 0.6720000319182873, 0.6240000296384096, 0.0, 0.0, 0.0, 0.0, 0.0, 1.7103910938441389E9, 0.0, 2024-03-13 21:38:13.844
16.0, 236.93762179277837, 137.49742187093943, -20.677906855009496, 118.5398689955473, 0.5120000243186951, 0.6720000319182873, 0.6240000296384096, 0.0, 0.0, 0.0, 0.0, 0.0, 1.7103910938441389E9, 0.0, 2024-03-13 21:38:13.844
17.0, 238.05959177948534, 142.96889550611377, -23.34071562346071, 121.13535956479609, 0.5120000243186951, 0.6720000319182873, 0.6240000296384096, 0.0, 0.0, 0.0, 0.0, 0.0, 1.71039109385973E9, 0.0, 2024-03-13 21:38:13.859
17.0, 232.58437824435532, 137.587179469876, -18.49754518084228, 108.569295713678, 0.5120000243186951, 0.6720000319182873, 0.6240000296384096, 0.0, 0.0, 0.0, 0.0, 0.0, 1.71039109385973E9, 0.0, 2024-03-13 21:38:13.859
18.0, 234.39448982290924, 128.97418987192214, -15.819776812568307, 112.17081937100738, 0.5120000243186951, 0.6720000319182873, 0.6240000296384096, 0.0, 0.0, 0.0, 0.0, 0.0, 1.7103910938604424E9, 0.0, 2024-03-13 21:38:13.860
18.0, 231.4100496582687, 122.95295094326138, -21.025717550888658, 108.96572510898113, 0.5120000243186951, 0.6720000319182873, 0.6240000296384096, 0.0, 0.0, 0.0, 0.0, 0.0, 1.7103910938604424E9, 0.0, 2024-03-13 21:38:13.860
19.0, 228.8444782886654, 129.81940726190805, -18.198353184387088, 111.61357427760959, 0.5120000243186951, 0.6720000319182873, 0.6240000296384096, 0.0, 0.0, 0.0, 0.0, 0.0, 1.7103910938740237E9, 0.0, 2024-03-13 21:38:13.874
19.0, 225.65060372650623, 125.41006521414965, -25.685632895678282, 101.01469780318439, 0.5120000243186951, 0.6720000319182873, 0.6240000296384096, 0.0, 0.0, 0.0, 0.0, 0.0, 1.7103910938740237E9, 0.0, 2024-03-13 21:38:13.874
20.0, 232.2552670482546, 123.9851633310318, -32.51469021476805, 104.11133496649563, 0.5120000243186951, 0.6720000319182873, 0.6400000303983688, 0.0, 0.0, 0.0, 0.0, 0.0, 1.710391093890066E9, 0.0, 2024-03-13 21:38:13.890
20.0, 229.12871068529785, 128.3945053787902, -10.86814927123487, 105.6409540483728, 0.5120000243186951, 0.6720000319182873, 0.6400000303983688, 0.0, 0.0, 0.0, 0.0, 0.0, 1.710391093890066E9, 0.0, 2024-03-13 21:38:13.890
21.0, 222.54274686332792, 124.29557502735406, -27.615421272814274, 102.68643308337778, 0.5120000243186951, 0.6720000319182873, 0.6400000303983688, 0.0, 0.0, 0.0, 0.0, 0.0, 1.7103910938905463E9, 0.0, 2024-03-13 21:38:13.890
21.0, 222.67364336177707, 124.78550192154944, -36.56126196682453, 105.17346655391157, 0.5120000243186951, 0.6720000319182873, 0.6400000303983688, 0.0, 0.0, 0.0, 0.0, 0.0, 1.7103910938905463E9, 0.0, 2024-03-13 21:38:13.890
22.0, 227.50933400448412, 127.51562888920307, -26.863701381720603, 107.76521722320467, 0.5120000243186951, 0.6720000319182873, 0.6400000303983688, 0.0, 0.0, 0.0, 0.0, 0.0, 1.7103910939040203E9, 0.0, 2024-03-13 21:38:13.904
22.0, 222.61754486244172, 120.52201597206295, -25.33782219979912, 86.65348197333515, 0.5120000243186951, 0.6720000319182873, 0.6400000303983688, 0.0, 0.0, 0.0, 0.0, 0.0, 1.7103910939040203E9, 0.0, 2024-03-13 21:38:13.904
23.0, 216.79078073147684, 113.5732818543911, -38.60698724258691, 92.26333190687001, 0.5120000243186951, 0.6720000319182873, 0.6400000303983688, 0.0, 0.0, 0.0, 0.0, 0.0, 1.710391093920586E9, 0.0, 2024-03-13 21:38:13.920
23.0, 229.50270068086684, 125.34274701494724, -35.00172368530184, 96.46323955710977, 0.5120000243186951, 0.6720000319182873, 0.6400000303983688, 0.0, 0.0, 0.0, 0.0, 0.0, 1.710391093920586E9, 0.0, 2024-03-13 21:38:13.920
24.0, 228.89683688804507, 130.37665235530585, -17.76452478952706, 103.14270087797195, 0.5120000243186951, 0.6720000319182873, 0.6400000303983688, 0.0, 0.0, 0.0, 0.0, 0.0, 1.710391093920734E9, 0.0, 2024-03-13 21:38:13.920
24.0, 230.067425574176, 136.7344822799787, -20.345055758953094, 111.35552118066698, 0.5120000243186951, 0.6720000319182873, 0.6400000303983688, 0.0, 0.0, 0.0, 0.0, 0.0, 1.710391093920734E9, 0.0, 2024-03-13 21:38:13.920
25.0, 238.43732167501003, 137.2094495743513, -14.361215829849243, 116.90179281495512, 0.5120000243186951, 0.6720000319182873, 0.6400000303983688, 0.0, 0.0, 0.0, 0.0, 0.0, 1.7103910939340258E9, 0.0, 2024-03-13 21:38:13.934
25.0, 233.86342402920127, 136.70082318037748, -15.430827217176557, 115.7237243289128, 0.5120000243186951, 0.6720000319182873, 0.6400000303983688, 0.0, 0.0, 0.0, 0.0, 0.0, 1.7103910939340258E9, 0.0, 2024-03-13 21:38:13.934
26.0, 228.33959179464728, 132.60937262885273, -11.604909562505782, 111.90902637410909, 0.5120000243186951, 0.6720000319182873, 0.6400000303983688, 0.0, 0.0, 0.0, 0.0, 0.0, 1.7103910939497335E9, 0.0, 2024-03-13 21:38:13.949
26.0, 233.0369061389938, 136.37919178418815, -25.479938398115337, 120.92592516727746, 0.5120000243186951, 0.6720000319182873, 0.6400000303983688, 0.0, 0.0, 0.0, 0.0, 0.0, 1.7103910939497335E9, 0.0, 2024-03-13 21:38:13.949
27.0, 233.24634053651243, 140.45942263584584, -5.149842238985002, 129.2509424686432, 0.5120000243186951, 0.6720000319182873, 0.6400000303983688, 0.0, 0.0, 0.0, 0.0, 0.0, 1.710391093950477E9, 0.0, 2024-03-13 21:38:13.950
27.0, 236.3354978999123, 146.61155806295574, 0.3104116963222623, 135.81072699092329, 0.5120000243186951, 0.6720000319182873, 0.6400000303983688, 0.0, 0.0, 0.0, 0.0, 0.0, 1.710391093950477E9, 0.0, 2024-03-13 21:38:13.950
28.0, 237.4836471863091, 138.00604826491326, -19.25300497189164, 123.66727183479816, 0.5120000243186951, 0.6720000319182873, 0.6400000303983688, 0.0, 0.0, 0.0, 0.0, 0.0, 1.7103910939641724E9, 0.0, 2024-03-13 21:38:13.964
28.0, 238.5569984735921, 139.44590974785388, -12.233212755061686, 124.46013062540442, 0.5120000243186951, 0.6720000319182873, 0.6400000303983688, 0.0, 0.0, 0.0, 0.0, 0.0, 1.7103910939641724E9, 0.0, 2024-03-13 21:38:13.964
29.0, 231.54468605667353, 136.7681413795799, -12.48378605209291, 121.93943805526942, 0.5120000243186951, 0.6720000319182873, 0.6400000303983688, 0.0, 0.0, 0.0, 0.0, 0.0, 1.7103910939797282E9, 0.0, 2024-03-13 21:38:13.979
29.0, 226.6641166144982, 127.19025759305805, -22.60021543223411, 106.048603143543, 0.5120000243186951, 0.6720000319182873, 0.6400000303983688, 0.0, 0.0, 0.0, 0.0, 0.0, 1.7103910939797282E9, 0.0, 2024-03-13 21:38:13.979
30.0, 239.24887996539474, 133.94451691303402, -23.168680225498974, 106.51609063800424, 0.5120000243186951, 0.6720000319182873, 0.6400000303983688, 0.0, 0.0, 0.0, 0.0, 0.0, 1.7103910939804223E9, 0.0, 2024-03-13 21:38:13.980
30.0, 235.77077300660312, 133.73882241547108, -10.684894173406065, 114.575575042516, 0.5120000243186951, 0.6720000319182873, 0.6400000303983688, 0.0, 0.0, 0.0, 0.0, 0.0, 1.7103910939804223E9, 0.0, 2024-03-13 21:38:13.980
31.0, 237.88381648156792, 137.68815676867962, -9.106656392104924, 124.92013831995428, 0.5120000243186951, 0.6720000319182873, 0.6400000303983688, 0.0, 0.0, 0.0, 0.0, 0.0, 1.7103910939940507E9, 0.0, 2024-03-13 21:38:13.994
31.0, 240.87199654616416, 142.64352420996875, -20.9359599519521, 115.36095403321087, 0.5120000243186951, 0.6720000319182873, 0.6400000303983688, 0.0, 0.0, 0.0, 0.0, 0.0, 1.7103910939940507E9, 0.0, 2024-03-13 21:38:13.994
32.0, 241.5638780379668, 141.7309886207804, -4.678614844568074, 118.22945729922503, 0.5120000243186951, 0.6720000319182873, 0.6400000303983688, 0.0, 0.0, 0.0, 0.0, 0.0, 1.7103910940097473E9, 0.0, 2024-03-13 21:38:14.009
32.0, 242.5586914261803, 146.83595206029713, -0.10097729880362749, 123.86922643240541, 0.5120000243186951, 0.6720000319182873, 0.6400000303983688, 0.0, 0.0, 0.0, 0.0, 0.0, 1.7103910940097473E9, 0.0, 2024-03-13 21:38:14.009
33.0, 238.8225313704461, 143.2531279027462, -15.101716021075845, 110.7197381881997, 0.5120000243186951, 0.6720000319182873, 0.6400000303983688, 0.0, 0.0, 0.0, 0.0, 0.0, 1.7103910940105364E9, 0.0, 2024-03-13 21:38:14.010
33.0, 256.47485916130245, 151.28269310761243, 1.1967679858207703, 129.32948036771268, 0.5120000243186951, 0.6720000319182873, 0.6400000303983688, 0.0, 0.0, 0.0, 0.0, 0.0, 1.7103910940105364E9, 0.0, 2024-03-13 21:38:14.010
34.0, 238.7813924709335, 138.89988435432315, -2.894682565703988, 119.89371277950704, 0.5120000243186951, 0.6720000319182873, 0.6400000303983688, 0.0, 0.0, 0.0, 0.0, 0.0, 1.7103910940242057E9, 0.0, 2024-03-13 21:38:14.024
34.0, 235.5164598096162, 131.38268544338644, -10.46797997597605, 106.0523430434987, 0.5120000243186951, 0.6720000319182873, 0.6400000303983688, 0.0, 0.0, 0.0, 0.0, 0.0, 1.7103910940242057E9, 0.0, 2024-03-13 21:38:14.024
35.0, 241.87802963424474, 134.0267947120592, -10.004232381470501, 120.26022297516465, 0.5120000243186951, 0.6720000319182873, 0.6400000303983688, 0.0, 0.0, 0.0, 0.0, 0.0, 1.7103910940402207E9, 0.0, 2024-03-13 21:38:14.040
35.0, 243.57220431417227, 145.9907346703112, 14.047064233571291, 132.94596362486482, 0.5120000243186951, 0.6720000319182873, 0.6400000303983688, 0.0, 0.0, 0.0, 0.0, 0.0, 1.7103910940402207E9, 0.0, 2024-03-13 21:38:14.040
36.0, 237.49112698622048, 142.30693321395665, -3.5192458583042026, 137.7292956681922, 0.5120000243186951, 0.6720000319182873, 0.6400000303983688, 0.0, 0.0, 0.0, 0.0, 0.0, 1.7103910940405283E9, 0.0, 2024-03-13 21:38:14.040
36.0, 243.13089611940086, 139.93209674209356, -9.899515182711184, 127.79238148592412, 0.5120000243186951, 0.6720000319182873, 0.6400000303983688, 0.0, 0.0, 0.0, 0.0, 0.0, 1.7103910940405283E9, 0.0, 2024-03-13 21:38:14.040
37.0, 247.98528626188636, 148.3618312422186, 4.151288950815797, 135.548933994025, 0.5120000243186951, 0.6720000319182873, 0.6400000303983688, 0.0, 0.0, 0.0, 0.0, 0.0, 1.710391094054346E9, 0.0, 2024-03-13 21:38:14.054
37.0, 240.2623928533867, 147.68116945028305, 7.670534809119999, 129.1312656700611, 0.5120000243186951, 0.6720000319182873, 0.6400000303983688, 0.0, 0.0, 0.0, 0.0, 0.0, 1.710391094054346E9, 0.0, 2024-03-13 21:38:14.054
38.0, 241.77331243548542, 140.12283163983375, -17.23719889577478, 120.79502866882831, 0.5120000243186951, 0.6720000319182873, 0.6400000303983688, 0.0, 0.0, 0.0, 0.0, 0.0, 1.710391094070085E9, 0.0, 2024-03-13 21:38:14.070
38.0, 247.12510927207768, 141.42805672436953, -9.955613682046533, 118.73808369319886, 0.5120000243186951, 0.6720000319182873, 0.6400000303983688, 0.0, 0.0, 0.0, 0.0, 0.0, 1.710391094070085E9, 0.0, 2024-03-13 21:38:14.070
39.0, 238.95716776885092, 145.00714098196477, -0.8152981903403997, 128.74605597462505, 0.5120000243186951, 0.6720000319182873, 0.6400000303983688, 0.0, 0.0, 0.0, 0.0, 0.0, 1.7103910940707018E9, 0.0, 2024-03-13 21:38:14.070
39.0, 230.71816816646606, 136.04260078817606, -11.24961906671524, 124.96875701937824, 0.5120000243186951, 0.6720000319182873, 0.6400000303983688, 0.0, 0.0, 0.0, 0.0, 0.0, 1.7103910940707018E9, 0.0, 2024-03-13 21:38:14.070
40.0, 240.38954945188016, 137.1757904747501, -13.68429393786937, 118.46881089638919, 0.5120000243186951, 0.6720000319182873, 0.6240000296384096, 0.0, 0.0, 0.0, 0.0, 0.0, 1.7103910940842402E9, 0.0, 2024-03-13 21:38:14.084
40.0, 236.5187529977411, 136.7681413795799, -7.057191216386855, 125.09965351782739, 0.5120000243186951, 0.6720000319182873, 0.6240000296384096, 0.0, 0.0, 0.0, 0.0, 0.0, 1.7103910940842402E9, 0.0, 2024-03-13 21:38:14.084
41.0, 235.01905311550945, 141.9142437186092, -9.446987288072705, 133.510688518174, 0.5120000243186951, 0.6720000319182873, 0.6240000296384096, 0.0, 0.0, 0.0, 0.0, 0.0, 1.7103910940998263E9, 0.0, 2024-03-13 21:38:14.099
41.0, 245.73760638851672, 145.59804517496377, -21.79613694176078, 125.27542881574482, 0.5120000243186951, 0.6720000319182873, 0.6240000296384096, 0.0, 0.0, 0.0, 0.0, 0.0, 1.7103910940998263E9, 0.0, 2024-03-13 21:38:14.099
42.0, 254.7133662821725, 155.6247169561684, -2.8685032660141587, 134.86453230213374, 0.5120000243186951, 0.6720000319182873, 0.6240000296384096, 0.0, 0.0, 0.0, 0.0, 0.0, 1.7103910941004636E9, 0.0, 2024-03-13 21:38:14.100
42.0, 244.51091920305043, 155.2619466604665, 0.2730126967653632, 132.48595593031496, 0.5120000243186951, 0.6720000319182873, 0.6240000296384096, 0.0, 0.0, 0.0, 0.0, 0.0, 1.7103910941004636E9, 0.0, 2024-03-13 21:38:14.100
43.0, 247.99650596175343, 147.86442454811186, -14.320076930336654, 133.2488955212757, 0.5120000243186951, 0.6720000319182873, 0.6240000296384096, 0.0, 0.0, 0.0, 0.0, 0.0, 1.7103910941139586E9, 0.0, 2024-03-13 21:38:14.113
43.0, 249.29425124637783, 153.71736797876656, -18.340469382703304, 130.73942265100777, 0.5120000243186951, 0.6720000319182873, 0.6240000296384096, 0.0, 0.0, 0.0, 0.0, 0.0, 1.7103910941139586E9, 0.0, 2024-03-13 21:38:14.113
44.0, 247.30836436990649, 155.71447455510497, 0.06731819920241833, 113.85751425102353, 0.5120000243186951, 0.6720000319182873, 0.6240000296384096, 0.0, 0.0, 0.0, 0.0, 0.0, 1.7103910941297536E9, 0.0, 2024-03-13 21:38:14.129
44.0, 243.8975756103173, 147.27726025506854, -9.484386287629604, 114.10060774814337, 0.5120000243186951, 0.6720000319182873, 0.6240000296384096, 0.0, 0.0, 0.0, 0.0, 0.0, 1.7103910941297536E9, 0.0, 2024-03-13 21:38:14.129
45.0, 245.8984220866114, 147.79710634890944, -13.587056539021432, 119.88249307963997, 0.5120000243186951, 0.6720000319182873, 0.6240000296384096, 0.0, 0.0, 0.0, 0.0, 0.0, 1.7103910941304257E9, 0.0, 2024-03-13 21:38:14.130
45.0, 241.92290843371302, 149.61843762733042, -1.4174220832064748, 125.92243150807917, 0.5120000243186951, 0.6720000319182873, 0.6240000296384096, 0.0, 0.0, 0.0, 0.0, 0.0, 1.7103910941304257E9, 0.0, 2024-03-13 21:38:14.130
46.0, 235.15742941386998, 136.30065388511866, -10.587656774558127, 123.13994594104588, 0.5120000243186951, 0.6720000319182873, 0.6240000296384096, 0.0, 0.0, 0.0, 0.0, 0.0, 1.7103910941441212E9, 0.0, 2024-03-13 21:38:14.144
46.0, 238.2952054766938, 137.48620217107236, -16.57149670366198, 119.24671008717269, 0.5120000243186951, 0.6720000319182873, 0.6240000296384096, 0.0, 0.0, 0.0, 0.0, 0.0, 1.7103910941441212E9, 0.0, 2024-03-13 21:38:14.144
47.0, 246.88575567491353, 141.94790281821042, -4.573897645808756, 117.49269700795412, 0.5120000243186951, 0.6720000319182873, 0.6240000296384096, 0.0, 0.0, 0.0, 0.0, 0.0, 1.7103910941599598E9, 0.0, 2024-03-13 21:38:14.159
47.0, 236.9638010924682, 141.82448611967266, -14.428534029051661, 118.87645999155939, 0.5120000243186951, 0.6720000319182873, 0.6240000296384096, 0.0, 0.0, 0.0, 0.0, 0.0, 1.7103910941599598E9, 0.0, 2024-03-13 21:38:14.159
48.0, 238.38496307563037, 139.49078854732215, -37.42891875654459, 108.03075012005866, 0.5120000243186951, 0.6720000319182873, 0.6240000296384096, 0.0, 0.0, 0.0, 0.0, 0.0, 1.7103910941605573E9, 0.0, 2024-03-13 21:38:14.160
48.0, 247.61503616627306, 140.63893783371896, -13.362662541680038, 115.8695804271847, 0.5120000243186951, 0.6720000319182873, 0.6240000296384096, 0.0, 0.0, 0.0, 0.0, 0.0, 1.7103910941605573E9, 0.0, 2024-03-13 21:38:14.160
49.0, 249.58222354296595, 147.30717945471406, -6.888895718380809, 120.08444767724723, 0.5120000243186951, 0.6720000319182873, 0.6240000296384096, 0.0, 0.0, 0.0, 0.0, 0.0, 1.710391094174361E9, 0.0, 2024-03-13 21:38:14.174
49.0, 246.8969753747806, 145.8448785720393, -23.105101926252246, 109.41451310366392, 0.5120000243186951, 0.6720000319182873, 0.6240000296384096, 0.0, 0.0, 0.0, 0.0, 0.0, 1.710391094174361E9, 0.0, 2024-03-13 21:38:14.174
50.0, 256.32900306303054, 149.09111173357815, -16.373282006010413, 110.8281952869147, 0.5120000243186951, 0.6720000319182873, 0.6400000303983688, 0.0, 0.0, 0.0, 0.0, 0.0, 1.7103910941901844E9, 0.0, 2024-03-13 21:38:14.190
50.0, 253.2323658997193, 152.82727178931236, -10.561477474868298, 114.70273164100945, 0.5120000243186951, 0.6720000319182873, 0.6400000303983688, 0.0, 0.0, 0.0, 0.0, 0.0, 1.7103910941901844E9, 0.0, 2024-03-13 21:38:14.190
51.0, 247.21860677096993, 142.5537666110322, -20.303916859440506, 104.23849156498909, 0.5120000243186951, 0.6720000319182873, 0.6400000303983688, 0.0, 0.0, 0.0, 0.0, 0.0, 1.7103910941905744E9, 0.0, 2024-03-13 21:38:14.190
51.0, 251.8934817155823, 143.79541339632124, -23.40803382266313, 116.30340882204473, 0.5120000243186951, 0.6720000319182873, 0.6400000303983688, 0.0, 0.0, 0.0, 0.0, 0.0, 1.7103910941905744E9, 0.0, 2024-03-13 21:38:14.190
52.0, 255.9699726672843, 156.12586355023086, -5.998799528926611, 128.48052307777107, 0.5120000243186951, 0.6720000319182873, 0.6400000303983688, 0.0, 0.0, 0.0, 0.0, 0.0, 1.710391094204182E9, 0.0, 2024-03-13 21:38:14.204
52.0, 244.61563640180975, 151.1854557087645, -11.70588686130941, 123.25588283967227, 0.5120000243186951, 0.6720000319182873, 0.6400000303983688, 0.0, 0.0, 0.0, 0.0, 0.0, 1.710391094204182E9, 0.0, 2024-03-13 21:38:14.204
53.0, 245.14670219551772, 146.23382816743106, -18.198353184387088, 105.94388594478369, 0.5120000243186951, 0.6720000319182873, 0.6400000303983688, 0.0, 0.0, 0.0, 0.0, 0.0, 1.7103910942202048E9, 0.0, 2024-03-13 21:38:14.220
53.0, 259.4293801262975, 158.9233087170869, -6.8627164186909795, 129.9877027599141, 0.5120000243186951, 0.6720000319182873, 0.6400000303983688, 0.0, 0.0, 0.0, 0.0, 0.0, 1.7103910942202048E9, 0.0, 2024-03-13 21:38:14.220
54.0, 255.55110387224704, 159.151442614384, 6.4475875236094, 127.47448998969048, 0.5120000243186951, 0.6720000319182873, 0.6400000303983688, 0.0, 0.0, 0.0, 0.0, 0.0, 1.7103910942205343E9, 0.0, 2024-03-13 21:38:14.220
54.0, 253.33708309847862, 153.13394358567894, -12.88395534735173, 125.02859541866928, 0.5120000243186951, 0.6720000319182873, 0.6400000303983688, 0.0, 0.0, 0.0, 0.0, 0.0, 1.7103910942205343E9, 0.0, 2024-03-13 21:38:14.220
55.0, 259.4480796260759, 155.09739106241614, -14.780084624886513, 120.41355887334794, 0.5120000243186951, 0.6720000319182873, 0.6400000303983688, 0.0, 0.0, 0.0, 0.0, 0.0, 1.710391094234056E9, 0.0, 2024-03-13 21:38:14.234
55.0, 257.4995917491615, 159.47307401057333, 0.18325509782880545, 126.77138879802078, 0.5120000243186951, 0.6720000319182873, 0.6400000303983688, 0.0, 0.0, 0.0, 0.0, 0.0, 1.710391094234056E9, 0.0, 2024-03-13 21:38:14.234
56.0, 243.45626741554588, 148.38801054190844, -13.153228144161403, 124.64338572323322, 0.5120000243186951, 0.6720000319182873, 0.6400000303983688, 0.0, 0.0, 0.0, 0.0, 0.0, 1.7103910942499812E9, 0.0, 2024-03-13 21:38:14.249
56.0, 241.27216584142298, 140.93812983017415, -29.4217929514125, 112.17455927096307, 0.5120000243186951, 0.6720000319182873, 0.6400000303983688, 0.0, 0.0, 0.0, 0.0, 0.0, 1.7103910942499812E9, 0.0, 2024-03-13 21:38:14.249
57.0, 239.46205426286906, 142.0675796167925, -11.533851463347673, 113.03847616072744, 0.5120000243186951, 0.6720000319182873, 0.6400000303983688, 0.0, 0.0, 0.0, 0.0, 0.0, 1.710391094250758E9, 0.0, 2024-03-13 21:38:14.250
57.0, 235.97646750416607, 134.20630990993232, -14.286417830735445, 118.25937649887055, 0.5120000243186951, 0.6720000319182873, 0.6400000303983688, 0.0, 0.0, 0.0, 0.0, 0.0, 1.710391094250758E9, 0.0, 2024-03-13 21:38:14.250
58.0, 233.34357793536037, 133.42841071914881, -32.58574831392616, 105.22582515329123, 0.5120000243186951, 0.6720000319182873, 0.6400000303983688, 0.0, 0.0, 0.0, 0.0, 0.0, 1.710391094264046E9, 0.0, 2024-03-13 21:38:14.264
58.0, 240.1838549543172, 140.92691013030708, -22.10280873812735, 113.12449385970831, 0.5120000243186951, 0.6720000319182873, 0.6400000303983688, 0.0, 0.0, 0.0, 0.0, 0.0, 1.710391094264046E9, 0.0, 2024-03-13 21:38:14.264
59.0, 236.3728968994692, 141.33455922547728, -21.182793349027634, 118.17335879988968, 0.5120000243186951, 0.6720000319182873, 0.6400000303983688, 0.0, 0.0, 0.0, 0.0, 0.0, 1.7103910942797508E9, 0.0, 2024-03-13 21:38:14.279
59.0, 232.89478994067758, 137.93499016575515, -24.429026510566473, 119.44866468477994, 0.5120000243186951, 0.6720000319182873, 0.6400000303983688, 0.0, 0.0, 0.0, 0.0, 0.0, 1.7103910942797508E9, 0.0, 2024-03-13 21:38:14.279
60.0, 244.3014848055318, 140.45568273589015, -34.98302418552339, 107.42488632723689, 0.5120000243186951, 0.6720000319182873, 0.6240000296384096, 0.0, 0.0, 0.0, 0.0, 0.0, 1.710391094280413E9, 0.0, 2024-03-13 21:38:14.280
60.0, 241.7471331357956, 142.8492187075317, -18.265671383589506, 111.14234688319266, 0.5120000243186951, 0.6720000319182873, 0.6240000296384096, 0.0, 0.0, 0.0, 0.0, 0.0, 1.710391094280413E9, 0.0, 2024-03-13 21:38:14.280
61.0, 233.10048443824053, 131.71553653944284, -20.225378960371017, 109.87452079821378, 0.5120000243186951, 0.6720000319182873, 0.6240000296384096, 0.0, 0.0, 0.0, 0.0, 0.0, 1.7103910942941432E9, 0.0, 2024-03-13 21:38:14.294
61.0, 238.35878377594054, 138.75028835609555, -36.3518275693059, 107.21171202976257, 0.5120000243186951, 0.6720000319182873, 0.6240000296384096, 0.0, 0.0, 0.0, 0.0, 0.0, 1.7103910942941432E9, 0.0, 2024-03-13 21:38:14.294
62.0, 244.62311620172113, 138.86248535476625, -18.51998458057642, 113.58076165430248, 0.5120000243186951, 0.6720000319182873, 0.6240000296384096, 0.0, 0.0, 0.0, 0.0, 0.0, 1.7103910943098755E9, 0.0, 2024-03-13 21:38:14.309
62.0, 240.6663020486012, 137.90881086606532, -18.430226981639862, 115.18517873529345, 0.5120000243186951, 0.6720000319182873, 0.6240000296384096, 0.0, 0.0, 0.0, 0.0, 0.0, 1.7103910943098755E9, 0.0, 2024-03-13 21:38:14.309
63.0, 240.7037010481581, 138.93728335388005, -24.309349711984396, 108.43839921522886, 0.5120000243186951, 0.6720000319182873, 0.6240000296384096, 0.0, 0.0, 0.0, 0.0, 0.0, 1.7103910943107195E9, 0.0, 2024-03-13 21:38:14.310
63.0, 246.82965717557818, 139.74510174430907, -17.143701396882534, 109.84086169861257, 0.5120000243186951, 0.6720000319182873, 0.6240000296384096, 0.0, 0.0, 0.0, 0.0, 0.0, 1.7103910943107195E9, 0.0, 2024-03-13 21:38:14.310
64.0, 238.11943017877638, 133.7350825155154, -13.385101941414177, 112.11472087167203, 0.5120000243186951, 0.6720000319182873, 0.6240000296384096, 0.0, 0.0, 0.0, 0.0, 0.0, 1.710391094324296E9, 0.0, 2024-03-13 21:38:14.324
64.0, 221.79850677214563, 119.25792978703976, -33.558122302405536, 103.03798367921263, 0.5120000243186951, 0.6720000319182873, 0.6240000296384096, 0.0, 0.0, 0.0, 0.0, 0.0, 1.710391094324296E9, 0.0, 2024-03-13 21:38:14.324
65.0, 234.22993422485888, 124.1347593292594, -37.615913754329085, 103.5653095729649, 0.5120000243186951, 0.6720000319182873, 0.6240000296384096, 0.0, 0.0, 0.0, 0.0, 0.0, 1.7103910943397155E9, 0.0, 2024-03-13 21:38:14.339
65.0, 228.32089229486883, 128.71987667493522, -23.045263526961207, 101.65048079565167, 0.5120000243186951, 0.6720000319182873, 0.6240000296384096, 0.0, 0.0, 0.0, 0.0, 0.0, 1.7103910943397155E9, 0.0, 2024-03-13 21:38:14.339
66.0, 228.3358518946916, 130.45893015433103, -29.219838353805244, 99.87402831669897, 0.5120000243186951, 0.6720000319182873, 0.6240000296384096, 0.0, 0.0, 0.0, 0.0, 0.0, 1.7103910943403957E9, 0.0, 2024-03-13 21:38:14.340
66.0, 232.43852214608341, 128.88817217294127, -36.067595172673464, 98.71091943047941, 0.5120000243186951, 0.6720000319182873, 0.6240000296384096, 0.0, 0.0, 0.0, 0.0, 0.0, 1.7103910943403957E9, 0.0, 2024-03-13 21:38:14.340
67.0, 239.38725626375526, 133.52564811799675, -28.901946857571602, 112.35407446883619, 0.5120000243186951, 0.6720000319182873, 0.6240000296384096, 0.0, 0.0, 0.0, 0.0, 0.0, 1.7103910943544364E9, 0.0, 2024-03-13 21:38:14.354
67.0, 233.01072683930397, 132.07830683514476, -25.446279298514128, 107.71285862382501, 0.5120000243186951, 0.6720000319182873, 0.6240000296384096, 0.0, 0.0, 0.0, 0.0, 0.0, 1.7103910943544364E9, 0.0, 2024-03-13 21:38:14.354
68.0, 232.42356254626065, 132.063347235322, -33.973251197487116, 98.88295482844114, 0.5120000243186951, 0.6720000319182873, 0.6240000296384096, 0.0, 0.0, 0.0, 0.0, 0.0, 1.7103910943700273E9, 0.0, 2024-03-13 21:38:14.370
68.0, 239.2638395652175, 137.72555576823652, -18.13103498518467, 107.69041922409087, 0.5120000243186951, 0.6720000319182873, 0.6240000296384096, 0.0, 0.0, 0.0, 0.0, 0.0, 1.7103910943700273E9, 0.0, 2024-03-13 21:38:14.370
