%OpenBCI Raw EXG Data
%Number of channels = 4
%Sample Rate = 200 Hz
%Board = OpenBCI_GUI$BoardGanglionBLE
Sample Index, EXG Channel 0, EXG Channel 1, EXG Channel 2, EXG Channel 3, Accel Channel 0, Accel Channel 1, Accel Channel 2, Other, Other, Other, Other, Other, Timestamp, Other, Timestamp (Formatted)
0.0, -672.4414918329567, -318.36272362805903, -422.54511669371277, -354.2395839029923, 0.0, 0.0, 0.0, 0.0, 0.0, 0.0, 0.0, 0.0, 1.7103943367409441E9, 0.0, 2024-03-13 22:32:16.740
1.0, -667.98727098573, -314.34981097560376, -415.44304667785764, -345.2077255100012, 0.0, 0.35200001671910286, 0.0, 0.0, 0.0, 0.0, 0.0, 0.0, 1.7103943367541394E9, 0.0, 2024-03-13 22:32:16.754
1.0, -650.6977134905756, -306.4698417689651, -421.7896569026634, -345.03195021208376, 0.0, 0.35200001671910286, 0.0, 0.0, 0.0, 0.0, 0.0, 0.0, 1.7103943367541394E9, 0.0, 2024-03-13 22:32:16.754
2.0, -656.3823614232242, -311.30927231162786, -410.9738662308082, -344.0072176242247, 0.8800000417977571, 0.35200001671910286, 0.0, 0.0, 0.0, 0.0, 0.0, 0.0, 1.710394336770894E9, 0.0, 2024-03-13 22:32:16.770
2.0, -672.5200297320262, -312.80149239394814, -403.6698416173458, -344.6130814170465, 0.8800000417977571, 0.35200001671910286, 0.0, 0.0, 0.0, 0.0, 0.0, 0.0, 1.710394336770894E9, 0.0, 2024-03-13 22:32:16.770
3.0, -668.3500412814319, -310.09380482602865, -420.6078485166654, -345.7238317038864, 0.8800000417977571, 0.35200001671910286, 0.0, 0.0, 0.0, 0.0, 0.0, 0.0, 1.7103943367717311E9, 0.0, 2024-03-13 22:32:16.771
3.0, -659.303223288618, -309.992827527225, -427.85951453074813, -348.8055092673749, 0.8800000417977571, 0.35200001671910286, 0.0, 0.0, 0.0, 0.0, 0.0, 0.0, 1.7103943367717311E9, 0.0, 2024-03-13 22:32:16.771
4.0, -668.2902028821409, -306.72041506599635, -408.36341606173664, -340.0578832710162, 0.8800000417977571, 0.35200001671910286, 0.0, 0.0, 0.0, 0.0, 0.0, 0.0, 1.7103943367839916E9, 0.0, 2024-03-13 22:32:16.783
4.0, -663.319875841029, -306.35390487033874, -409.6462017465383, -338.40110759064555, 0.8800000417977571, 0.35200001671910286, 0.0, 0.0, 0.0, 0.0, 0.0, 0.0, 1.7103943367839916E9, 0.0, 2024-03-13 22:32:16.783
5.0, -659.4154202872887, -310.6024312200025, -426.3859939482063, -344.77015721518546, 0.8800000417977571, 0.35200001671910286, 0.0, 0.0, 0.0, 0.0, 0.0, 0.0, 1.7103943368001688E9, 0.0, 2024-03-13 22:32:16.800
5.0, -662.8785676462576, -306.555859467946, -404.46270040795207, -340.0167443715036, 0.8800000417977571, 0.35200001671910286, 0.0, 0.0, 0.0, 0.0, 0.0, 0.0, 1.7103943368001688E9, 0.0, 2024-03-13 22:32:16.800
6.0, -671.9478250388056, -312.13205030187964, -418.96603243611753, -347.3095492850989, 0.8800000417977571, 0.35200001671910286, 0.0, 0.0, 0.0, 0.0, 0.0, 0.0, 1.710394336800766E9, 0.0, 2024-03-13 22:32:16.800
6.0, -662.5344968503341, -311.9637548038736, -430.88509359490126, -348.96258506551385, 0.8800000417977571, 0.35200001671910286, 0.0, 0.0, 0.0, 0.0, 0.0, 0.0, 1.710394336800766E9, 0.0, 2024-03-13 22:32:16.800
7.0, -666.0537427086383, -319.49591331463307, -425.36126136034727, -351.73759083263576, 0.8800000417977571, 0.35200001671910286, 0.0, 0.0, 0.0, 0.0, 0.0, 0.0, 1.7103943368142536E9, 0.0, 2024-03-13 22:32:16.814
7.0, -677.7371901702136, -313.64296988397837, -416.06760997045785, -344.15307372249663, 0.8800000417977571, 0.35200001671910286, 0.0, 0.0, 0.0, 0.0, 0.0, 0.0, 1.7103943368142536E9, 0.0, 2024-03-13 22:32:16.814
8.0, -676.2748892875388, -317.5960441371426, -441.52136906888336, -361.3940125182271, 0.8800000417977571, 0.35200001671910286, 0.0, 0.0, 0.0, 0.0, 0.0, 0.0, 1.7103943368299923E9, 0.0, 2024-03-13 22:32:16.829
8.0, -667.5272632911801, -316.9677409445867, -447.42293119896203, -363.70901059079915, 0.8800000417977571, 0.35200001671910286, 0.0, 0.0, 0.0, 0.0, 0.0, 0.0, 1.7103943368299923E9, 0.0, 2024-03-13 22:32:16.829
9.0, -679.1022536540404, -324.6719348533079, -432.41471267677844, -360.36927993036807, 0.8800000417977571, 0.35200001671910286, 0.0, 0.0, 0.0, 0.0, 0.0, 0.0, 1.7103943368306112E9, 0.0, 2024-03-13 22:32:16.830
9.0, -674.2478635115549, -322.4915731791407, -433.96677115838975, -356.438645076938, 0.8800000417977571, 0.35200001671910286, 0.0, 0.0, 0.0, 0.0, 0.0, 0.0, 1.7103943368306112E9, 0.0, 2024-03-13 22:32:16.830
10.0, -669.1017611725256, -324.46624035574496, -437.00730982236564, -361.33417411893606, 0.8800000417977571, 0.35200001671910286, 0.4480000212788582, 0.0, 0.0, 0.0, 0.0, 0.0, 1.7103943368440268E9, 0.0, 2024-03-13 22:32:16.844
10.0, -672.6696257302538, -321.7174138883129, -421.47924520634115, -353.03159621730447, 0.8800000417977571, 0.35200001671910286, 0.4480000212788582, 0.0, 0.0, 0.0, 0.0, 0.0, 1.7103943368440268E9, 0.0, 2024-03-13 22:32:16.844
11.0, -675.5867476956919, -320.61414340138435, -422.85552839003503, -350.19301215093583, 0.8800000417977571, 0.35200001671910286, 0.4480000212788582, 0.0, 0.0, 0.0, 0.0, 0.0, 1.7103943368598888E9, 0.0, 2024-03-13 22:32:16.859
11.0, -664.7372979242355, -316.46659435052425, -436.5473021278158, -351.44587863609195, 0.8800000417977571, 0.35200001671910286, 0.4480000212788582, 0.0, 0.0, 0.0, 0.0, 0.0, 1.7103943368598888E9, 0.0, 2024-03-13 22:32:16.859
12.0, -662.8037696471438, -315.2960056643933, -426.37477424833924, -350.1369136516005, 0.8800000417977571, 0.35200001671910286, 0.4480000212788582, 0.0, 0.0, 0.0, 0.0, 0.0, 1.7103943368603497E9, 0.0, 2024-03-13 22:32:16.860
12.0, -666.4763514036313, -315.01551316771656, -410.14360844064504, -344.7888567149639, 0.8800000417977571, 0.35200001671910286, 0.4480000212788582, 0.0, 0.0, 0.0, 0.0, 0.0, 1.7103943368603497E9, 0.0, 2024-03-13 22:32:16.860
13.0, -661.4761051628739, -319.7838856112212, -424.4524656711146, -348.25200407393277, 0.8800000417977571, 0.35200001671910286, 0.4480000212788582, 0.0, 0.0, 0.0, 0.0, 0.0, 1.7103943368739233E9, 0.0, 2024-03-13 22:32:16.873
13.0, -664.5390832265839, -312.6032776962966, -426.6777061447501, -350.058375752531, 0.8800000417977571, 0.35200001671910286, 0.4480000212788582, 0.0, 0.0, 0.0, 0.0, 0.0, 1.7103943368739233E9, 0.0, 2024-03-13 22:32:16.873
14.0, -671.9403452388942, -313.50833348557353, -402.8620232269168, -342.44393944274634, 0.8800000417977571, 0.35200001671910286, 0.4480000212788582, 0.0, 0.0, 0.0, 0.0, 0.0, 1.7103943368897903E9, 0.0, 2024-03-13 22:32:16.889
14.0, -675.4034925978631, -318.90874902158976, -428.3157823253423, -349.51609025895596, 0.8800000417977571, 0.35200001671910286, 0.4480000212788582, 0.0, 0.0, 0.0, 0.0, 0.0, 1.7103943368897903E9, 0.0, 2024-03-13 22:32:16.889
15.0, -663.1366207432002, -319.42859511543065, -432.55682887509465, -351.3224619375542, 0.8800000417977571, 0.35200001671910286, 0.4480000212788582, 0.0, 0.0, 0.0, 0.0, 0.0, 1.710394336890386E9, 0.0, 2024-03-13 22:32:16.890
15.0, -661.607001661323, -315.1538894660771, -414.32855649106205, -346.50921069458127, 0.8800000417977571, 0.35200001671910286, 0.4480000212788582, 0.0, 0.0, 0.0, 0.0, 0.0, 1.710394336890386E9, 0.0, 2024-03-13 22:32:16.890
16.0, -672.3218150343746, -319.7427467117086, -420.6078485166654, -353.0577755169943, 0.8800000417977571, 0.35200001671910286, 0.4480000212788582, 0.0, 0.0, 0.0, 0.0, 0.0, 1.7103943369039643E9, 0.0, 2024-03-13 22:32:16.903
16.0, -671.6112340427935, -326.190334235318, -441.51762916892767, -358.4656708529219, 0.8800000417977571, 0.35200001671910286, 0.4480000212788582, 0.0, 0.0, 0.0, 0.0, 0.0, 1.7103943369039643E9, 0.0, 2024-03-13 22:32:16.903
17.0, -674.5133964084089, -331.8675023680553, -437.4635776169598, -369.1468251263723, 0.8800000417977571, 0.35200001671910286, 0.4480000212788582, 0.0, 0.0, 0.0, 0.0, 0.0, 1.7103943369197328E9, 0.0, 2024-03-13 22:32:16.919
17.0, -682.5055626137182, -327.6077563185245, -424.52352377027273, -359.6811383385211, 0.8800000417977571, 0.35200001671910286, 0.4480000212788582, 0.0, 0.0, 0.0, 0.0, 0.0, 1.7103943369197328E9, 0.0, 2024-03-13 22:32:16.919
18.0, -675.7737426934764, -323.0076793730259, -438.45465110521764, -363.9782833876088, 0.8800000417977571, 0.35200001671910286, 0.4480000212788582, 0.0, 0.0, 0.0, 0.0, 0.0, 1.7103943369203749E9, 0.0, 2024-03-13 22:32:16.920
18.0, -659.9053471814841, -318.7890722230077, -435.8741201357916, -355.85522068385035, 0.8800000417977571, 0.35200001671910286, 0.4480000212788582, 0.0, 0.0, 0.0, 0.0, 0.0, 1.7103943369203749E9, 0.0, 2024-03-13 22:32:16.920
19.0, -684.9065783852711, -328.4604535084218, -422.06640949938446, -357.19410486798733, 0.8800000417977571, 0.35200001671910286, 0.4480000212788582, 0.0, 0.0, 0.0, 0.0, 0.0, 1.7103943369512727E9, 0.0, 2024-03-13 22:32:16.951
19.0, -682.1091332184151, -326.8597763273865, -430.0884949043393, -355.7243241854012, 0.8800000417977571, 0.35200001671910286, 0.4480000212788582, 0.0, 0.0, 0.0, 0.0, 0.0, 1.7103943369512727E9, 0.0, 2024-03-13 22:32:16.951
20.0, -673.2530501233414, -329.39168859738857, -442.33292735926807, -358.97055734694004, 0.8800000417977571, 0.35200001671910286, 0.4480000212788582, 0.0, 0.0, 0.0, 0.0, 0.0, 1.7103943369513779E9, 0.0, 2024-03-13 22:32:16.951
20.0, -672.1946584358811, -325.84252353943884, -430.8364748954773, -358.4394915532321, 0.8800000417977571, 0.35200001671910286, 0.4480000212788582, 0.0, 0.0, 0.0, 0.0, 0.0, 1.7103943369513779E9, 0.0, 2024-03-13 22:32:16.951
21.0, -679.9100720444694, -326.9644935261458, -425.8287488548085, -360.21968393214047, 0.8800000417977571, 0.35200001671910286, 0.4480000212788582, 0.0, 0.0, 0.0, 0.0, 0.0, 1.7103943369519303E9, 0.0, 2024-03-13 22:32:16.951
21.0, -670.567801955156, -324.49989945534617, -443.6905110431835, -366.63361235614866, 0.8800000417977571, 0.35200001671910286, 0.4480000212788582, 0.0, 0.0, 0.0, 0.0, 0.0, 1.7103943369519303E9, 0.0, 2024-03-13 22:32:16.951
22.0, -668.5893948785961, -325.42739464435726, -427.77723673172295, -360.14862583298236, 0.8800000417977571, 0.35200001671910286, 0.4480000212788582, 0.0, 0.0, 0.0, 0.0, 0.0, 1.7103943369640048E9, 0.0, 2024-03-13 22:32:16.964
22.0, -680.4112186385319, -327.3459633216262, -414.54921058844775, -352.67256582155824, 0.8800000417977571, 0.35200001671910286, 0.4480000212788582, 0.0, 0.0, 0.0, 0.0, 0.0, 1.7103943369640048E9, 0.0, 2024-03-13 22:32:16.964
23.0, -674.6405530069023, -322.01660588476807, -431.52087658736855, -355.2119578914717, 0.8800000417977571, 0.35200001671910286, 0.4480000212788582, 0.0, 0.0, 0.0, 0.0, 0.0, 1.7103943369796782E9, 0.0, 2024-03-13 22:32:16.979
23.0, -663.7985830353573, -317.5923042371869, -428.8730274187401, -351.92458583042026, 0.8800000417977571, 0.35200001671910286, 0.4480000212788582, 0.0, 0.0, 0.0, 0.0, 0.0, 1.7103943369796782E9, 0.0, 2024-03-13 22:32:16.979
24.0, -674.2852625111118, -319.7390068117529, -411.8976215198636, -346.789703191258, 0.8800000417977571, 0.35200001671910286, 0.4480000212788582, 0.0, 0.0, 0.0, 0.0, 0.0, 1.7103943369803762E9, 0.0, 2024-03-13 22:32:16.980
24.0, -666.5137504031882, -317.19961474183947, -419.7177523272112, -345.21894520986825, 0.8800000417977571, 0.35200001671910286, 0.4480000212788582, 0.0, 0.0, 0.0, 0.0, 0.0, 1.7103943369803762E9, 0.0, 2024-03-13 22:32:16.980
25.0, -655.92609362863, -305.83031887654215, -434.56515515130013, -343.8725812258199, 0.8800000417977571, 0.35200001671910286, 0.4480000212788582, 0.0, 0.0, 0.0, 0.0, 0.0, 1.7103943369939847E9, 0.0, 2024-03-13 22:32:16.993
25.0, -663.9332194337621, -309.932989127934, -418.5995222404599, -338.528264189139, 0.8800000417977571, 0.35200001671910286, 0.4480000212788582, 0.0, 0.0, 0.0, 0.0, 0.0, 1.7103943369939847E9, 0.0, 2024-03-13 22:32:16.993
26.0, -668.7202913770452, -307.12806416116655, -419.44099973049015, -338.84989558532834, 0.8800000417977571, 0.35200001671910286, 0.4480000212788582, 0.0, 0.0, 0.0, 0.0, 0.0, 1.710394337009621E9, 0.0, 2024-03-13 22:32:17.009
26.0, -665.8592679109424, -304.1885027959943, -437.4673175169155, -345.29748310893774, 0.8800000417977571, 0.35200001671910286, 0.4480000212788582, 0.0, 0.0, 0.0, 0.0, 0.0, 1.710394337009621E9, 0.0, 2024-03-13 22:32:17.009
27.0, -667.9835310857743, -306.7839933652431, -426.3037161491811, -343.11338153481483, 0.8800000417977571, 0.35200001671910286, 0.4480000212788582, 0.0, 0.0, 0.0, 0.0, 0.0, 1.71039433701038E9, 0.0, 2024-03-13 22:32:17.010
27.0, -675.0743814017624, -309.342084934935, -419.4896184299141, -337.55215030070394, 0.8800000417977571, 0.35200001671910286, 0.4480000212788582, 0.0, 0.0, 0.0, 0.0, 0.0, 1.71039433701038E9, 0.0, 2024-03-13 22:32:17.010
28.0, -671.5626153433695, -318.80777172278613, -433.6526195621118, -349.5647089583799, 0.8800000417977571, 0.35200001671910286, 0.4480000212788582, 0.0, 0.0, 0.0, 0.0, 0.0, 1.7103943370240076E9, 0.0, 2024-03-13 22:32:17.024
28.0, -654.6582675436512, -301.3611384294927, -424.3589681722224, -345.1591068105772, 0.8800000417977571, 0.35200001671910286, 0.4480000212788582, 0.0, 0.0, 0.0, 0.0, 0.0, 1.7103943370240076E9, 0.0, 2024-03-13 22:32:17.024
29.0, -661.8837542580441, -301.4770753281191, -408.18016096390784, -338.8573753852397, 0.8800000417977571, 0.35200001671910286, 0.4480000212788582, 0.0, 0.0, 0.0, 0.0, 0.0, 1.7103943370396276E9, 0.0, 2024-03-13 22:32:17.039
29.0, -671.1661859480664, -315.782192658633, -419.2801840323955, -346.8420617906377, 0.8800000417977571, 0.35200001671910286, 0.4480000212788582, 0.0, 0.0, 0.0, 0.0, 0.0, 1.7103943370396276E9, 0.0, 2024-03-13 22:32:17.039
30.0, -673.8252548165619, -315.0416924674064, -439.7636160897091, -350.0845550522208, 0.8800000417977571, 0.35200001671910286, 0.4480000212788582, 0.0, 0.0, 0.0, 0.0, 0.0, 1.7103943370404036E9, 0.0, 2024-03-13 22:32:17.040
30.0, -680.5982136363164, -326.407248432748, -418.15073424577713, -350.99709064140916, 0.8800000417977571, 0.35200001671910286, 0.4480000212788582, 0.0, 0.0, 0.0, 0.0, 0.0, 1.7103943370404036E9, 0.0, 2024-03-13 22:32:17.040
31.0, -680.059668042697, -318.61329692509025, -414.2051397925243, -349.1682795630768, 0.8800000417977571, 0.35200001671910286, 0.4480000212788582, 0.0, 0.0, 0.0, 0.0, 0.0, 1.7103943370539956E9, 0.0, 2024-03-13 22:32:17.053
31.0, -677.2884021755308, -319.4585143150762, -439.5878407917917, -358.6863249503076, 0.8800000417977571, 0.35200001671910286, 0.4480000212788582, 0.0, 0.0, 0.0, 0.0, 0.0, 1.7103943370539956E9, 0.0, 2024-03-13 22:32:17.053
32.0, -660.8403221704066, -315.58397796098143, -411.28427792713046, -342.0063711479306, 0.8800000417977571, 0.35200001671910286, 0.4480000212788582, 0.0, 0.0, 0.0, 0.0, 0.0, 1.7103943370696075E9, 0.0, 2024-03-13 22:32:17.069
32.0, -674.3002221109346, -310.3294185232371, -402.57779083028436, -336.91262740828097, 0.8800000417977571, 0.35200001671910286, 0.4480000212788582, 0.0, 0.0, 0.0, 0.0, 0.0, 1.7103943370696075E9, 0.0, 2024-03-13 22:32:17.069
33.0, -665.2795834178105, -306.3015462709591, -420.4283333187923, -342.77305063884705, 0.8800000417977571, 0.35200001671910286, 0.4480000212788582, 0.0, 0.0, 0.0, 0.0, 0.0, 1.7103943370703497E9, 0.0, 2024-03-13 22:32:17.070
33.0, -653.128648461774, -295.63535159733146, -417.6832467513159, -336.1571676172316, 0.8800000417977571, 0.35200001671910286, 0.4480000212788582, 0.0, 0.0, 0.0, 0.0, 0.0, 1.7103943370703497E9, 0.0, 2024-03-13 22:32:17.070
34.0, -664.0341967325658, -309.1176909375936, -403.9391144141555, -336.5685566123575, 0.8800000417977571, 0.35200001671910286, 0.4480000212788582, 0.0, 0.0, 0.0, 0.0, 0.0, 1.7103943370842092E9, 0.0, 2024-03-13 22:32:17.084
34.0, -674.2142044119537, -307.87604415230453, -413.50951840076596, -342.4252399429679, 0.8800000417977571, 0.35200001671910286, 0.4480000212788582, 0.0, 0.0, 0.0, 0.0, 0.0, 1.7103943370842092E9, 0.0, 2024-03-13 22:32:17.084
35.0, -658.7758973948658, -309.2635470358655, -425.798829655163, -340.66374706383795, 0.8800000417977571, 0.35200001671910286, 0.4480000212788582, 0.0, 0.0, 0.0, 0.0, 0.0, 1.710394337099968E9, 0.0, 2024-03-13 22:32:17.099
35.0, -675.1865784004331, -321.84083058685064, -422.3394221961498, -351.988164129667, 0.8800000417977571, 0.35200001671910286, 0.4480000212788582, 0.0, 0.0, 0.0, 0.0, 0.0, 1.710394337099968E9, 0.0, 2024-03-13 22:32:17.099
36.0, -678.4402913618833, -314.64900297205895, -421.6176215047017, -351.6216539340094, 0.8800000417977571, 0.35200001671910286, 0.4480000212788582, 0.0, 0.0, 0.0, 0.0, 0.0, 1.7103943371005397E9, 0.0, 2024-03-13 22:32:17.100
36.0, -666.9213994983584, -318.9386682212353, -437.6842317143455, -353.5477024111897, 0.8800000417977571, 0.35200001671910286, 0.4480000212788582, 0.0, 0.0, 0.0, 0.0, 0.0, 1.7103943371005397E9, 0.0, 2024-03-13 22:32:17.100
37.0, -671.858067439869, -312.8239317936823, -425.9446857534349, -352.4294723244384, 0.8800000417977571, 0.35200001671910286, 0.4480000212788582, 0.0, 0.0, 0.0, 0.0, 0.0, 1.7103943371140578E9, 0.0, 2024-03-13 22:32:17.114
37.0, -674.2852625111118, -311.174635913223, -412.3800686141476, -345.7200918039307, 0.8800000417977571, 0.35200001671910286, 0.4480000212788582, 0.0, 0.0, 0.0, 0.0, 0.0, 1.7103943371140578E9, 0.0, 2024-03-13 22:32:17.114
38.0, -669.5393294673413, -310.3331584231928, -427.9417923297733, -348.36420107260346, 0.8800000417977571, 0.35200001671910286, 0.4480000212788582, 0.0, 0.0, 0.0, 0.0, 0.0, 1.710394337129661E9, 0.0, 2024-03-13 22:32:17.129
38.0, -662.631734249182, -311.23447431251407, -422.51145759411156, -344.1343742227182, 0.8800000417977571, 0.35200001671910286, 0.4480000212788582, 0.0, 0.0, 0.0, 0.0, 0.0, 1.710394337129661E9, 0.0, 2024-03-13 22:32:17.129
39.0, -668.952165174298, -311.3728506108746, -411.76672502141446, -341.7632776508108, 0.8800000417977571, 0.35200001671910286, 0.4480000212788582, 0.0, 0.0, 0.0, 0.0, 0.0, 1.7103943371306684E9, 0.0, 2024-03-13 22:32:17.130
39.0, -665.6049547139555, -305.5535662798211, -417.06990315858275, -346.36709449626505, 0.8800000417977571, 0.35200001671910286, 0.4480000212788582, 0.0, 0.0, 0.0, 0.0, 0.0, 1.7103943371306684E9, 0.0, 2024-03-13 22:32:17.130
40.0, -650.9370670877397, -298.668410461396, -421.7260786034167, -338.91721378453076, 0.8800000417977571, 0.35200001671910286, 0.4480000212788582, 0.0, 0.0, 0.0, 0.0, 0.0, 1.7103943371439326E9, 0.0, 2024-03-13 22:32:17.143
40.0, -659.3780212877318, -300.3625851413235, -408.4232544610277, -336.77051120996475, 0.8800000417977571, 0.35200001671910286, 0.4480000212788582, 0.0, 0.0, 0.0, 0.0, 0.0, 1.7103943371439326E9, 0.0, 2024-03-13 22:32:17.143
41.0, -667.6432001898065, -301.4733354281634, -403.25471272226423, -335.13617492932826, 0.8800000417977571, 0.35200001671910286, 0.4480000212788582, 0.0, 0.0, 0.0, 0.0, 0.0, 1.7103943371598823E9, 0.0, 2024-03-13 22:32:17.159
41.0, -661.9099335577339, -304.83176558837295, -412.88495510816574, -338.685339987278, 0.8800000417977571, 0.35200001671910286, 0.4480000212788582, 0.0, 0.0, 0.0, 0.0, 0.0, 1.7103943371598823E9, 0.0, 2024-03-13 22:32:17.159
42.0, -667.3066091937944, -305.2842934830114, -411.2767981272191, -341.52018415369093, 0.8800000417977571, 0.35200001671910286, 0.4480000212788582, 0.0, 0.0, 0.0, 0.0, 0.0, 1.7103943371603384E9, 0.0, 2024-03-13 22:32:17.160
42.0, -667.5010839914903, -302.7710807127878, -400.3001917572692, -331.1157824769616, 0.8800000417977571, 0.35200001671910286, 0.4480000212788582, 0.0, 0.0, 0.0, 0.0, 0.0, 1.7103943371603384E9, 0.0, 2024-03-13 22:32:17.160
43.0, -661.932372957468, -317.02383944392204, -417.47755225375295, -336.007571619004, 0.8800000417977571, 0.35200001671910286, 0.4480000212788582, 0.0, 0.0, 0.0, 0.0, 0.0, 1.7103943371739173E9, 0.0, 2024-03-13 22:32:17.173
43.0, -648.0910032214597, -290.6986836558208, -406.4448473844677, -325.4161749444902, 0.8800000417977571, 0.35200001671910286, 0.4480000212788582, 0.0, 0.0, 0.0, 0.0, 0.0, 1.7103943371739173E9, 0.0, 2024-03-13 22:32:17.173
44.0, -657.4444930106401, -297.01911458093673, -395.5542587134987, -321.8931891862303, 0.8800000417977571, 0.35200001671910286, 0.4480000212788582, 0.0, 0.0, 0.0, 0.0, 0.0, 1.7103943371896489E9, 0.0, 2024-03-13 22:32:17.189
44.0, -676.731157082133, -319.4173754155636, -424.5422232700512, -349.0972214639187, 0.8800000417977571, 0.35200001671910286, 0.4480000212788582, 0.0, 0.0, 0.0, 0.0, 0.0, 1.7103943371896489E9, 0.0, 2024-03-13 22:32:17.189
45.0, -674.475997408852, -321.90440888609737, -442.26186926010996, -358.7611229494214, 0.8800000417977571, 0.35200001671910286, 0.4480000212788582, 0.0, 0.0, 0.0, 0.0, 0.0, 1.7103943371903512E9, 0.0, 2024-03-13 22:32:17.190
45.0, -679.4986830493435, -316.4366751508787, -418.502284841612, -351.32994173746556, 0.8800000417977571, 0.35200001671910286, 0.4480000212788582, 0.0, 0.0, 0.0, 0.0, 0.0, 1.7103943371903512E9, 0.0, 2024-03-13 22:32:17.190
46.0, -682.9319112086669, -322.46913377940655, -416.2396453684196, -350.0882949521765, 0.8800000417977571, 0.35200001671910286, 0.4480000212788582, 0.0, 0.0, 0.0, 0.0, 0.0, 1.7103943372039452E9, 0.0, 2024-03-13 22:32:17.203
46.0, -679.9586907438934, -328.32207721006125, -437.7702494133264, -355.55976858735085, 0.8800000417977571, 0.35200001671910286, 0.4480000212788582, 0.0, 0.0, 0.0, 0.0, 0.0, 1.7103943372039452E9, 0.0, 2024-03-13 22:32:17.203
47.0, -686.2417226694524, -325.95098063815385, -428.2447242261842, -355.30171549040824, 0.8800000417977571, 0.35200001671910286, 0.4480000212788582, 0.0, 0.0, 0.0, 0.0, 0.0, 1.7103943372196836E9, 0.0, 2024-03-13 22:32:17.219
47.0, -685.0262551838532, -333.1652476526797, -413.65537449903786, -348.1622464749962, 0.8800000417977571, 0.35200001671910286, 0.4480000212788582, 0.0, 0.0, 0.0, 0.0, 0.0, 1.7103943372196836E9, 0.0, 2024-03-13 22:32:17.219
48.0, -675.8934194920585, -315.19876826554537, -434.22482425533235, -344.9721118127927, 0.8800000417977571, 0.35200001671910286, 0.4480000212788582, 0.0, 0.0, 0.0, 0.0, 0.0, 1.7103943372203488E9, 0.0, 2024-03-13 22:32:17.220
48.0, -669.2663167705759, -321.02179249655455, -421.37452800758183, -343.63322762865573, 0.8800000417977571, 0.35200001671910286, 0.4480000212788582, 0.0, 0.0, 0.0, 0.0, 0.0, 1.7103943372203488E9, 0.0, 2024-03-13 22:32:17.220
49.0, -689.6936503285542, -330.3378832861781, -415.0914960820228, -349.3141356613487, 0.8800000417977571, 0.35200001671910286, 0.4480000212788582, 0.0, 0.0, 0.0, 0.0, 0.0, 1.710394337234468E9, 0.0, 2024-03-13 22:32:17.234
49.0, -694.2563282744959, -342.1671868460253, -426.1354206511751, -354.74821029696614, 0.8800000417977571, 0.35200001671910286, 0.4480000212788582, 0.0, 0.0, 0.0, 0.0, 0.0, 1.710394337234468E9, 0.0, 2024-03-13 22:32:17.234
50.0, -692.8912647906691, -339.36600177921355, -443.49229634553194, -370.22391631361097, 0.8800000417977571, 0.35200001671910286, 0.4480000212788582, 0.0, 0.0, 0.0, 0.0, 0.0, 1.7103943372500205E9, 0.0, 2024-03-13 22:32:17.250
50.0, -697.0014148419723, -339.5716962767765, -429.03384311683476, -367.40777164697647, 0.8800000417977571, 0.35200001671910286, 0.4480000212788582, 0.0, 0.0, 0.0, 0.0, 0.0, 1.7103943372500205E9, 0.0, 2024-03-13 22:32:17.250
51.0, -694.0768130766228, -338.1280948938802, -431.1020077923313, -361.37157311849296, 0.8800000417977571, 0.35200001671910286, 0.4480000212788582, 0.0, 0.0, 0.0, 0.0, 0.0, 1.7103943372503862E9, 0.0, 2024-03-13 22:32:17.250
51.0, -688.1715110465884, -340.5777293648571, -443.985963139683, -364.26251578424126, 0.8800000417977571, 0.35200001671910286, 0.4480000212788582, 0.0, 0.0, 0.0, 0.0, 0.0, 1.7103943372503862E9, 0.0, 2024-03-13 22:32:17.250
52.0, -683.7098103994504, -336.5610768124461, -433.74237716104835, -364.37845268286765, 0.8800000417977571, 0.35200001671910286, 0.4480000212788582, 0.0, 0.0, 0.0, 0.0, 0.0, 1.7103943372641745E9, 0.0, 2024-03-13 22:32:17.264
52.0, -690.5239081187174, -333.4195608496666, -433.92937215883285, -365.242369572632, 0.8800000417977571, 0.35200001671910286, 0.4480000212788582, 0.0, 0.0, 0.0, 0.0, 0.0, 1.7103943372641745E9, 0.0, 2024-03-13 22:32:17.264
53.0, -687.3225537566468, -340.47675206605345, -449.7304494716227, -369.849926318042, 0.8800000417977571, 0.35200001671910286, 0.4480000212788582, 0.0, 0.0, 0.0, 0.0, 0.0, 1.710394337279747E9, 0.0, 2024-03-13 22:32:17.279
53.0, -686.0883867712691, -339.06306988280267, -451.065593755804, -372.9203841816634, 0.8800000417977571, 0.35200001671910286, 0.4480000212788582, 0.0, 0.0, 0.0, 0.0, 0.0, 1.710394337279747E9, 0.0, 2024-03-13 22:32:17.279
54.0, -692.4013378964737, -337.32775630336255, -428.62245412170887, -369.475936322473, 0.8800000417977571, 0.35200001671910286, 0.4480000212788582, 0.0, 0.0, 0.0, 0.0, 0.0, 1.7103943372805493E9, 0.0, 2024-03-13 22:32:17.280
54.0, -692.8389061912894, -335.62610182352364, -434.4716576524079, -363.04330839868635, 0.8800000417977571, 0.35200001671910286, 0.4480000212788582, 0.0, 0.0, 0.0, 0.0, 0.0, 1.7103943372805493E9, 0.0, 2024-03-13 22:32:17.280
55.0, -676.7012378824875, -334.3807151382789, -439.59906049165875, -363.14428569749, 0.8800000417977571, 0.35200001671910286, 0.4480000212788582, 0.0, 0.0, 0.0, 0.0, 0.0, 1.7103943372942119E9, 0.0, 2024-03-13 22:32:17.294
55.0, -684.6335656885058, -333.55419724807143, -431.51339678745717, -362.2055708086118, 0.8800000417977571, 0.35200001671910286, 0.4480000212788582, 0.0, 0.0, 0.0, 0.0, 0.0, 1.7103943372942119E9, 0.0, 2024-03-13 22:32:17.294
56.0, -677.3145814752206, -328.7035470055416, -423.88026097789407, -360.3917193301022, 0.8800000417977571, 0.35200001671910286, 0.4480000212788582, 0.0, 0.0, 0.0, 0.0, 0.0, 1.7103943373098154E9, 0.0, 2024-03-13 22:32:17.309
56.0, -677.8306876691058, -331.497252272442, -448.16343139018863, -365.63131916802377, 0.8800000417977571, 0.35200001671910286, 0.4480000212788582, 0.0, 0.0, 0.0, 0.0, 0.0, 1.7103943373098154E9, 0.0, 2024-03-13 22:32:17.309
57.0, -675.4034925978631, -330.375282285735, -429.4639316117391, -357.8672868600115, 0.8800000417977571, 0.35200001671910286, 0.4480000212788582, 0.0, 0.0, 0.0, 0.0, 0.0, 1.7103943373103623E9, 0.0, 2024-03-13 22:32:17.310
57.0, -690.2808146215975, -322.6636085771024, -411.58346992358565, -348.3866404723376, 0.8800000417977571, 0.35200001671910286, 0.4480000212788582, 0.0, 0.0, 0.0, 0.0, 0.0, 1.7103943373103623E9, 0.0, 2024-03-13 22:32:17.310
58.0, -690.1012994237244, -339.975605471991, -438.6528658028692, -357.7663095612079, 0.8800000417977571, 0.35200001671910286, 0.4480000212788582, 0.0, 0.0, 0.0, 0.0, 0.0, 1.7103943373239372E9, 0.0, 2024-03-13 22:32:17.323
58.0, -677.8793063685298, -319.57071131374687, -433.843354459852, -354.08250810485333, 0.8800000417977571, 0.35200001671910286, 0.4480000212788582, 0.0, 0.0, 0.0, 0.0, 0.0, 1.7103943373239372E9, 0.0, 2024-03-13 22:32:17.323
59.0, -680.2541428403929, -329.4964057961479, -414.99051878321916, -350.26033035013825, 0.8800000417977571, 0.35200001671910286, 0.4480000212788582, 0.0, 0.0, 0.0, 0.0, 0.0, 1.7103943373399353E9, 0.0, 2024-03-13 22:32:17.339
59.0, -686.1669246703386, -325.0160056492314, -422.44039949495345, -349.41137306019664, 0.8800000417977571, 0.35200001671910286, 0.4480000212788582, 0.0, 0.0, 0.0, 0.0, 0.0, 1.7103943373399353E9, 0.0, 2024-03-13 22:32:17.339
60.0, -681.6453856239095, -324.21192715875804, -436.04241563379765, -355.03618259355426, 0.8800000417977571, 0.35200001671910286, 0.4480000212788582, 0.0, 0.0, 0.0, 0.0, 0.0, 1.7103943373404064E9, 0.0, 2024-03-13 22:32:17.340
60.0, -683.8145275982097, -332.88475515600294, -416.3742817668244, -353.7907959083095, 0.8800000417977571, 0.35200001671910286, 0.4480000212788582, 0.0, 0.0, 0.0, 0.0, 0.0, 1.7103943373404064E9, 0.0, 2024-03-13 22:32:17.340
61.0, -696.8555587437004, -331.4897724725306, -425.1256476631388, -357.52321606408805, 0.8800000417977571, 0.35200001671910286, 0.4480000212788582, 0.0, 0.0, 0.0, 0.0, 0.0, 1.7103943373540244E9, 0.0, 2024-03-13 22:32:17.354
61.0, -683.5340351015329, -333.46817954909056, -442.00007626321167, -358.7274638498202, 0.8800000417977571, 0.35200001671910286, 0.4480000212788582, 0.0, 0.0, 0.0, 0.0, 0.0, 1.7103943373540244E9, 0.0, 2024-03-13 22:32:17.354
62.0, -680.9535041321069, -329.1224158005789, -431.4722578879446, -359.2099109441042, 0.8800000417977571, 0.35200001671910286, 0.4480000212788582, 0.0, 0.0, 0.0, 0.0, 0.0, 1.710394337369786E9, 0.0, 2024-03-13 22:32:17.369
62.0, -690.6622844170779, -327.0505112251267, -419.14928753394634, -356.82011487241834, 0.8800000417977571, 0.35200001671910286, 0.4480000212788582, 0.0, 0.0, 0.0, 0.0, 0.0, 1.710394337369786E9, 0.0, 2024-03-13 22:32:17.369
63.0, -686.1033463710919, -330.98862587846816, -442.82285425346345, -363.3873791946098, 0.8800000417977571, 0.35200001671910286, 0.4480000212788582, 0.0, 0.0, 0.0, 0.0, 0.0, 1.7103943373703413E9, 0.0, 2024-03-13 22:32:17.370
63.0, -671.1848854478449, -321.9006689861417, -439.161492196843, -361.4762903172523, 0.8800000417977571, 0.35200001671910286, 0.4480000212788582, 0.0, 0.0, 0.0, 0.0, 0.0, 1.7103943373703413E9, 0.0, 2024-03-13 22:32:17.370
64.0, -683.4480174025521, -321.35464359261096, -424.833935466595, -362.08215411007404, 0.8800000417977571, 0.35200001671910286, 0.4480000212788582, 0.0, 0.0, 0.0, 0.0, 0.0, 1.710394337384239E9, 0.0, 2024-03-13 22:32:17.384
64.0, -682.3447469156235, -324.79535155184567, -430.3615076011047, -359.2772291433066, 0.8800000417977571, 0.35200001671910286, 0.4480000212788582, 0.0, 0.0, 0.0, 0.0, 0.0, 1.710394337384239E9, 0.0, 2024-03-13 22:32:17.384
65.0, -674.8350278045982, -324.54477825481445, -447.2134968014434, -363.9109651884064, 0.8800000417977571, 0.35200001671910286, 0.4480000212788582, 0.0, 0.0, 0.0, 0.0, 0.0, 1.710394337399996E9, 0.0, 2024-03-13 22:32:17.399
65.0, -677.804508369416, -326.16789483558387, -431.0496491929516, -364.81976087763906, 0.8800000417977571, 0.35200001671910286, 0.4480000212788582, 0.0, 0.0, 0.0, 0.0, 0.0, 1.710394337399996E9, 0.0, 2024-03-13 22:32:17.399
66.0, -676.5179827846587, -316.2235008534044, -424.22433177381754, -356.8425542721525, 0.8800000417977571, 0.35200001671910286, 0.4480000212788582, 0.0, 0.0, 0.0, 0.0, 0.0, 1.7103943374004383E9, 0.0, 2024-03-13 22:32:17.400
66.0, -676.9218919798732, -316.5937509490177, -443.5895337443799, -360.4253784297034, 0.8800000417977571, 0.35200001671910286, 0.4480000212788582, 0.0, 0.0, 0.0, 0.0, 0.0, 1.7103943374004383E9, 0.0, 2024-03-13 22:32:17.400
67.0, -680.4299181383103, -319.2528198175132, -435.81054183654487, -359.11267354525626, 0.8800000417977571, 0.35200001671910286, 0.4480000212788582, 0.0, 0.0, 0.0, 0.0, 0.0, 1.7103943374141405E9, 0.0, 2024-03-13 22:32:17.414
67.0, -681.0806607306004, -321.42944159172475, -425.5445164581761, -358.5442087519914, 0.8800000417977571, 0.35200001671910286, 0.4480000212788582, 0.0, 0.0, 0.0, 0.0, 0.0, 1.7103943374141405E9, 0.0, 2024-03-13 22:32:17.414
68.0, -674.4834772087634, -323.84167706314474, -434.93166534695774, -356.25912987906486, 0.8800000417977571, 0.35200001671910286, 0.4480000212788582, 0.0, 0.0, 0.0, 0.0, 0.0, 1.7103943374297855E9, 0.0, 2024-03-13 22:32:17.429
68.0, -677.8007684694603, -325.87618263904005, -448.9114113813266, -362.9909497993067, 0.8800000417977571, 0.35200001671910286, 0.4480000212788582, 0.0, 0.0, 0.0, 0.0, 0.0, 1.7103943374297855E9, 0.0, 2024-03-13 22:32:17.429
69.0, -675.1117804013193, -324.6457555536181, -425.581915457733, -364.55796788074076, 0.8800000417977571, 0.35200001671910286, 0.4480000212788582, 0.0, 0.0, 0.0, 0.0, 0.0, 1.7103943374303536E9, 0.0, 2024-03-13 22:32:17.430
69.0, -679.7043775469065, -327.8545897156, -446.7310497071594, -367.5498878452927, 0.8800000417977571, 0.35200001671910286, 0.4480000212788582, 0.0, 0.0, 0.0, 0.0, 0.0, 1.7103943374303536E9, 0.0, 2024-03-13 22:32:17.430
70.0, -670.7660166528076, -325.5171522432938, -448.1335121905431, -367.30305444821715, 0.8800000417977571, 0.35200001671910286, 0.4640000220388174, 0.0, 0.0, 0.0, 0.0, 0.0, 1.7103943374441416E9, 0.0, 2024-03-13 22:32:17.444
70.0, -674.849987404421, -316.32447815220803, -432.7176445731893, -361.26685591973364, 0.8800000417977571, 0.35200001671910286, 0.4640000220388174, 0.0, 0.0, 0.0, 0.0, 0.0, 1.7103943374441416E9, 0.0, 2024-03-13 22:32:17.444
71.0, -676.731157082133, -319.3313577165827, -425.26028406154364, -363.22282359655946, 0.8800000417977571, 0.35200001671910286, 0.4640000220388174, 0.0, 0.0, 0.0, 0.0, 0.0, 1.7103943374597847E9, 0.0, 2024-03-13 22:32:17.459
71.0, -675.3137349989265, -310.90162321645766, -447.71090349555016, -364.9880563756451, 0.8800000417977571, 0.35200001671910286, 0.4640000220388174, 0.0, 0.0, 0.0, 0.0, 0.0, 1.7103943374597847E9, 0.0, 2024-03-13 22:32:17.459
72.0, -665.9303260101005, -313.5195531854406, -434.89426634740084, -358.0505419578403, 0.8800000417977571, 0.35200001671910286, 0.4640000220388174, 0.0, 0.0, 0.0, 0.0, 0.0, 1.7103943374603336E9, 0.0, 2024-03-13 22:32:17.460
72.0, -664.0977750318125, -308.6352438433096, -419.6803533276543, -350.54830264672637, 0.8800000417977571, 0.35200001671910286, 0.4640000220388174, 0.0, 0.0, 0.0, 0.0, 0.0, 1.7103943374603336E9, 0.0, 2024-03-13 22:32:17.460
73.0, -671.1213071485981, -314.9668944682926, -433.4618846643716, -354.48641730006784, 0.8800000417977571, 0.35200001671910286, 0.4640000220388174, 0.0, 0.0, 0.0, 0.0, 0.0, 1.7103943374739516E9, 0.0, 2024-03-13 22:32:17.473
73.0, -671.2896026466042, -318.23930692952126, -438.52570920437574, -349.4637316595763, 0.8800000417977571, 0.35200001671910286, 0.4640000220388174, 0.0, 0.0, 0.0, 0.0, 0.0, 1.7103943374739516E9, 0.0, 2024-03-13 22:32:17.473
74.0, -682.3335272157565, -319.79510531108826, -421.4680255064741, -352.54914912302047, 0.8800000417977571, 0.35200001671910286, 0.4640000220388174, 0.0, 0.0, 0.0, 0.0, 0.0, 1.71039433748975E9, 0.0, 2024-03-13 22:32:17.489
74.0, -676.9929500790313, -310.7482873182744, -425.62305435724556, -345.6116347052157, 0.8800000417977571, 0.35200001671910286, 0.4640000220388174, 0.0, 0.0, 0.0, 0.0, 0.0, 1.71039433748975E9, 0.0, 2024-03-13 22:32:17.489
75.0, -669.3336349697784, -310.8904035165906, -439.6214998913929, -341.2696108566597, 0.8800000417977571, 0.35200001671910286, 0.4640000220388174, 0.0, 0.0, 0.0, 0.0, 0.0, 1.7103943374903333E9, 0.0, 2024-03-13 22:32:17.490
75.0, -663.5741890380159, -301.08438583277166, -413.8311497969553, -335.88789482042193, 0.8800000417977571, 0.35200001671910286, 0.4640000220388174, 0.0, 0.0, 0.0, 0.0, 0.0, 1.7103943374903333E9, 0.0, 2024-03-13 22:32:17.490
76.0, -674.7003914061934, -315.1127505665645, -416.36306206695735, -340.83952236175537, 0.8800000417977571, 0.35200001671910286, 0.4640000220388174, 0.0, 0.0, 0.0, 0.0, 0.0, 1.710394337503935E9, 0.0, 2024-03-13 22:32:17.503
76.0, -669.8647007634863, -315.58397796098143, -438.26391620747745, -347.33572858478874, 0.8800000417977571, 0.35200001671910286, 0.4640000220388174, 0.0, 0.0, 0.0, 0.0, 0.0, 1.710394337503935E9, 0.0, 2024-03-13 22:32:17.503
77.0, -663.1291409432888, -306.3314654706046, -426.7113652443513, -344.1942126220092, 0.8800000417977571, 0.35200001671910286, 0.4640000220388174, 0.0, 0.0, 0.0, 0.0, 0.0, 1.710394337519742E9, 0.0, 2024-03-13 22:32:17.519
77.0, -664.5877019260079, -305.46006878092885, -417.39527445472777, -343.6369675286114, 0.8800000417977571, 0.35200001671910286, 0.4640000220388174, 0.0, 0.0, 0.0, 0.0, 0.0, 1.710394337519742E9, 0.0, 2024-03-13 22:32:17.519
78.0, -664.3034695293754, -307.0794454617426, -431.2441239906475, -348.88030726648867, 0.8800000417977571, 0.35200001671910286, 0.4640000220388174, 0.0, 0.0, 0.0, 0.0, 0.0, 1.710394337520304E9, 0.0, 2024-03-13 22:32:17.520
78.0, -665.6012148139998, -307.91344315186143, -429.9800378056243, -346.6027081934735, 0.8800000417977571, 0.35200001671910286, 0.4640000220388174, 0.0, 0.0, 0.0, 0.0, 0.0, 1.710394337520304E9, 0.0, 2024-03-13 22:32:17.520
79.0, -667.2205914948136, -308.6240241434425, -410.73825253359973, -341.36310835555196, 0.8800000417977571, 0.35200001671910286, 0.4640000220388174, 0.0, 0.0, 0.0, 0.0, 0.0, 1.7103943375342484E9, 0.0, 2024-03-13 22:32:17.534
79.0, -672.3704337337986, -313.478414285928, -430.6195606980473, -353.7571368087083, 0.8800000417977571, 0.35200001671910286, 0.4640000220388174, 0.0, 0.0, 0.0, 0.0, 0.0, 1.7103943375342484E9, 0.0, 2024-03-13 22:32:17.534
80.0, -673.9823306147009, -321.94928768556565, -437.6094337152317, -353.6785989096388, 0.8800000417977571, 0.35200001671910286, 0.4640000220388174, 0.0, 0.0, 0.0, 0.0, 0.0, 1.7103943375497503E9, 0.0, 2024-03-13 22:32:17.549
80.0, -662.1118881553411, -308.9306959398091, -415.0765364822, -341.9764519482851, 0.8800000417977571, 0.35200001671910286, 0.4640000220388174, 0.0, 0.0, 0.0, 0.0, 0.0, 1.7103943375497503E9, 0.0, 2024-03-13 22:32:17.549
81.0, -666.7942428998649, -311.4775678096339, -411.0150051303208, -341.18359315767884, 0.8800000417977571, 0.35200001671910286, 0.4640000220388174, 0.0, 0.0, 0.0, 0.0, 0.0, 1.710394337550342E9, 0.0, 2024-03-13 22:32:17.550
81.0, -667.6020612902939, -305.78917997702956, -427.6164210336283, -341.157413857989, 0.8800000417977571, 0.35200001671910286, 0.4640000220388174, 0.0, 0.0, 0.0, 0.0, 0.0, 1.710394337550342E9, 0.0, 2024-03-13 22:32:17.550
82.0, -658.3233695002273, -303.552719803527, -407.95202706661075, -332.9408536553383, 0.8800000417977571, 0.35200001671910286, 0.4640000220388174, 0.0, 0.0, 0.0, 0.0, 0.0, 1.7103943375643065E9, 0.0, 2024-03-13 22:32:17.564
82.0, -662.7439312478527, -308.8184989411384, -405.790364892222, -342.2045858455822, 0.8800000417977571, 0.35200001671910286, 0.4640000220388174, 0.0, 0.0, 0.0, 0.0, 0.0, 1.7103943375643065E9, 0.0, 2024-03-13 22:32:17.564
83.0, -670.9081328511238, -316.855543945916, -429.2470174143091, -349.2729967618361, 0.8800000417977571, 0.35200001671910286, 0.4640000220388174, 0.0, 0.0, 0.0, 0.0, 0.0, 1.71039433757966E9, 0.0, 2024-03-13 22:32:17.579
83.0, -664.8382752230391, -317.2631930410862, -432.18283887952566, -347.03279668837786, 0.8800000417977571, 0.35200001671910286, 0.4640000220388174, 0.0, 0.0, 0.0, 0.0, 0.0, 1.71039433757966E9, 0.0, 2024-03-13 22:32:17.579
84.0, -667.1869323952124, -309.2186682363972, -418.73415863886476, -343.1657401341945, 0.8800000417977571, 0.35200001671910286, 0.4640000220388174, 0.0, 0.0, 0.0, 0.0, 0.0, 1.7103943375803816E9, 0.0, 2024-03-13 22:32:17.580
84.0, -670.7547969529405, -322.13628268335015, -430.0099570052698, -351.00083054136485, 0.8800000417977571, 0.35200001671910286, 0.4640000220388174, 0.0, 0.0, 0.0, 0.0, 0.0, 1.7103943375803816E9, 0.0, 2024-03-13 22:32:17.580
85.0, -672.6097873309627, -323.10491677187383, -441.9813767634332, -352.89321991894394, 0.8800000417977571, 0.35200001671910286, 0.4640000220388174, 0.0, 0.0, 0.0, 0.0, 0.0, 1.7103943375940003E9, 0.0, 2024-03-13 22:32:17.594
85.0, -672.3592140339315, -313.32133848778903, -423.2108188858256, -349.2767366617918, 0.8800000417977571, 0.35200001671910286, 0.4640000220388174, 0.0, 0.0, 0.0, 0.0, 0.0, 1.7103943375940003E9, 0.0, 2024-03-13 22:32:17.594
86.0, -676.4805837851018, -315.4456016626209, -418.28911054413766, -347.92663277778774, 0.8800000417977571, 0.35200001671910286, 0.4640000220388174, 0.0, 0.0, 0.0, 0.0, 0.0, 1.7103943376097434E9, 0.0, 2024-03-13 22:32:17.609
86.0, -674.7677096053958, -323.9987528612837, -442.6208996558562, -353.37940691318363, 0.8800000417977571, 0.35200001671910286, 0.4640000220388174, 0.0, 0.0, 0.0, 0.0, 0.0, 1.7103943376097434E9, 0.0, 2024-03-13 22:32:17.609
87.0, -675.814881592989, -314.82851816993207, -433.734897361137, -350.3575677489862, 0.8800000417977571, 0.35200001671910286, 0.4640000220388174, 0.0, 0.0, 0.0, 0.0, 0.0, 1.7103943376104012E9, 0.0, 2024-03-13 22:32:17.610
87.0, -675.8036618931219, -327.21880672313273, -421.5764826051891, -353.3831468131393, 0.8800000417977571, 0.35200001671910286, 0.4640000220388174, 0.0, 0.0, 0.0, 0.0, 0.0, 1.7103943376104012E9, 0.0, 2024-03-13 22:32:17.610
88.0, -680.0334887430072, -325.6293492419645, -441.3904725704342, -360.26082283165306, 0.8800000417977571, 0.35200001671910286, 0.4640000220388174, 0.0, 0.0, 0.0, 0.0, 0.0, 1.7103943376240795E9, 0.0, 2024-03-13 22:32:17.624
88.0, -676.7012378824875, -330.8165904805064, -436.44632482901216, -354.5013768998906, 0.8800000417977571, 0.35200001671910286, 0.4640000220388174, 0.0, 0.0, 0.0, 0.0, 0.0, 1.7103943376240795E9, 0.0, 2024-03-13 22:32:17.624
89.0, -678.455250961706, -331.8562826681882, -418.6331813400611, -347.25345078576356, 0.8800000417977571, 0.35200001671910286, 0.4640000220388174, 0.0, 0.0, 0.0, 0.0, 0.0, 1.7103943376397538E9, 0.0, 2024-03-13 22:32:17.639
89.0, -679.6482790475711, -328.77086520474404, -423.36041488405317, -351.1616462394595, 0.8800000417977571, 0.35200001671910286, 0.4640000220388174, 0.0, 0.0, 0.0, 0.0, 0.0, 1.7103943376397538E9, 0.0, 2024-03-13 22:32:17.639
90.0, -675.018282902427, -323.64720226544887, -443.0248088510707, -351.43839883618057, 0.8800000417977571, 0.35200001671910286, 0.4640000220388174, 0.0, 0.0, 0.0, 0.0, 0.0, 1.7103943376403277E9, 0.0, 2024-03-13 22:32:17.640
90.0, -671.0165899498388, -323.8154977634549, -417.5299108531326, -349.6432468574494, 0.8800000417977571, 0.35200001671910286, 0.4640000220388174, 0.0, 0.0, 0.0, 0.0, 0.0, 1.7103943376403277E9, 0.0, 2024-03-13 22:32:17.640
91.0, -678.6422459594905, -327.6414154181257, -420.03564382344484, -354.5425157994032, 0.8800000417977571, 0.35200001671910286, 0.4640000220388174, 0.0, 0.0, 0.0, 0.0, 0.0, 1.7103943376539683E9, 0.0, 2024-03-13 22:32:17.653
91.0, -676.9817303791642, -327.57783711887896, -443.7653090422973, -357.41101906541735, 0.8800000417977571, 0.35200001671910286, 0.4640000220388174, 0.0, 0.0, 0.0, 0.0, 0.0, 1.7103943376539683E9, 0.0, 2024-03-13 22:32:17.653
92.0, -672.9912571264431, -322.439214579761, -431.7228311849758, -352.1228005280718, 0.8800000417977571, 0.35200001671910286, 0.4640000220388174, 0.0, 0.0, 0.0, 0.0, 0.0, 1.7103943376697876E9, 0.0, 2024-03-13 22:32:17.669
92.0, -667.070995496586, -323.452727467753, -420.491911618039, -352.7698032204062, 0.8800000417977571, 0.35200001671910286, 0.4640000220388174, 0.0, 0.0, 0.0, 0.0, 0.0, 1.7103943376697876E9, 0.0, 2024-03-13 22:32:17.669
93.0, -673.0585753256455, -318.35898372810334, -434.8643471477553, -352.00312372948974, 0.8800000417977571, 0.35200001671910286, 0.4640000220388174, 0.0, 0.0, 0.0, 0.0, 0.0, 1.7103943376704817E9, 0.0, 2024-03-13 22:32:17.670
93.0, -672.6471863305196, -319.7128275120631, -436.6071405271068, -352.78102292027324, 0.8800000417977571, 0.35200001671910286, 0.4640000220388174, 0.0, 0.0, 0.0, 0.0, 0.0, 1.7103943376704817E9, 0.0, 2024-03-13 22:32:17.670
94.0, -673.89631291572, -321.43692139163613, -421.8270559022203, -350.81383554358035, 0.8800000417977571, 0.35200001671910286, 0.4640000220388174, 0.0, 0.0, 0.0, 0.0, 0.0, 1.710394337684038E9, 0.0, 2024-03-13 22:32:17.684
94.0, -674.5171363083646, -321.5902572898194, -428.66359302122146, -352.5828082226217, 0.8800000417977571, 0.35200001671910286, 0.4640000220388174, 0.0, 0.0, 0.0, 0.0, 0.0, 1.710394337684038E9, 0.0, 2024-03-13 22:32:17.684
95.0, -678.563708060421, -328.1874408116564, -443.6082332441583, -358.85836034826934, 0.8800000417977571, 0.35200001671910286, 0.4640000220388174, 0.0, 0.0, 0.0, 0.0, 0.0, 1.7103943376999733E9, 0.0, 2024-03-13 22:32:17.699
95.0, -669.6103875664994, -324.2343665584922, -423.2369981855154, -350.5670021465048, 0.8800000417977571, 0.35200001671910286, 0.4640000220388174, 0.0, 0.0, 0.0, 0.0, 0.0, 1.7103943376999733E9, 0.0, 2024-03-13 22:32:17.699
96.0, -669.1615995718166, -319.1443627187982, -429.6958054089919, -354.3443011017516, 0.8800000417977571, 0.35200001671910286, 0.4640000220388174, 0.0, 0.0, 0.0, 0.0, 0.0, 1.710394337700619E9, 0.0, 2024-03-13 22:32:17.700
96.0, -674.4572979090735, -322.2297801822424, -449.07970687933266, -360.52635572850704, 0.8800000417977571, 0.35200001671910286, 0.4640000220388174, 0.0, 0.0, 0.0, 0.0, 0.0, 1.710394337700619E9, 0.0, 2024-03-13 22:32:17.700
97.0, -672.220837735571, -333.6850937465206, -437.2092644199729, -361.2182372203097, 0.8800000417977571, 0.35200001671910286, 0.4640000220388174, 0.0, 0.0, 0.0, 0.0, 0.0, 1.7103943377140553E9, 0.0, 2024-03-13 22:32:17.714
97.0, -684.2969746924937, -336.6882334109396, -429.92393930628896, -363.0657477984205, 0.8800000417977571, 0.35200001671910286, 0.4640000220388174, 0.0, 0.0, 0.0, 0.0, 0.0, 1.7103943377140553E9, 0.0, 2024-03-13 22:32:17.714
98.0, -684.3979519912973, -337.65312759950757, -436.00127673428506, -365.19375087320805, 0.8800000417977571, 0.35200001671910286, 0.4640000220388174, 0.0, 0.0, 0.0, 0.0, 0.0, 1.710394337729674E9, 0.0, 2024-03-13 22:32:17.729
98.0, -679.5323421489447, -333.80103064514697, -438.78376230131835, -362.504762805067, 0.8800000417977571, 0.35200001671910286, 0.4640000220388174, 0.0, 0.0, 0.0, 0.0, 0.0, 1.710394337729674E9, 0.0, 2024-03-13 22:32:17.729
99.0, -676.5105029847473, -326.25017263460904, -424.9386526653543, -357.2053245678544, 0.8800000417977571, 0.35200001671910286, 0.4640000220388174, 0.0, 0.0, 0.0, 0.0, 0.0, 1.7103943377303689E9, 0.0, 2024-03-13 22:32:17.730
99.0, -677.696051270701, -326.8971753269434, -432.4259323766455, -356.6854784740135, 0.8800000417977571, 0.35200001671910286, 0.4640000220388174, 0.0, 0.0, 0.0, 0.0, 0.0, 1.7103943377303689E9, 0.0, 2024-03-13 22:32:17.730
100.0, -669.5206299675629, -325.16560164745897, -436.67445872630924, -355.62708678655326, 0.8800000417977571, 0.35200001671910286, 0.4640000220388174, 0.0, 0.0, 0.0, 0.0, 0.0, 1.710394337744911E9, 0.0, 2024-03-13 22:32:17.744
100.0, -665.5825153142214, -313.418575886637, -425.66419325675815, -348.345501572825, 0.8800000417977571, 0.35200001671910286, 0.4640000220388174, 0.0, 0.0, 0.0, 0.0, 0.0, 1.710394337744911E9, 0.0, 2024-03-13 22:32:17.744
0.0, -677.8905260683969, -323.5780141162686, -427.08722518989816, -355.56911833724007, 0.8800000417977571, 0.35200001671910286, 0.4640000220388174, 0.0, 0.0, 0.0, 0.0, 0.0, 1.7103943377453814E9, 0.0, 2024-03-13 22:32:17.745
1.0, -674.5694949077442, -327.56848736898974, -438.73327365191653, -352.4126427746378, 0.8800000417977571, 0.35200001671910286, 0.4640000220388174, 0.0, 0.0, 0.0, 0.0, 0.0, 1.7103943377753365E9, 0.0, 2024-03-13 22:32:17.775
1.0, -667.661899689585, -307.8779141022824, -421.7391682532616, -341.4023773050867, 0.8800000417977571, 0.35200001671910286, 0.4640000220388174, 0.0, 0.0, 0.0, 0.0, 0.0, 1.7103943377753365E9, 0.0, 2024-03-13 22:32:17.775
2.0, -666.9213994983584, -316.3637471017428, -409.26286200108007, -337.3371060532518, 0.8800000417977571, 0.35200001671910286, 0.4640000220388174, 0.0, 0.0, 0.0, 0.0, 0.0, 1.710394337776096E9, 0.0, 2024-03-13 22:32:17.776
2.0, -675.7924421932548, -317.0219694939442, -434.10327750677243, -349.56657890835777, 0.8800000417977571, 0.35200001671910286, 0.4640000220388174, 0.0, 0.0, 0.0, 0.0, 0.0, 1.710394337776096E9, 0.0, 2024-03-13 22:32:17.776
3.0, -668.4622382801026, -310.59682137006894, -421.8887642514892, -341.7053092014976, 0.8800000417977571, 0.35200001671910286, 0.4640000220388174, 0.0, 0.0, 0.0, 0.0, 0.0, 1.7103943377768507E9, 0.0, 2024-03-13 22:32:17.776
3.0, -663.6564668370411, -311.4719579597004, -406.52525523351505, -339.5212076273747, 0.8800000417977571, 0.35200001671910286, 0.4640000220388174, 0.0, 0.0, 0.0, 0.0, 0.0, 1.7103943377768507E9, 0.0, 2024-03-13 22:32:17.776
4.0, -666.1846392070875, -317.36978018982336, -418.30967999389395, -345.5985450553708, 0.8800000417977571, 0.35200001671910286, 0.4640000220388174, 0.0, 0.0, 0.0, 0.0, 0.0, 1.7103943377889433E9, 0.0, 2024-03-13 22:32:17.788
4.0, -665.5899951141328, -316.9509113947861, -430.80094584589824, -343.8220925764181, 0.8800000417977571, 0.35200001671910286, 0.4640000220388174, 0.0, 0.0, 0.0, 0.0, 0.0, 1.7103943377889433E9, 0.0, 2024-03-13 22:32:17.788
5.0, -661.8538350583985, -307.3805074081756, -411.4806226748042, -339.468849027995, 0.8800000417977571, 0.35200001671910286, 0.4640000220388174, 0.0, 0.0, 0.0, 0.0, 0.0, 1.7103943378047419E9, 0.0, 2024-03-13 22:32:17.804
5.0, -671.2634233469144, -313.6822388335131, -412.3333198647015, -340.93862971058115, 0.8800000417977571, 0.35200001671910286, 0.4640000220388174, 0.0, 0.0, 0.0, 0.0, 0.0, 1.7103943378047419E9, 0.0, 2024-03-13 22:32:17.804
6.0, -667.1121343960986, -304.2726505449973, -433.6993683115579, -349.3421849110164, 0.8800000417977571, 0.35200001671910286, 0.4640000220388174, 0.0, 0.0, 0.0, 0.0, 0.0, 1.7103943378053424E9, 0.0, 2024-03-13 22:32:17.805
6.0, -670.61642065458, -311.7636701562442, -427.31535908719525, -349.53665970871225, 0.8800000417977571, 0.35200001671910286, 0.4640000220388174, 0.0, 0.0, 0.0, 0.0, 0.0, 1.7103943378053424E9, 0.0, 2024-03-13 22:32:17.805
7.0, -682.905731908977, -323.27134231990203, -424.2598608233966, -352.9549282682128, 0.8800000417977571, 0.35200001671910286, 0.4640000220388174, 0.0, 0.0, 0.0, 0.0, 0.0, 1.710394337819024E9, 0.0, 2024-03-13 22:32:17.819
7.0, -683.1450855061412, -322.8487336249091, -438.6696953526698, -354.7874792465009, 0.8800000417977571, 0.35200001671910286, 0.4640000220388174, 0.0, 0.0, 0.0, 0.0, 0.0, 1.710394337819024E9, 0.0, 2024-03-13 22:32:17.819
8.0, -675.5867476956919, -319.5127428644337, -438.53879885422066, -349.16266971314326, 0.8800000417977571, 0.35200001671910286, 0.4640000220388174, 0.0, 0.0, 0.0, 0.0, 0.0, 1.7103943378351085E9, 0.0, 2024-03-13 22:32:17.835
8.0, -672.7967823287472, -317.4931968883611, -412.9130043578334, -342.68142308993265, 0.8800000417977571, 0.35200001671910286, 0.4640000220388174, 0.0, 0.0, 0.0, 0.0, 0.0, 1.7103943378351085E9, 0.0, 2024-03-13 22:32:17.835
9.0, -676.3983059860766, -316.89855279540643, -425.4080101097934, -348.3361518229358, 0.8800000417977571, 0.35200001671910286, 0.4640000220388174, 0.0, 0.0, 0.0, 0.0, 0.0, 1.710394337835467E9, 0.0, 2024-03-13 22:32:17.835
9.0, -673.5559820197523, -320.00640965858474, -436.76982617517933, -350.23602100042626, 0.8800000417977571, 0.35200001671910286, 0.4640000220388174, 0.0, 0.0, 0.0, 0.0, 0.0, 1.710394337835467E9, 0.0, 2024-03-13 22:32:17.835
10.0, -665.3768208166584, -316.8686335957609, -415.49727522721514, -340.5048013157211, 0.8800000417977571, 0.35200001671910286, 0.4480000212788582, 0.0, 0.0, 0.0, 0.0, 0.0, 1.7103943378489146E9, 0.0, 2024-03-13 22:32:17.848
10.0, -670.5902413548902, -315.36519381357357, -414.57351993815973, -337.6288182497956, 0.8800000417977571, 0.35200001671910286, 0.4480000212788582, 0.0, 0.0, 0.0, 0.0, 0.0, 1.7103943378489146E9, 0.0, 2024-03-13 22:32:17.848
11.0, -670.2985291583464, -313.6186605342664, -430.9281024443917, -335.86732537066564, 0.8800000417977571, 0.35200001671910286, 0.4480000212788582, 0.0, 0.0, 0.0, 0.0, 0.0, 1.7103943378653035E9, 0.0, 2024-03-13 22:32:17.865
11.0, -665.4890178153291, -311.0979679641314, -417.64771770173684, -336.00570166902617, 0.8800000417977571, 0.35200001671910286, 0.4480000212788582, 0.0, 0.0, 0.0, 0.0, 0.0, 1.7103943378653035E9, 0.0, 2024-03-13 22:32:17.865
12.0, -658.7347584953532, -310.0919348760508, -403.6829312671907, -329.67031114408746, 0.8800000417977571, 0.35200001671910286, 0.4480000212788582, 0.0, 0.0, 0.0, 0.0, 0.0, 1.710394337865381E9, 0.0, 2024-03-13 22:32:17.865
12.0, -668.312642281875, -313.0838548406027, -425.5127273085527, -338.4740356397815, 0.8800000417977571, 0.35200001671910286, 0.4480000212788582, 0.0, 0.0, 0.0, 0.0, 0.0, 1.710394337865381E9, 0.0, 2024-03-13 22:32:17.865
13.0, -678.3617534628138, -327.5385681693442, -437.7534198635258, -354.90715604508296, 0.8800000417977571, 0.35200001671910286, 0.4480000212788582, 0.0, 0.0, 0.0, 0.0, 0.0, 1.7103943378789315E9, 0.0, 2024-03-13 22:32:17.878
13.0, -669.9619381623343, -319.243470067624, -423.3772444338538, -350.3033391996287, 0.8800000417977571, 0.35200001671910286, 0.4480000212788582, 0.0, 0.0, 0.0, 0.0, 0.0, 1.7103943378789315E9, 0.0, 2024-03-13 22:32:17.878
14.0, -676.6002605836838, -319.96901065902784, -432.7756130225025, -357.5250860140659, 0.8800000417977571, 0.35200001671910286, 0.4480000212788582, 0.0, 0.0, 0.0, 0.0, 0.0, 1.7103943378947675E9, 0.0, 2024-03-13 22:32:17.894
14.0, -668.144346783869, -316.6218001986854, -439.32417784491554, -351.47018798580393, 0.8800000417977571, 0.35200001671910286, 0.4480000212788582, 0.0, 0.0, 0.0, 0.0, 0.0, 1.7103943378947675E9, 0.0, 2024-03-13 22:32:17.894
15.0, -658.8357357941568, -303.0571830593981, -420.56857956713066, -344.31949927052483, 0.8800000417977571, 0.35200001671910286, 0.4480000212788582, 0.0, 0.0, 0.0, 0.0, 0.0, 1.7103943378953533E9, 0.0, 2024-03-13 22:32:17.895
15.0, -661.2928500650451, -302.51863746577874, -417.2812075060792, -340.5833392147906, 0.8800000417977571, 0.35200001671910286, 0.4480000212788582, 0.0, 0.0, 0.0, 0.0, 0.0, 1.7103943378953533E9, 0.0, 2024-03-13 22:32:17.895
16.0, -662.4596988512203, -310.52576327091083, -433.553512213286, -342.9319963869639, 0.8800000417977571, 0.35200001671910286, 0.4480000212788582, 0.0, 0.0, 0.0, 0.0, 0.0, 1.71039433790895E9, 0.0, 2024-03-13 22:32:17.908
16.0, -648.5397912161425, -296.81529003335163, -412.90552455792204, -330.6875639320351, 0.8800000417977571, 0.35200001671910286, 0.4480000212788582, 0.0, 0.0, 0.0, 0.0, 0.0, 1.71039433790895E9, 0.0, 2024-03-13 22:32:17.908
17.0, -658.327109400183, -304.9383527371101, -402.9835699754767, -331.27098832512274, 0.8800000417977571, 0.35200001671910286, 0.4480000212788582, 0.0, 0.0, 0.0, 0.0, 0.0, 1.7103943379247823E9, 0.0, 2024-03-13 22:32:17.924
17.0, -661.7378981597722, -307.74327770387754, -424.8545049163513, -337.37824495276436, 0.8800000417977571, 0.35200001671910286, 0.4480000212788582, 0.0, 0.0, 0.0, 0.0, 0.0, 1.7103943379247823E9, 0.0, 2024-03-13 22:32:17.924
18.0, -655.166893937625, -305.61527462909, -414.9101109341718, -330.41829113522545, 0.8800000417977571, 0.35200001671910286, 0.4480000212788582, 0.0, 0.0, 0.0, 0.0, 0.0, 1.7103943379255617E9, 0.0, 2024-03-13 22:32:17.925
18.0, -659.3742813877761, -313.6859787334688, -407.0189220276661, -335.38861817633733, 0.8800000417977571, 0.35200001671910286, 0.4480000212788582, 0.0, 0.0, 0.0, 0.0, 0.0, 1.7103943379255617E9, 0.0, 2024-03-13 22:32:17.925
19.0, -668.8287484757602, -320.4701572530903, -420.09361227275804, -339.60348542639986, 0.8800000417977571, 0.35200001671910286, 0.4480000212788582, 0.0, 0.0, 0.0, 0.0, 0.0, 1.7103943379389696E9, 0.0, 2024-03-13 22:32:17.938
19.0, -663.222638442181, -314.00387022970244, -429.5518192606978, -339.3753515291028, 0.8800000417977571, 0.35200001671910286, 0.4480000212788582, 0.0, 0.0, 0.0, 0.0, 0.0, 1.7103943379389696E9, 0.0, 2024-03-13 22:32:17.938
20.0, -660.8253625705838, -319.6062403633259, -415.7740278239362, -338.45533614000306, 0.8800000417977571, 0.35200001671910286, 0.4480000212788582, 0.0, 0.0, 0.0, 0.0, 0.0, 1.710394337954798E9, 0.0, 2024-03-13 22:32:17.954
20.0, -673.6457396186888, -320.7282103500329, -417.5056015034206, -345.5611460558139, 0.8800000417977571, 0.35200001671910286, 0.4480000212788582, 0.0, 0.0, 0.0, 0.0, 0.0, 1.710394337954798E9, 0.0, 2024-03-13 22:32:17.954
21.0, -674.9360051034018, -323.4658171175979, -432.5848781247623, -347.0421464382671, 0.8800000417977571, 0.35200001671910286, 0.4480000212788582, 0.0, 0.0, 0.0, 0.0, 0.0, 1.710394337955352E9, 0.0, 2024-03-13 22:32:17.955
21.0, -661.764077459462, -303.36759475572035, -409.7677484950982, -333.31297370092943, 0.8800000417977571, 0.35200001671910286, 0.4480000212788582, 0.0, 0.0, 0.0, 0.0, 0.0, 1.710394337955352E9, 0.0, 2024-03-13 22:32:17.955
22.0, -663.4395526396111, -309.5010306830518, -398.3199147307314, -334.08713299175724, 0.8800000417977571, 0.35200001671910286, 0.4480000212788582, 0.0, 0.0, 0.0, 0.0, 0.0, 1.7103943379689233E9, 0.0, 2024-03-13 22:32:17.968
22.0, -663.6153279375285, -307.6796994046308, -424.4692952209152, -335.9122041701339, 0.8800000417977571, 0.35200001671910286, 0.4480000212788582, 0.0, 0.0, 0.0, 0.0, 0.0, 1.7103943379689233E9, 0.0, 2024-03-13 22:32:17.968
23.0, -663.2675172416493, -310.5631622704677, -427.6669096830301, -342.09425879688933, 0.8800000417977571, 0.35200001671910286, 0.4480000212788582, 0.0, 0.0, 0.0, 0.0, 0.0, 1.7103943379849672E9, 0.0, 2024-03-13 22:32:17.984
23.0, -661.4648854630068, -307.54880290618166, -404.2775753601454, -336.2450552661903, 0.8800000417977571, 0.35200001671910286, 0.4480000212788582, 0.0, 0.0, 0.0, 0.0, 0.0, 1.7103943379849672E9, 0.0, 2024-03-13 22:32:17.984
24.0, -666.0986215081066, -309.7590837799944, -417.4083641045727, -339.2968136300333, 0.8800000417977571, 0.35200001671910286, 0.4480000212788582, 0.0, 0.0, 0.0, 0.0, 0.0, 1.7103943379853907E9, 0.0, 2024-03-13 22:32:17.985
24.0, -663.8995603341609, -306.37073442013934, -427.6706495829858, -340.2878871182911, 0.8800000417977571, 0.35200001671910286, 0.4480000212788582, 0.0, 0.0, 0.0, 0.0, 0.0, 1.7103943379853907E9, 0.0, 2024-03-13 22:32:17.985
25.0, -663.4919112389907, -312.3957132487558, -415.8750051227398, -337.56150005059317, 0.8800000417977571, 0.35200001671910286, 0.4480000212788582, 0.0, 0.0, 0.0, 0.0, 0.0, 1.7103943379992845E9, 0.0, 2024-03-13 22:32:17.999
25.0, -658.1139351027086, -302.0062711718492, -413.2159362542443, -333.2568752015941, 0.8800000417977571, 0.35200001671910286, 0.4480000212788582, 0.0, 0.0, 0.0, 0.0, 0.0, 1.7103943379992845E9, 0.0, 2024-03-13 22:32:17.999
26.0, -665.2571440180764, -313.51768323546275, -436.49681347841397, -344.15868357243016, 0.8800000417977571, 0.35200001671910286, 0.4480000212788582, 0.0, 0.0, 0.0, 0.0, 0.0, 1.710394338015006E9, 0.0, 2024-03-13 22:32:18.015
26.0, -663.81354263518, -311.19146546302363, -421.2978600584902, -338.6198917380534, 0.8800000417977571, 0.35200001671910286, 0.4480000212788582, 0.0, 0.0, 0.0, 0.0, 0.0, 1.710394338015006E9, 0.0, 2024-03-13 22:32:18.015
27.0, -668.9633848741651, -312.7248244448565, -410.1791374902241, -336.839699359145, 0.8800000417977571, 0.35200001671910286, 0.4480000212788582, 0.0, 0.0, 0.0, 0.0, 0.0, 1.7103943380154464E9, 0.0, 2024-03-13 22:32:18.015
27.0, -683.0740274069831, -326.52505528135225, -435.1429696944542, -354.0806381548755, 0.8800000417977571, 0.35200001671910286, 0.4480000212788582, 0.0, 0.0, 0.0, 0.0, 0.0, 1.7103943380154464E9, 0.0, 2024-03-13 22:32:18.015
28.0, -668.5706953788176, -312.96417804202065, -433.57221171306446, -348.1902957246639, 0.8800000417977571, 0.35200001671910286, 0.4480000212788582, 0.0, 0.0, 0.0, 0.0, 0.0, 1.7103943380292313E9, 0.0, 2024-03-13 22:32:18.029
28.0, -670.3471478577703, -316.13187330449, -415.9909420213662, -336.42083056410775, 0.8800000417977571, 0.35200001671910286, 0.4480000212788582, 0.0, 0.0, 0.0, 0.0, 0.0, 1.7103943380292313E9, 0.0, 2024-03-13 22:32:18.029
29.0, -673.0062167262658, -320.3916193540208, -425.292073211167, -343.2573676831089, 0.8800000417977571, 0.35200001671910286, 0.4480000212788582, 0.0, 0.0, 0.0, 0.0, 0.0, 1.7103943380447466E9, 0.0, 2024-03-13 22:32:18.044
29.0, -667.1831924952567, -309.92737927800044, -435.95452798483893, -343.9866481744684, 0.8800000417977571, 0.35200001671910286, 0.4480000212788582, 0.0, 0.0, 0.0, 0.0, 0.0, 1.7103943380447466E9, 0.0, 2024-03-13 22:32:18.044
30.0, -664.3296488290653, -298.5655632126145, -413.7769212475978, -336.8135200594552, 0.8800000417977571, 0.35200001671910286, 0.4640000220388174, 0.0, 0.0, 0.0, 0.0, 0.0, 1.7103943380453472E9, 0.0, 2024-03-13 22:32:18.045
30.0, -667.4487253921106, -302.1633469699882, -413.5525272502564, -335.97952236933634, 0.8800000417977571, 0.35200001671910286, 0.4640000220388174, 0.0, 0.0, 0.0, 0.0, 0.0, 1.7103943380453472E9, 0.0, 2024-03-13 22:32:18.045
31.0, -660.75056457147, -306.9504189132713, -431.7134814350866, -337.78589404793456, 0.8800000417977571, 0.35200001671910286, 0.4640000220388174, 0.0, 0.0, 0.0, 0.0, 0.0, 1.7103943380591023E9, 0.0, 2024-03-13 22:32:18.059
31.0, -656.8722883174196, -299.47061900189146, -427.0760054900311, -335.8523657708429, 0.8800000417977571, 0.35200001671910286, 0.4640000220388174, 0.0, 0.0, 0.0, 0.0, 0.0, 1.7103943380591023E9, 0.0, 2024-03-13 22:32:18.059
32.0, -651.5279712807387, -299.07418960658833, -405.6501186438836, -332.04514761595055, 0.8800000417977571, 0.35200001671910286, 0.4640000220388174, 0.0, 0.0, 0.0, 0.0, 0.0, 1.7103943380747228E9, 0.0, 2024-03-13 22:32:18.074
32.0, -651.898221376352, -286.4856863557361, -422.53576694382355, -331.9254708173685, 0.8800000417977571, 0.35200001671910286, 0.4640000220388174, 0.0, 0.0, 0.0, 0.0, 0.0, 1.7103943380747228E9, 0.0, 2024-03-13 22:32:18.074
33.0, -643.4759666761383, -286.1528352596797, -425.35565151041374, -328.37256585946307, 0.8800000417977571, 0.35200001671910286, 0.4640000220388174, 0.0, 0.0, 0.0, 0.0, 0.0, 1.7103943380753677E9, 0.0, 2024-03-13 22:32:18.075
33.0, -652.9528731638566, -297.3089568275027, -405.22750994889066, -334.68551698466763, 0.8800000417977571, 0.35200001671910286, 0.4640000220388174, 0.0, 0.0, 0.0, 0.0, 0.0, 1.7103943380753677E9, 0.0, 2024-03-13 22:32:18.075
34.0, -655.1631540376693, -293.9019079678692, -412.75218865973875, -334.367625488434, 0.8800000417977571, 0.35200001671910286, 0.4640000220388174, 0.0, 0.0, 0.0, 0.0, 0.0, 1.7103943381054096E9, 0.0, 2024-03-13 22:32:18.105
34.0, -654.8864014409482, -294.39183486206457, -430.8832236449234, -333.75428189570084, 0.8800000417977571, 0.35200001671910286, 0.4640000220388174, 0.0, 0.0, 0.0, 0.0, 0.0, 1.7103943381054096E9, 0.0, 2024-03-13 22:32:18.105
35.0, -653.5699566565454, -301.40414727898315, -420.2170289712958, -335.6952899727039, 0.8800000417977571, 0.35200001671910286, 0.4640000220388174, 0.0, 0.0, 0.0, 0.0, 0.0, 1.7103943381061156E9, 0.0, 2024-03-13 22:32:18.106
35.0, -663.5068708388135, -300.7646243865602, -415.583292926196, -336.5853861621581, 0.8800000417977571, 0.35200001671910286, 0.4640000220388174, 0.0, 0.0, 0.0, 0.0, 0.0, 1.7103943381061156E9, 0.0, 2024-03-13 22:32:18.106
36.0, -661.0310570681468, -303.9734585485421, -436.7099877758883, -341.3200995060615, 0.8800000417977571, 0.35200001671910286, 0.4640000220388174, 0.0, 0.0, 0.0, 0.0, 0.0, 1.7103943381068296E9, 0.0, 2024-03-13 22:32:18.106
36.0, -654.9163206405938, -299.9081872967072, -420.5461401673965, -332.9913423047401, 0.8800000417977571, 0.35200001671910286, 0.4640000220388174, 0.0, 0.0, 0.0, 0.0, 0.0, 1.7103943381068296E9, 0.0, 2024-03-13 22:32:18.106
37.0, -654.8639620412141, -290.3789222096093, -405.18637104937807, -327.55726766912267, 0.8800000417977571, 0.35200001671910286, 0.4640000220388174, 0.0, 0.0, 0.0, 0.0, 0.0, 1.7103943381189563E9, 0.0, 2024-03-13 22:32:18.118
37.0, -651.9543198756874, -298.03075751895085, -417.9207303985022, -329.7376293432899, 0.8800000417977571, 0.35200001671910286, 0.4640000220388174, 0.0, 0.0, 0.0, 0.0, 0.0, 1.7103943381189563E9, 0.0, 2024-03-13 22:32:18.118
38.0, -658.3308493001387, -308.4912576950155, -425.53890660824254, -339.23323533078656, 0.8800000417977571, 0.35200001671910286, 0.4640000220388174, 0.0, 0.0, 0.0, 0.0, 0.0, 1.7103943381346362E9, 0.0, 2024-03-13 22:32:18.134
38.0, -662.6766130486503, -305.9780449247919, -409.85376619407907, -340.27666741842404, 0.8800000417977571, 0.35200001671910286, 0.4640000220388174, 0.0, 0.0, 0.0, 0.0, 0.0, 1.7103943381346362E9, 0.0, 2024-03-13 22:32:18.134
39.0, -662.0857088556513, -310.22657127445564, -425.8792375042103, -345.6995223541744, 0.8800000417977571, 0.35200001671910286, 0.4640000220388174, 0.0, 0.0, 0.0, 0.0, 0.0, 1.7103943381353495E9, 0.0, 2024-03-13 22:32:18.135
39.0, -669.8796603633091, -312.00676365336403, -444.47775998385623, -350.3332583992742, 0.8800000417977571, 0.35200001671910286, 0.4640000220388174, 0.0, 0.0, 0.0, 0.0, 0.0, 1.7103943381353495E9, 0.0, 2024-03-13 22:32:18.135
40.0, -664.9429924217984, -307.3580680084415, -420.72191546531394, -344.42047656932846, 0.8800000417977571, 0.35200001671910286, 0.4640000220388174, 0.0, 0.0, 0.0, 0.0, 0.0, 1.7103943381489463E9, 0.0, 2024-03-13 22:32:18.148
40.0, -662.5008377507329, -305.4282796313055, -412.5913729616441, -338.8816847349517, 0.8800000417977571, 0.35200001671910286, 0.4640000220388174, 0.0, 0.0, 0.0, 0.0, 0.0, 1.7103943381489463E9, 0.0, 2024-03-13 22:32:18.148
41.0, -665.9565053097904, -312.646286545787, -431.4404687383212, -348.45956852147356, 0.8800000417977571, 0.35200001671910286, 0.4640000220388174, 0.0, 0.0, 0.0, 0.0, 0.0, 1.7103943381648548E9, 0.0, 2024-03-13 22:32:18.164
41.0, -659.4640389867127, -304.3511884440668, -422.9920347384177, -344.76080746529624, 0.8800000417977571, 0.35200001671910286, 0.4640000220388174, 0.0, 0.0, 0.0, 0.0, 0.0, 1.7103943381648548E9, 0.0, 2024-03-13 22:32:18.164
42.0, -673.8439543163404, -313.0277563412674, -415.8413460231386, -349.79097290569916, 0.8800000417977571, 0.35200001671910286, 0.4640000220388174, 0.0, 0.0, 0.0, 0.0, 0.0, 1.710394338165526E9, 0.0, 2024-03-13 22:32:18.165
42.0, -667.7292178887874, -309.40379328420386, -431.7434006347321, -353.39623646298423, 0.8800000417977571, 0.35200001671910286, 0.4640000220388174, 0.0, 0.0, 0.0, 0.0, 0.0, 1.710394338165526E9, 0.0, 2024-03-13 22:32:18.165
43.0, -663.5068708388135, -312.9753977418877, -429.50320056127384, -343.79217337677255, 0.8800000417977571, 0.35200001671910286, 0.4640000220388174, 0.0, 0.0, 0.0, 0.0, 0.0, 1.7103943381792328E9, 0.0, 2024-03-13 22:32:18.179
43.0, -667.5085637914017, -311.56171555863693, -416.9146973104216, -345.9687951509841, 0.8800000417977571, 0.35200001671910286, 0.4640000220388174, 0.0, 0.0, 0.0, 0.0, 0.0, 1.7103943381792328E9, 0.0, 2024-03-13 22:32:18.179
44.0, -670.350887757726, -318.3084950787015, -432.47268112609163, -355.24000714113936, 0.8800000417977571, 0.35200001671910286, 0.4640000220388174, 0.0, 0.0, 0.0, 0.0, 0.0, 1.710394338194651E9, 0.0, 2024-03-13 22:32:18.194
44.0, -657.9718189043924, -310.2490106741898, -435.84233098616824, -351.08871819032356, 0.8800000417977571, 0.35200001671910286, 0.4640000220388174, 0.0, 0.0, 0.0, 0.0, 0.0, 1.710394338194651E9, 0.0, 2024-03-13 22:32:18.194
45.0, -661.4574056630954, -308.7306112921797, -421.1856630598195, -350.2135816006921, 0.8800000417977571, 0.35200001671910286, 0.4640000220388174, 0.0, 0.0, 0.0, 0.0, 0.0, 1.7103943381953845E9, 0.0, 2024-03-13 22:32:18.195
45.0, -674.1880251122639, -326.2109036850743, -425.3668712102808, -355.27740614069626, 0.8800000417977571, 0.35200001671910286, 0.4640000220388174, 0.0, 0.0, 0.0, 0.0, 0.0, 1.7103943381953845E9, 0.0, 2024-03-13 22:32:18.195
46.0, -677.2659627757967, -319.6885181623511, -436.6688488763757, -351.12237728992477, 0.8800000417977571, 0.35200001671910286, 0.4640000220388174, 0.0, 0.0, 0.0, 0.0, 0.0, 1.710394338208999E9, 0.0, 2024-03-13 22:32:18.208
46.0, -666.6147277019918, -316.52082289988175, -425.0377600141801, -350.31455889949575, 0.8800000417977571, 0.35200001671910286, 0.4640000220388174, 0.0, 0.0, 0.0, 0.0, 0.0, 1.710394338208999E9, 0.0, 2024-03-13 22:32:18.208
47.0, -676.0654548900202, -330.74740233132616, -420.9537892625667, -355.72619413537905, 0.8800000417977571, 0.35200001671910286, 0.4640000220388174, 0.0, 0.0, 0.0, 0.0, 0.0, 1.7103943382246368E9, 0.0, 2024-03-13 22:32:18.224
47.0, -682.471903514117, -326.43155778246, -441.2016076226719, -365.98847961379215, 0.8800000417977571, 0.35200001671910286, 0.4640000220388174, 0.0, 0.0, 0.0, 0.0, 0.0, 1.7103943382246368E9, 0.0, 2024-03-13 22:32:18.224
48.0, -677.6287330714986, -324.176398109179, -443.1837545991875, -364.35788323311135, 0.8800000417977571, 0.35200001671910286, 0.4640000220388174, 0.0, 0.0, 0.0, 0.0, 0.0, 1.7103943382253773E9, 0.0, 2024-03-13 22:32:18.225
48.0, -676.4319650856778, -320.2046243562363, -437.3682101680897, -358.777952499222, 0.8800000417977571, 0.35200001671910286, 0.4640000220388174, 0.0, 0.0, 0.0, 0.0, 0.0, 1.7103943382253773E9, 0.0, 2024-03-13 22:32:18.225
49.0, -676.6413994831964, -323.7238702145405, -439.1970212464221, -358.91632879758254, 0.8800000417977571, 0.35200001671910286, 0.4640000220388174, 0.0, 0.0, 0.0, 0.0, 0.0, 1.7103943382390063E9, 0.0, 2024-03-13 22:32:18.239
49.0, -670.7884560525417, -320.690811350476, -446.4898261600174, -355.54667893750593, 0.8800000417977571, 0.35200001671910286, 0.4640000220388174, 0.0, 0.0, 0.0, 0.0, 0.0, 1.7103943382390063E9, 0.0, 2024-03-13 22:32:18.239
50.0, -665.9116265103221, -308.96248508943245, -425.3631313103251, -350.9166827923618, 0.8800000417977571, 0.35200001671910286, 0.4640000220388174, 0.0, 0.0, 0.0, 0.0, 0.0, 1.710394338271068E9, 0.0, 2024-03-13 22:32:18.271
50.0, -680.7440697345883, -317.8372676842846, -426.31306589907035, -351.24205408850685, 0.8800000417977571, 0.35200001671910286, 0.4640000220388174, 0.0, 0.0, 0.0, 0.0, 0.0, 1.710394338271068E9, 0.0, 2024-03-13 22:32:18.271
51.0, -673.2792294230312, -318.1626389804296, -447.4622001484968, -355.0717116431333, 0.8800000417977571, 0.35200001671910286, 0.4640000220388174, 0.0, 0.0, 0.0, 0.0, 0.0, 1.7103943382717533E9, 0.0, 2024-03-13 22:32:18.271
51.0, -677.0116495788097, -323.89590561250225, -432.76813322259113, -353.6318501601927, 0.8800000417977571, 0.35200001671910286, 0.4640000220388174, 0.0, 0.0, 0.0, 0.0, 0.0, 1.7103943382717533E9, 0.0, 2024-03-13 22:32:18.271
52.0, -684.3268938921392, -324.56534770457074, -418.9903417858295, -347.8125658291392, 0.8800000417977571, 0.35200001671910286, 0.4640000220388174, 0.0, 0.0, 0.0, 0.0, 0.0, 1.7103943382725065E9, 0.0, 2024-03-13 22:32:18.272
52.0, -678.2233771644533, -320.23080365592614, -432.6297569242306, -354.27885285252705, 0.8800000417977571, 0.35200001671910286, 0.4640000220388174, 0.0, 0.0, 0.0, 0.0, 0.0, 1.7103943382725065E9, 0.0, 2024-03-13 22:32:18.272
53.0, -670.2648700587451, -318.6600456745364, -428.53456647275016, -343.42192328115925, 0.8800000417977571, 0.35200001671910286, 0.4640000220388174, 0.0, 0.0, 0.0, 0.0, 0.0, 1.7103943382732503E9, 0.0, 2024-03-13 22:32:18.273
53.0, -669.494450667873, -320.6945512504317, -412.628771961201, -346.2530275476165, 0.8800000417977571, 0.35200001671910286, 0.4640000220388174, 0.0, 0.0, 0.0, 0.0, 0.0, 1.7103943382732503E9, 0.0, 2024-03-13 22:32:18.273
54.0, -682.3223075158894, -330.2125966376625, -435.857290585991, -360.69278127653524, 0.8800000417977571, 0.35200001671910286, 0.4640000220388174, 0.0, 0.0, 0.0, 0.0, 0.0, 1.710394338284384E9, 0.0, 2024-03-13 22:32:18.284
54.0, -675.235197099857, -327.93499756464735, -442.28991850977764, -354.79121914645657, 0.8800000417977571, 0.35200001671910286, 0.4640000220388174, 0.0, 0.0, 0.0, 0.0, 0.0, 1.710394338284384E9, 0.0, 2024-03-13 22:32:18.284
55.0, -674.3600605102256, -310.5295031708665, -416.78380081197247, -343.86697137588635, 0.8800000417977571, 0.35200001671910286, 0.4640000220388174, 0.0, 0.0, 0.0, 0.0, 0.0, 1.710394338299232E9, 0.0, 2024-03-13 22:32:18.299
55.0, -679.9474710440263, -320.3130814549513, -413.86667884653434, -344.8393453643657, 0.8800000417977571, 0.35200001671910286, 0.4640000220388174, 0.0, 0.0, 0.0, 0.0, 0.0, 1.710394338299232E9, 0.0, 2024-03-13 22:32:18.299
56.0, -672.1796988360584, -318.52540927613154, -427.2966595874168, -341.0358671094291, 0.8800000417977571, 0.35200001671910286, 0.4640000220388174, 0.0, 0.0, 0.0, 0.0, 0.0, 1.710394338315179E9, 0.0, 2024-03-13 22:32:18.315
56.0, -668.2864629821852, -305.5255170301534, -420.26938757067546, -337.0341741568409, 0.8800000417977571, 0.35200001671910286, 0.4640000220388174, 0.0, 0.0, 0.0, 0.0, 0.0, 1.710394338315179E9, 0.0, 2024-03-13 22:32:18.315
57.0, -671.5476557435468, -316.0907344049774, -415.49727522721514, -345.7743203532882, 0.8800000417977571, 0.35200001671910286, 0.4640000220388174, 0.0, 0.0, 0.0, 0.0, 0.0, 1.710394338315528E9, 0.0, 2024-03-13 22:32:18.315
57.0, -671.147486448288, -318.9854169706814, -431.20859494106844, -343.82957237632945, 0.8800000417977571, 0.35200001671910286, 0.4640000220388174, 0.0, 0.0, 0.0, 0.0, 0.0, 1.710394338315528E9, 0.0, 2024-03-13 22:32:18.315
58.0, -670.0068169618025, -305.77983022714034, -430.4755745497532, -342.7001225897111, 0.8800000417977571, 0.35200001671910286, 0.4640000220388174, 0.0, 0.0, 0.0, 0.0, 0.0, 1.7103943383290098E9, 0.0, 2024-03-13 22:32:18.329
58.0, -665.3057627175003, -304.63168094074354, -412.78958765929565, -341.3574985056184, 0.8800000417977571, 0.35200001671910286, 0.4640000220388174, 0.0, 0.0, 0.0, 0.0, 0.0, 1.7103943383290098E9, 0.0, 2024-03-13 22:32:18.329
59.0, -674.2478635115549, -313.8056555320509, -423.7437546295114, -346.90003023995087, 0.8800000417977571, 0.35200001671910286, 0.4640000220388174, 0.0, 0.0, 0.0, 0.0, 0.0, 1.7103943383448465E9, 0.0, 2024-03-13 22:32:18.344
59.0, -668.4248392805457, -308.0611692001112, -425.6211844072677, -340.8900110111572, 0.8800000417977571, 0.35200001671910286, 0.4640000220388174, 0.0, 0.0, 0.0, 0.0, 0.0, 1.7103943383448465E9, 0.0, 2024-03-13 22:32:18.344
60.0, -661.7902567591518, -307.6909191044979, -407.7407227191143, -333.8477793945931, 0.8800000417977571, 0.35200001671910286, 0.4640000220388174, 0.0, 0.0, 0.0, 0.0, 0.0, 1.7103943383453355E9, 0.0, 2024-03-13 22:32:18.345
60.0, -669.4009531689808, -313.74207723280415, -411.4320039753802, -335.440976775717, 0.8800000417977571, 0.35200001671910286, 0.4640000220388174, 0.0, 0.0, 0.0, 0.0, 0.0, 1.7103943383453355E9, 0.0, 2024-03-13 22:32:18.345
61.0, -681.1143198302016, -315.92243890697137, -435.58427788922563, -345.43024955736473, 0.8800000417977571, 0.35200001671910286, 0.4640000220388174, 0.0, 0.0, 0.0, 0.0, 0.0, 1.7103943383589945E9, 0.0, 2024-03-13 22:32:18.358
61.0, -664.9018535222858, -311.99554395349696, -419.4092105808668, -336.8359594591893, 0.8800000417977571, 0.35200001671910286, 0.4640000220388174, 0.0, 0.0, 0.0, 0.0, 0.0, 1.7103943383589945E9, 0.0, 2024-03-13 22:32:18.358
62.0, -673.4774441206828, -316.7900956966914, -409.82010709447786, -338.3655785410665, 0.8800000417977571, 0.35200001671910286, 0.4640000220388174, 0.0, 0.0, 0.0, 0.0, 0.0, 1.7103943383747644E9, 0.0, 2024-03-13 22:32:18.374
62.0, -673.3615072220564, -317.34360089013353, -419.4840085799806, -344.3980371695943, 0.8800000417977571, 0.35200001671910286, 0.4640000220388174, 0.0, 0.0, 0.0, 0.0, 0.0, 1.7103943383747644E9, 0.0, 2024-03-13 22:32:18.374
63.0, -656.7002529194579, -307.0214770124294, -409.4648165986873, -328.18931076163426, 0.8800000417977571, 0.35200001671910286, 0.4640000220388174, 0.0, 0.0, 0.0, 0.0, 0.0, 1.710394338375403E9, 0.0, 2024-03-13 22:32:18.375
63.0, -674.7303106058389, -312.8258017436601, -409.1805842020549, -337.961669345852, 0.8800000417977571, 0.35200001671910286, 0.4640000220388174, 0.0, 0.0, 0.0, 0.0, 0.0, 1.710394338375403E9, 0.0, 2024-03-13 22:32:18.375
64.0, -680.168125141412, -321.00496294675395, -417.64771770173684, -342.79735998855904, 0.8800000417977571, 0.35200001671910286, 0.4640000220388174, 0.0, 0.0, 0.0, 0.0, 0.0, 1.7103943383890333E9, 0.0, 2024-03-13 22:32:18.389
64.0, -674.2179443119094, -313.48028423590586, -429.28254646388814, -342.60662509081885, 0.8800000417977571, 0.35200001671910286, 0.4640000220388174, 0.0, 0.0, 0.0, 0.0, 0.0, 1.7103943383890333E9, 0.0, 2024-03-13 22:32:18.389
65.0, -666.1322806077078, -306.7110653161071, -415.93110362207517, -336.53676746273413, 0.8800000417977571, 0.35200001671910286, 0.4640000220388174, 0.0, 0.0, 0.0, 0.0, 0.0, 1.7103943384048047E9, 0.0, 2024-03-13 22:32:18.404
65.0, -674.0459089139476, -312.7136047449894, -412.4006380639039, -345.23577475966886, 0.8800000417977571, 0.35200001671910286, 0.4640000220388174, 0.0, 0.0, 0.0, 0.0, 0.0, 1.7103943384048047E9, 0.0, 2024-03-13 22:32:18.404
66.0, -670.5790216550231, -309.7216847804375, -431.2534737405367, -347.2927197352983, 0.8800000417977571, 0.35200001671910286, 0.4640000220388174, 0.0, 0.0, 0.0, 0.0, 0.0, 1.7103943384054098E9, 0.0, 2024-03-13 22:32:18.405
66.0, -659.2471247892827, -305.7536509274505, -414.64083813736215, -337.45678285183385, 0.8800000417977571, 0.35200001671910286, 0.4640000220388174, 0.0, 0.0, 0.0, 0.0, 0.0, 1.7103943384054098E9, 0.0, 2024-03-13 22:32:18.405
67.0, -665.4441390158609, -309.29907608544454, -409.22546300152317, -336.08423956809565, 0.8800000417977571, 0.35200001671910286, 0.4640000220388174, 0.0, 0.0, 0.0, 0.0, 0.0, 1.7103943384192307E9, 0.0, 2024-03-13 22:32:18.419
67.0, -664.127694231458, -307.18229271052405, -431.0402994430624, -342.7337816893123, 0.8800000417977571, 0.35200001671910286, 0.4640000220388174, 0.0, 0.0, 0.0, 0.0, 0.0, 1.7103943384192307E9, 0.0, 2024-03-13 22:32:18.419
68.0, -657.6501875082031, -300.06526309484616, -426.31680579902604, -337.86817184695974, 0.8800000417977571, 0.35200001671910286, 0.4640000220388174, 0.0, 0.0, 0.0, 0.0, 0.0, 1.7103943384511397E9, 0.0, 2024-03-13 22:32:18.451
68.0, -667.8002759879455, -302.91506686108187, -414.244408742059, -340.27292751846835, 0.8800000417977571, 0.35200001671910286, 0.4640000220388174, 0.0, 0.0, 0.0, 0.0, 0.0, 1.7103943384511397E9, 0.0, 2024-03-13 22:32:18.451
69.0, -672.7219843296334, -310.2452707742341, -425.45662880921736, -344.93658276321366, 0.8800000417977571, 0.35200001671910286, 0.4640000220388174, 0.0, 0.0, 0.0, 0.0, 0.0, 1.710394338451765E9, 0.0, 2024-03-13 22:32:18.451
69.0, -662.1231078552082, -311.36724076094106, -431.6985218352638, -347.3675177344121, 0.8800000417977571, 0.35200001671910286, 0.4640000220388174, 0.0, 0.0, 0.0, 0.0, 0.0, 1.710394338451765E9, 0.0, 2024-03-13 22:32:18.451
70.0, -665.8031694116071, -315.1333200163208, -422.2926734467037, -348.27257352368906, 0.8800000417977571, 0.35200001671910286, 0.4640000220388174, 0.0, 0.0, 0.0, 0.0, 0.0, 1.7103943384525497E9, 0.0, 2024-03-13 22:32:18.452
70.0, -671.6523729423061, -312.84824114339426, -421.481115156319, -348.1566366250627, 0.8800000417977571, 0.35200001671910286, 0.4640000220388174, 0.0, 0.0, 0.0, 0.0, 0.0, 1.7103943384525497E9, 0.0, 2024-03-13 22:32:18.452
71.0, -666.4688716037199, -311.7935893558897, -437.17373537039384, -351.50384708540514, 0.8800000417977571, 0.35200001671910286, 0.4640000220388174, 0.0, 0.0, 0.0, 0.0, 0.0, 1.7103943384533238E9, 0.0, 2024-03-13 22:32:18.453
71.0, -659.7632309831679, -303.84630195004866, -416.0769597203471, -339.27063433034346, 0.8800000417977571, 0.35200001671910286, 0.4640000220388174, 0.0, 0.0, 0.0, 0.0, 0.0, 1.7103943384533238E9, 0.0, 2024-03-13 22:32:18.453
72.0, -660.3354356763884, -305.1590068344958, -410.8373598824255, -337.94296984607354, 0.8800000417977571, 0.35200001671910286, 0.4640000220388174, 0.0, 0.0, 0.0, 0.0, 0.0, 1.7103943384643955E9, 0.0, 2024-03-13 22:32:18.464
72.0, -674.9808839028701, -319.9129121596925, -432.49886042578146, -345.0786989615299, 0.8800000417977571, 0.35200001671910286, 0.4640000220388174, 0.0, 0.0, 0.0, 0.0, 0.0, 1.7103943384643955E9, 0.0, 2024-03-13 22:32:18.464
73.0, -659.9277865812182, -306.74098451575264, -426.35420479858294, -339.85779862338677, 0.8800000417977571, 0.35200001671910286, 0.4640000220388174, 0.0, 0.0, 0.0, 0.0, 0.0, 1.7103943384790251E9, 0.0, 2024-03-13 22:32:18.479
73.0, -667.1981520950794, -313.3119887378998, -416.656644213479, -348.2538740239106, 0.8800000417977571, 0.35200001671910286, 0.4640000220388174, 0.0, 0.0, 0.0, 0.0, 0.0, 1.7103943384790251E9, 0.0, 2024-03-13 22:32:18.479
74.0, -668.42109938059, -321.1395993451588, -429.97442795569077, -351.54498598491773, 0.8800000417977571, 0.35200001671910286, 0.4640000220388174, 0.0, 0.0, 0.0, 0.0, 0.0, 1.710394338494838E9, 0.0, 2024-03-13 22:32:18.494
74.0, -665.7171517126262, -321.96985713532194, -444.3693028851412, -354.2938124523498, 0.8800000417977571, 0.35200001671910286, 0.4640000220388174, 0.0, 0.0, 0.0, 0.0, 0.0, 1.710394338494838E9, 0.0, 2024-03-13 22:32:18.494
75.0, -670.410726157017, -325.5115423933603, -431.4890874377452, -358.43388170329854, 0.8800000417977571, 0.35200001671910286, 0.4640000220388174, 0.0, 0.0, 0.0, 0.0, 0.0, 1.710394338495442E9, 0.0, 2024-03-13 22:32:18.495
75.0, -677.4080789741129, -325.60503989225253, -428.1418769774027, -355.87205023365095, 0.8800000417977571, 0.35200001671910286, 0.4640000220388174, 0.0, 0.0, 0.0, 0.0, 0.0, 1.710394338495442E9, 0.0, 2024-03-13 22:32:18.495
76.0, -676.5179827846587, -323.6191530157812, -443.5203455951996, -362.1887412588112, 0.8800000417977571, 0.35200001671910286, 0.4640000220388174, 0.0, 0.0, 0.0, 0.0, 0.0, 1.710394338508972E9, 0.0, 2024-03-13 22:32:18.508
76.0, -675.1192602012306, -327.07482057483867, -434.61938370065764, -359.42869509151205, 0.8800000417977571, 0.35200001671910286, 0.4640000220388174, 0.0, 0.0, 0.0, 0.0, 0.0, 1.710394338508972E9, 0.0, 2024-03-13 22:32:18.508
77.0, -674.6704722065479, -323.18532462092116, -420.83411246398464, -350.3369982992299, 0.8800000417977571, 0.35200001671910286, 0.4640000220388174, 0.0, 0.0, 0.0, 0.0, 0.0, 1.7103943385246189E9, 0.0, 2024-03-13 22:32:18.524
77.0, -675.078121301718, -324.99917609943077, -444.65727518172935, -357.4802072145976, 0.8800000417977571, 0.35200001671910286, 0.4640000220388174, 0.0, 0.0, 0.0, 0.0, 0.0, 1.7103943385246189E9, 0.0, 2024-03-13 22:32:18.524
78.0, -666.431472604163, -321.7230237382464, -443.2248934987001, -355.71871433546767, 0.8800000417977571, 0.35200001671910286, 0.4640000220388174, 0.0, 0.0, 0.0, 0.0, 0.0, 1.710394338525378E9, 0.0, 2024-03-13 22:32:18.525
78.0, -666.6820459011942, -316.63675979850814, -420.2544279708527, -350.142523501534, 0.8800000417977571, 0.35200001671910286, 0.4640000220388174, 0.0, 0.0, 0.0, 0.0, 0.0, 1.710394338525378E9, 0.0, 2024-03-13 22:32:18.525
79.0, -677.8456472689286, -318.70866437396035, -433.0336661194451, -355.28114604065195, 0.8800000417977571, 0.35200001671910286, 0.4640000220388174, 0.0, 0.0, 0.0, 0.0, 0.0, 1.7103943385390031E9, 0.0, 2024-03-13 22:32:18.539
79.0, -675.7213840940967, -319.7296570618637, -441.9421078138985, -355.35220413981006, 0.8800000417977571, 0.35200001671910286, 0.4640000220388174, 0.0, 0.0, 0.0, 0.0, 0.0, 1.7103943385390031E9, 0.0, 2024-03-13 22:32:18.539
80.0, -674.8799066040665, -314.51997642358765, -418.61261189030483, -345.87155775213614, 0.8800000417977571, 0.35200001671910286, 0.4640000220388174, 0.0, 0.0, 0.0, 0.0, 0.0, 1.7103943385547683E9, 0.0, 2024-03-13 22:32:18.554
80.0, -669.8310416638851, -312.9529583421536, -418.75472808862105, -346.4774215449579, 0.8800000417977571, 0.35200001671910286, 0.4640000220388174, 0.0, 0.0, 0.0, 0.0, 0.0, 1.7103943385547683E9, 0.0, 2024-03-13 22:32:18.554
81.0, -666.4090332044289, -317.5492953876965, -437.27471266919747, -344.293319970835, 0.8800000417977571, 0.35200001671910286, 0.4640000220388174, 0.0, 0.0, 0.0, 0.0, 0.0, 1.7103943385554433E9, 0.0, 2024-03-13 22:32:18.555
81.0, -656.397321023047, -311.6851322571747, -425.4715884090401, -344.558852867689, 0.8800000417977571, 0.35200001671910286, 0.4640000220388174, 0.0, 0.0, 0.0, 0.0, 0.0, 1.7103943385554433E9, 0.0, 2024-03-13 22:32:18.555
82.0, -658.9142736932263, -306.9504189132713, -412.3557592644356, -340.4412230164744, 0.8800000417977571, 0.35200001671910286, 0.4640000220388174, 0.0, 0.0, 0.0, 0.0, 0.0, 1.7103943385693989E9, 0.0, 2024-03-13 22:32:18.569
82.0, -665.5114572150633, -315.492350412067, -435.374843491707, -351.0363595909439, 0.8800000417977571, 0.35200001671910286, 0.4640000220388174, 0.0, 0.0, 0.0, 0.0, 0.0, 1.7103943385693989E9, 0.0, 2024-03-13 22:32:18.569
83.0, -652.6910801669583, -306.14634042279795, -434.43612860282883, -346.1782295485027, 0.8800000417977571, 0.35200001671910286, 0.4640000220388174, 0.0, 0.0, 0.0, 0.0, 0.0, 1.7103943385850456E9, 0.0, 2024-03-13 22:32:18.585
83.0, -662.0670093558729, -313.5775216347538, -418.38821789296344, -345.9687951509841, 0.8800000417977571, 0.35200001671910286, 0.4640000220388174, 0.0, 0.0, 0.0, 0.0, 0.0, 1.7103943385850456E9, 0.0, 2024-03-13 22:32:18.585
84.0, -660.7281251717359, -313.5363827352412, -426.32054569898173, -349.2636470119469, 0.8800000417977571, 0.35200001671910286, 0.4640000220388174, 0.0, 0.0, 0.0, 0.0, 0.0, 1.7103943385856488E9, 0.0, 2024-03-13 22:32:18.585
84.0, -659.0414302917197, -311.7187913567759, -435.57679808931425, -350.78952619386837, 0.8800000417977571, 0.35200001671910286, 0.4640000220388174, 0.0, 0.0, 0.0, 0.0, 0.0, 1.7103943385856488E9, 0.0, 2024-03-13 22:32:18.585
85.0, -648.2331194197759, -299.9044473967515, -414.96994933346286, -337.42312375223264, 0.8800000417977571, 0.35200001671910286, 0.4640000220388174, 0.0, 0.0, 0.0, 0.0, 0.0, 1.7103943385992296E9, 0.0, 2024-03-13 22:32:18.599
85.0, -656.5020382218063, -304.22029194561765, -415.4823156273924, -338.45907603995875, 0.8800000417977571, 0.35200001671910286, 0.4640000220388174, 0.0, 0.0, 0.0, 0.0, 0.0, 1.7103943385992296E9, 0.0, 2024-03-13 22:32:18.599
86.0, -651.1165822856128, -297.2678179279901, -431.24599394062534, -343.2910267827101, 0.8800000417977571, 0.35200001671910286, 0.4640000220388174, 0.0, 0.0, 0.0, 0.0, 0.0, 1.7103943386150625E9, 0.0, 2024-03-13 22:32:18.615
86.0, -647.0700105335563, -301.5612230771221, -417.98430869774893, -338.5226543392055, 0.8800000417977571, 0.35200001671910286, 0.4640000220388174, 0.0, 0.0, 0.0, 0.0, 0.0, 1.7103943386150625E9, 0.0, 2024-03-13 22:32:18.615
87.0, -659.6136349849403, -302.238144969102, -417.13161150785163, -345.46764855692163, 0.8800000417977571, 0.35200001671910286, 0.4640000220388174, 0.0, 0.0, 0.0, 0.0, 0.0, 1.710394338615776E9, 0.0, 2024-03-13 22:32:18.615
87.0, -668.0732886847109, -312.37701374897733, -440.4798069312237, -352.24808717658743, 0.8800000417977571, 0.35200001671910286, 0.4640000220388174, 0.0, 0.0, 0.0, 0.0, 0.0, 1.710394338615776E9, 0.0, 2024-03-13 22:32:18.615
88.0, -661.449925863184, -311.26626346213743, -438.72953375196084, -349.2150283125229, 0.8800000417977571, 0.35200001671910286, 0.4640000220388174, 0.0, 0.0, 0.0, 0.0, 0.0, 1.7103943386289754E9, 0.0, 2024-03-13 22:32:18.628
88.0, -665.4441390158609, -314.86030731955543, -424.7385680177249, -349.7311345064081, 0.8800000417977571, 0.35200001671910286, 0.4640000220388174, 0.0, 0.0, 0.0, 0.0, 0.0, 1.7103943386289754E9, 0.0, 2024-03-13 22:32:18.628
89.0, -665.3917804164812, -314.15720612788573, -435.5543586895801, -354.8473176457919, 0.8800000417977571, 0.35200001671910286, 0.4640000220388174, 0.0, 0.0, 0.0, 0.0, 0.0, 1.7103943386444433E9, 0.0, 2024-03-13 22:32:18.644
89.0, -662.6466938490048, -315.0248629176058, -447.10316975275055, -352.04987247893587, 0.8800000417977571, 0.35200001671910286, 0.4640000220388174, 0.0, 0.0, 0.0, 0.0, 0.0, 1.7103943386444433E9, 0.0, 2024-03-13 22:32:18.644
90.0, -655.4548662342131, -314.3142819260247, -422.3674714458175, -344.1512037725188, 0.8800000417977571, 0.35200001671910286, 0.4640000220388174, 0.0, 0.0, 0.0, 0.0, 0.0, 1.7103943386599548E9, 0.0, 2024-03-13 22:32:18.659
90.0, -659.5500566856936, -311.9095262545161, -421.6942894537933, -346.09221184952185, 0.8800000417977571, 0.35200001671910286, 0.4640000220388174, 0.0, 0.0, 0.0, 0.0, 0.0, 1.7103943386599548E9, 0.0, 2024-03-13 22:32:18.659
91.0, -668.0545891849324, -325.3170675956644, -443.72230019280687, -353.1531429658644, 0.8800000417977571, 0.35200001671910286, 0.4640000220388174, 0.0, 0.0, 0.0, 0.0, 0.0, 1.7103943386604955E9, 0.0, 2024-03-13 22:32:18.660
91.0, -662.1642467547208, -316.85741389589384, -424.64507051883265, -345.20585556002334, 0.8800000417977571, 0.35200001671910286, 0.4640000220388174, 0.0, 0.0, 0.0, 0.0, 0.0, 1.7103943386604955E9, 0.0, 2024-03-13 22:32:18.660
92.0, -674.4535580091178, -325.12259279796854, -420.8079331642948, -354.46958775026724, 0.8800000417977571, 0.35200001671910286, 0.4640000220388174, 0.0, 0.0, 0.0, 0.0, 0.0, 1.710394338674784E9, 0.0, 2024-03-13 22:32:18.674
92.0, -676.8096949812025, -326.4390375823714, -441.7438931162469, -364.25316603435203, 0.8800000417977571, 0.35200001671910286, 0.4640000220388174, 0.0, 0.0, 0.0, 0.0, 0.0, 1.710394338674784E9, 0.0, 2024-03-13 22:32:18.674
93.0, -679.3864860506728, -333.9150975937955, -442.76862570410594, -362.8170444513671, 0.8800000417977571, 0.35200001671910286, 0.4640000220388174, 0.0, 0.0, 0.0, 0.0, 0.0, 1.7103943386754155E9, 0.0, 2024-03-13 22:32:18.675
93.0, -672.2881559347734, -324.75234270235524, -422.9546357388608, -352.5285796732642, 0.8800000417977571, 0.35200001671910286, 0.4640000220388174, 0.0, 0.0, 0.0, 0.0, 0.0, 1.7103943386754155E9, 0.0, 2024-03-13 22:32:18.675
94.0, -677.1275864774361, -334.48730228701606, -423.68765613017604, -355.64765623630956, 0.8800000417977571, 0.35200001671910286, 0.4640000220388174, 0.0, 0.0, 0.0, 0.0, 0.0, 1.7103943386890423E9, 0.0, 2024-03-13 22:32:18.689
94.0, -669.7412840649486, -324.718683602754, -435.7750127869658, -349.3646243107505, 0.8800000417977571, 0.35200001671910286, 0.4640000220388174, 0.0, 0.0, 0.0, 0.0, 0.0, 1.7103943386890423E9, 0.0, 2024-03-13 22:32:18.689
95.0, -668.8511878754944, -318.9480179711245, -426.6982755945064, -352.90630956878886, 0.8800000417977571, 0.35200001671910286, 0.4640000220388174, 0.0, 0.0, 0.0, 0.0, 0.0, 1.710394338704734E9, 0.0, 2024-03-13 22:32:18.704
95.0, -677.3108415752649, -332.67719070846215, -426.24200779991224, -354.09185785474256, 0.8800000417977571, 0.35200001671910286, 0.4640000220388174, 0.0, 0.0, 0.0, 0.0, 0.0, 1.710394338704734E9, 0.0, 2024-03-13 22:32:18.704
96.0, -674.5320959081873, -320.8740664483048, -444.6684948815964, -357.9663942088373, 0.8800000417977571, 0.35200001671910286, 0.4640000220388174, 0.0, 0.0, 0.0, 0.0, 0.0, 1.7103943387054195E9, 0.0, 2024-03-13 22:32:18.705
96.0, -663.0281636444852, -312.7622234444134, -425.53890660824254, -342.2475946950726, 0.8800000417977571, 0.35200001671910286, 0.4640000220388174, 0.0, 0.0, 0.0, 0.0, 0.0, 1.7103943387054195E9, 0.0, 2024-03-13 22:32:18.705
97.0, -656.2926038242877, -311.22512456262484, -406.4242779347114, -333.97867589304224, 0.8800000417977571, 0.35200001671910286, 0.4640000220388174, 0.0, 0.0, 0.0, 0.0, 0.0, 1.7103943387189863E9, 0.0, 2024-03-13 22:32:18.718
97.0, -661.6780597604811, -305.8770676259883, -423.2874868349172, -334.71543618431315, 0.8800000417977571, 0.35200001671910286, 0.4640000220388174, 0.0, 0.0, 0.0, 0.0, 0.0, 1.7103943387189863E9, 0.0, 2024-03-13 22:32:18.718
98.0, -655.5296642333269, -304.8224158384837, -423.64651723066345, -333.33915300061926, 0.8800000417977571, 0.35200001671910286, 0.4640000220388174, 0.0, 0.0, 0.0, 0.0, 0.0, 1.7103943387349184E9, 0.0, 2024-03-13 22:32:18.734
98.0, -654.4824922457337, -301.9090337730013, -409.23294280143455, -338.1150052440353, 0.8800000417977571, 0.35200001671910286, 0.4640000220388174, 0.0, 0.0, 0.0, 0.0, 0.0, 1.7103943387349184E9, 0.0, 2024-03-13 22:32:18.734
99.0, -665.1112879198045, -308.5286566945724, -431.7134814350866, -351.28319298801944, 0.8800000417977571, 0.35200001671910286, 0.4640000220388174, 0.0, 0.0, 0.0, 0.0, 0.0, 1.7103943387354937E9, 0.0, 2024-03-13 22:32:18.735
99.0, -667.8077557878569, -321.5061095408164, -445.77176536852494, -354.1404765541665, 0.8800000417977571, 0.35200001671910286, 0.4640000220388174, 0.0, 0.0, 0.0, 0.0, 0.0, 1.7103943387354937E9, 0.0, 2024-03-13 22:32:18.735
100.0, -668.8063090760261, -313.19231193931773, -426.34672499867156, -348.0070406268351, 0.8800000417977571, 0.35200001671910286, 0.4640000220388174, 0.0, 0.0, 0.0, 0.0, 0.0, 1.7103943387501705E9, 0.0, 2024-03-13 22:32:18.750
100.0, -670.4518650565296, -323.71265051467344, -429.3797838627361, -355.1876485417597, 0.8800000417977571, 0.35200001671910286, 0.4640000220388174, 0.0, 0.0, 0.0, 0.0, 0.0, 1.7103943387501705E9, 0.0, 2024-03-13 22:32:18.750
0.0, -667.5964514403604, -319.026555870194, -441.3867326704785, -354.8136585461907, 0.8800000417977571, 0.35200001671910286, 0.4640000220388174, 0.0, 0.0, 0.0, 0.0, 0.0, 1.710394338750582E9, 0.0, 2024-03-13 22:32:18.750
1.0, -672.1030308869667, -324.1427390095778, -431.8013690840453, -350.3743972987868, 0.8800000417977571, 0.35200001671910286, 0.4640000220388174, 0.0, 0.0, 0.0, 0.0, 0.0, 1.7103943387640603E9, 0.0, 2024-03-13 22:32:18.764
1.0, -685.016905433964, -326.0987066864036, -425.81752915494144, -356.71726762363687, 0.8800000417977571, 0.35200001671910286, 0.4640000220388174, 0.0, 0.0, 0.0, 0.0, 0.0, 1.7103943387640603E9, 0.0, 2024-03-13 22:32:18.764
2.0, -677.8512571188621, -323.7350899144076, -439.26620939560235, -359.58203098969534, 0.8800000417977571, 0.35200001671910286, 0.4640000220388174, 0.0, 0.0, 0.0, 0.0, 0.0, 1.71039433878E9, 0.0, 2024-03-13 22:32:18.780
2.0, -669.2307877209969, -321.0535816461779, -438.55936830397695, -355.9618078325875, 0.8800000417977571, 0.35200001671910286, 0.4640000220388174, 0.0, 0.0, 0.0, 0.0, 0.0, 1.71039433878E9, 0.0, 2024-03-13 22:32:18.780
3.0, -661.2984599149786, -316.6965981977992, -414.6464479872957, -347.93972242763266, 0.8800000417977571, 0.35200001671910286, 0.4640000220388174, 0.0, 0.0, 0.0, 0.0, 0.0, 1.710394338780355E9, 0.0, 2024-03-13 22:32:18.780
3.0, -680.6075633862056, -322.029695534613, -429.99499740544707, -351.69084208318964, 0.8800000417977571, 0.35200001671910286, 0.4640000220388174, 0.0, 0.0, 0.0, 0.0, 0.0, 1.710394338780355E9, 0.0, 2024-03-13 22:32:18.780
4.0, -677.4847469232045, -315.70552470954135, -441.03518207464367, -350.8867635927163, 0.8800000417977571, 0.35200001671910286, 0.4640000220388174, 0.0, 0.0, 0.0, 0.0, 0.0, 1.710394338794073E9, 0.0, 2024-03-13 22:32:18.794
4.0, -669.7319343150593, -320.7730891495012, -428.51773692294955, -350.57261199643835, 0.8800000417977571, 0.35200001671910286, 0.4640000220388174, 0.0, 0.0, 0.0, 0.0, 0.0, 1.710394338794073E9, 0.0, 2024-03-13 22:32:18.794
5.0, -675.6970747443847, -328.37256585946307, -430.95989159401506, -351.79555928194895, 0.8800000417977571, 0.35200001671910286, 0.4640000220388174, 0.0, 0.0, 0.0, 0.0, 0.0, 1.7103943388261197E9, 0.0, 2024-03-13 22:32:18.826
5.0, -667.6824691393413, -318.19629808003083, -444.9845164278522, -351.23831418855116, 0.8800000417977571, 0.35200001671910286, 0.4640000220388174, 0.0, 0.0, 0.0, 0.0, 0.0, 1.7103943388261197E9, 0.0, 2024-03-13 22:32:18.826
6.0, -660.4569824249484, -306.84944161446765, -424.5272636702284, -343.1788297840394, 0.8800000417977571, 0.35200001671910286, 0.4640000220388174, 0.0, 0.0, 0.0, 0.0, 0.0, 1.7103943388268385E9, 0.0, 2024-03-13 22:32:18.826
6.0, -662.8056395971216, -307.9751515011303, -416.55005706474185, -345.2245550598018, 0.8800000417977571, 0.35200001671910286, 0.4640000220388174, 0.0, 0.0, 0.0, 0.0, 0.0, 1.7103943388268385E9, 0.0, 2024-03-13 22:32:18.826
7.0, -664.428756177891, -326.7307497789152, -437.47853721678257, -354.31999175203964, 0.8800000417977571, 0.35200001671910286, 0.4640000220388174, 0.0, 0.0, 0.0, 0.0, 0.0, 1.7103943388275783E9, 0.0, 2024-03-13 22:32:18.827
7.0, -660.8272325205617, -317.422138789203, -439.4008457940072, -354.1928351535462, 0.8800000417977571, 0.35200001671910286, 0.4640000220388174, 0.0, 0.0, 0.0, 0.0, 0.0, 1.7103943388275783E9, 0.0, 2024-03-13 22:32:18.827
8.0, -664.5110339769162, -309.11582098761573, -420.5068712178618, -350.24724070029333, 0.8800000417977571, 0.35200001671910286, 0.4640000220388174, 0.0, 0.0, 0.0, 0.0, 0.0, 1.710394338828328E9, 0.0, 2024-03-13 22:32:18.828
8.0, -665.2365745683201, -319.33696756651625, -426.8983602421358, -349.3047859114595, 0.8800000417977571, 0.35200001671910286, 0.4640000220388174, 0.0, 0.0, 0.0, 0.0, 0.0, 1.710394338828328E9, 0.0, 2024-03-13 22:32:18.828
9.0, -665.3487715669908, -320.52625575242564, -441.1660785730928, -347.5245935325511, 0.8800000417977571, 0.35200001671910286, 0.4640000220388174, 0.0, 0.0, 0.0, 0.0, 0.0, 1.710394338839034E9, 0.0, 2024-03-13 22:32:18.839
9.0, -674.9864937528037, -320.6982911503874, -422.36934139579535, -347.76394712971523, 0.8800000417977571, 0.35200001671910286, 0.4640000220388174, 0.0, 0.0, 0.0, 0.0, 0.0, 1.710394338839034E9, 0.0, 2024-03-13 22:32:18.839
10.0, -675.6297565451823, -316.0982142048888, -423.10236178711057, -351.3392914873548, 0.8800000417977571, 0.35200001671910286, 0.4640000220388174, 0.0, 0.0, 0.0, 0.0, 0.0, 1.7103943388540108E9, 0.0, 2024-03-13 22:32:18.854
10.0, -677.9821536173113, -320.8441472486593, -443.18562454916537, -352.57719837268814, 0.8800000417977571, 0.35200001671910286, 0.4640000220388174, 0.0, 0.0, 0.0, 0.0, 0.0, 1.7103943388540108E9, 0.0, 2024-03-13 22:32:18.854
11.0, -673.5054933703505, -314.8079487201758, -424.10839487519115, -346.8925504400395, 0.8800000417977571, 0.35200001671910286, 0.4640000220388174, 0.0, 0.0, 0.0, 0.0, 0.0, 1.710394338869786E9, 0.0, 2024-03-13 22:32:18.869
11.0, -677.5520651224069, -325.3133276957087, -416.4528196658939, -348.5605458202772, 0.8800000417977571, 0.35200001671910286, 0.4640000220388174, 0.0, 0.0, 0.0, 0.0, 0.0, 1.710394338869786E9, 0.0, 2024-03-13 22:32:18.869
12.0, -679.3621767009608, -327.90133846504614, -433.6077407626435, -354.4508882504888, 0.8800000417977571, 0.35200001671910286, 0.4640000220388174, 0.0, 0.0, 0.0, 0.0, 0.0, 1.7103943388703735E9, 0.0, 2024-03-13 22:32:18.870
12.0, -675.2707261494361, -320.6234931512736, -441.2558361720294, -353.16062276577577, 0.8800000417977571, 0.35200001671910286, 0.4640000220388174, 0.0, 0.0, 0.0, 0.0, 0.0, 1.7103943388703735E9, 0.0, 2024-03-13 22:32:18.870
13.0, -677.9447546177544, -317.3996993894689, -424.44124597124755, -348.6016847197898, 0.8800000417977571, 0.35200001671910286, 0.4640000220388174, 0.0, 0.0, 0.0, 0.0, 0.0, 1.7103943388840177E9, 0.0, 2024-03-13 22:32:18.884
13.0, -681.0713109807111, -333.9113576938398, -437.2130043199286, -361.407102168072, 0.8800000417977571, 0.35200001671910286, 0.4640000220388174, 0.0, 0.0, 0.0, 0.0, 0.0, 1.7103943388840177E9, 0.0, 2024-03-13 22:32:18.884
14.0, -676.8377442308702, -321.4724504412152, -448.82913358230144, -363.65852194139734, 0.8800000417977571, 0.35200001671910286, 0.4640000220388174, 0.0, 0.0, 0.0, 0.0, 0.0, 1.7103943389001195E9, 0.0, 2024-03-13 22:32:18.900
14.0, -674.4068092596717, -324.5354285049252, -431.30396238993853, -350.3295184993185, 0.8800000417977571, 0.35200001671910286, 0.4640000220388174, 0.0, 0.0, 0.0, 0.0, 0.0, 1.7103943389001195E9, 0.0, 2024-03-13 22:32:18.900
15.0, -658.519714247901, -306.95415881322697, -420.80606321431696, -338.27582094212994, 0.8800000417977571, 0.35200001671910286, 0.4640000220388174, 0.0, 0.0, 0.0, 0.0, 0.0, 1.7103943389004543E9, 0.0, 2024-03-13 22:32:18.900
15.0, -673.8159050666727, -324.67380480328575, -455.82274649944156, -362.02792556071654, 0.8800000417977571, 0.35200001671910286, 0.4640000220388174, 0.0, 0.0, 0.0, 0.0, 0.0, 1.7103943389004543E9, 0.0, 2024-03-13 22:32:18.900
16.0, -683.9173748469912, -328.795174554456, -447.7744817947969, -365.4611537200399, 0.8800000417977571, 0.35200001671910286, 0.4640000220388174, 0.0, 0.0, 0.0, 0.0, 0.0, 1.7103943389142942E9, 0.0, 2024-03-13 22:32:18.914
16.0, -687.7657319013961, -339.4351899283938, -441.356813470833, -368.4194145849906, 0.8800000417977571, 0.35200001671910286, 0.4640000220388174, 0.0, 0.0, 0.0, 0.0, 0.0, 1.7103943389142942E9, 0.0, 2024-03-13 22:32:18.914
17.0, -701.816536034923, -351.79555928194895, -462.1095183249563, -383.18827951001003, 0.8800000417977571, 0.35200001671910286, 0.4640000220388174, 0.0, 0.0, 0.0, 0.0, 0.0, 1.7103943389297736E9, 0.0, 2024-03-13 22:32:18.929
17.0, -698.9368130690418, -350.6287104957737, -459.00914126168936, -377.4213537783362, 0.8800000417977571, 0.35200001671910286, 0.4640000220388174, 0.0, 0.0, 0.0, 0.0, 0.0, 1.7103943389297736E9, 0.0, 2024-03-13 22:32:18.929
18.0, -702.4373594275676, -348.67648271890357, -442.75553605426103, -374.4182141139172, 0.8800000417977571, 0.35200001671910286, 0.4640000220388174, 0.0, 0.0, 0.0, 0.0, 0.0, 1.710394338930458E9, 0.0, 2024-03-13 22:32:18.930
18.0, -710.2200912353583, -361.35474356869236, -462.7827003169805, -386.95809866534546, 0.8800000417977571, 0.35200001671910286, 0.4640000220388174, 0.0, 0.0, 0.0, 0.0, 0.0, 1.710394338930458E9, 0.0, 2024-03-13 22:32:18.930
19.0, -709.4795910441317, -363.39298904454336, -470.2512805284932, -384.5309035941027, 0.8800000417977571, 0.35200001671910286, 0.4640000220388174, 0.0, 0.0, 0.0, 0.0, 0.0, 1.7103943389440067E9, 0.0, 2024-03-13 22:32:18.944
19.0, -706.0949815842323, -345.8229390527122, -441.8430004650727, -371.332796650473, 0.8800000417977571, 0.35200001671910286, 0.4640000220388174, 0.0, 0.0, 0.0, 0.0, 0.0, 1.7103943389440067E9, 0.0, 2024-03-13 22:32:18.944
20.0, -715.4185521737672, -364.6084565301426, -450.78884115908295, -382.5300571178086, 0.8800000417977571, 0.35200001671910286, 0.4480000212788582, 0.0, 0.0, 0.0, 0.0, 0.0, 1.7103943389597728E9, 0.0, 2024-03-13 22:32:18.959
20.0, -722.2887483923696, -368.7597454809584, -464.0393067020923, -384.7889566910453, 0.8800000417977571, 0.35200001671910286, 0.4480000212788582, 0.0, 0.0, 0.0, 0.0, 0.0, 1.7103943389597728E9, 0.0, 2024-03-13 22:32:18.959
21.0, -708.8737272513099, -355.3709036395885, -444.85361992940307, -373.43088052561507, 0.8800000417977571, 0.35200001671910286, 0.4480000212788582, 0.0, 0.0, 0.0, 0.0, 0.0, 1.71039433896044E9, 0.0, 2024-03-13 22:32:18.960
21.0, -723.4742966783233, -356.3769367276691, -432.0182832814753, -373.1242087292485, 0.8800000417977571, 0.35200001671910286, 0.4480000212788582, 0.0, 0.0, 0.0, 0.0, 0.0, 1.71039433896044E9, 0.0, 2024-03-13 22:32:18.960
22.0, -724.8543197619729, -356.0814846311696, -463.05571301374584, -381.1649936339818, 0.8800000417977571, 0.35200001671910286, 0.4480000212788582, 0.0, 0.0, 0.0, 0.0, 0.0, 1.710394338974002E9, 0.0, 2024-03-13 22:32:18.974
22.0, -701.6258011371829, -345.4040702576749, -456.37625169288367, -368.79714448051527, 0.8800000417977571, 0.35200001671910286, 0.4480000212788582, 0.0, 0.0, 0.0, 0.0, 0.0, 1.710394338974002E9, 0.0, 2024-03-13 22:32:18.974
23.0, -704.1464937073179, -339.19957623118535, -432.48577077593654, -362.6711883530952, 0.8800000417977571, 0.35200001671910286, 0.4480000212788582, 0.0, 0.0, 0.0, 0.0, 0.0, 1.7103943390060449E9, 0.0, 2024-03-13 22:32:19.006
23.0, -714.2367437877692, -349.6264173076488, -460.5200608437881, -379.9757054480724, 0.8800000417977571, 0.35200001671910286, 0.4480000212788582, 0.0, 0.0, 0.0, 0.0, 0.0, 1.7103943390060449E9, 0.0, 2024-03-13 22:32:19.006
24.0, -702.6430539251305, -342.68890288984403, -468.3289719512686, -378.1281948699616, 0.8800000417977571, 0.35200001671910286, 0.4480000212788582, 0.0, 0.0, 0.0, 0.0, 0.0, 1.7103943390067744E9, 0.0, 2024-03-13 22:32:19.006
24.0, -703.2489177179523, -347.15808333689347, -449.9211843693629, -377.5260709770955, 0.8800000417977571, 0.35200001671910286, 0.4480000212788582, 0.0, 0.0, 0.0, 0.0, 0.0, 1.7103943390067744E9, 0.0, 2024-03-13 22:32:19.006
25.0, -700.5561897498555, -343.6724965781905, -452.670010836795, -383.10974161094055, 0.8800000417977571, 0.35200001671910286, 0.4480000212788582, 0.0, 0.0, 0.0, 0.0, 0.0, 1.7103943390075083E9, 0.0, 2024-03-13 22:32:19.007
25.0, -703.7986830114387, -355.183908641804, -465.9990142788738, -385.7239316799678, 0.8800000417977571, 0.35200001671910286, 0.4480000212788582, 0.0, 0.0, 0.0, 0.0, 0.0, 1.7103943390075083E9, 0.0, 2024-03-13 22:32:19.007
26.0, -694.0487638269551, -344.2484411713667, -448.44766378682107, -377.3465557792224, 0.8800000417977571, 0.35200001671910286, 0.4480000212788582, 0.0, 0.0, 0.0, 0.0, 0.0, 1.7103943390082726E9, 0.0, 2024-03-13 22:32:19.008
26.0, -696.6143351965584, -342.16531689604744, -437.03348912205547, -369.88545536762103, 0.8800000417977571, 0.35200001671910286, 0.4480000212788582, 0.0, 0.0, 0.0, 0.0, 0.0, 1.7103943390082726E9, 0.0, 2024-03-13 22:32:19.008
27.0, -697.2089792895131, -346.38018414610997, -454.41280421614647, -375.3382295030169, 0.8800000417977571, 0.35200001671910286, 0.4480000212788582, 0.0, 0.0, 0.0, 0.0, 0.0, 1.7103943390193264E9, 0.0, 2024-03-13 22:32:19.019
27.0, -690.8474094648845, -339.7680410244502, -454.75687501206994, -375.6075022998266, 0.8800000417977571, 0.35200001671910286, 0.4480000212788582, 0.0, 0.0, 0.0, 0.0, 0.0, 1.7103943390193264E9, 0.0, 2024-03-13 22:32:19.019
28.0, -700.997497944627, -342.04564009746537, -434.99898354616016, -376.1684872931801, 0.8800000417977571, 0.35200001671910286, 0.4480000212788582, 0.0, 0.0, 0.0, 0.0, 0.0, 1.7103943390343976E9, 0.0, 2024-03-13 22:32:19.034
28.0, -708.6044544545002, -352.9586681681685, -448.57108048535883, -377.43257347820327, 0.8800000417977571, 0.35200001671910286, 0.4480000212788582, 0.0, 0.0, 0.0, 0.0, 0.0, 1.7103943390343976E9, 0.0, 2024-03-13 22:32:19.034
29.0, -699.4080404634587, -352.603377672378, -458.78474726434797, -372.7539586336352, 0.8800000417977571, 0.35200001671910286, 0.4480000212788582, 0.0, 0.0, 0.0, 0.0, 0.0, 1.7103943390500462E9, 0.0, 2024-03-13 22:32:19.050
29.0, -698.1402143784799, -345.0076408623718, -435.6459862384945, -365.3078178218566, 0.8800000417977571, 0.35200001671910286, 0.4480000212788582, 0.0, 0.0, 0.0, 0.0, 0.0, 1.7103943390500462E9, 0.0, 2024-03-13 22:32:19.050
30.0, -700.9413994452916, -355.43074203887954, -441.40917207021266, -371.14580165268853, 0.8800000417977571, 0.35200001671910286, 0.4480000212788582, 0.0, 0.0, 0.0, 0.0, 0.0, 1.710394339050526E9, 0.0, 2024-03-13 22:32:19.050
30.0, -701.3079096409492, -347.5844319318421, -459.30459335818887, -370.36042266199365, 0.8800000417977571, 0.35200001671910286, 0.4480000212788582, 0.0, 0.0, 0.0, 0.0, 0.0, 1.710394339050526E9, 0.0, 2024-03-13 22:32:19.050
31.0, -698.7385983713903, -334.34892598865554, -442.31048795953393, -366.58686360670254, 0.8800000417977571, 0.35200001671910286, 0.4480000212788582, 0.0, 0.0, 0.0, 0.0, 0.0, 1.710394339064057E9, 0.0, 2024-03-13 22:32:19.064
31.0, -699.6324344608001, -338.178583543282, -432.6204071743414, -365.20684052305296, 0.8800000417977571, 0.35200001671910286, 0.4480000212788582, 0.0, 0.0, 0.0, 0.0, 0.0, 1.710394339064057E9, 0.0, 2024-03-13 22:32:19.064
32.0, -706.2445775824599, -345.8528582523577, -457.0606533847749, -370.2332660635002, 0.8800000417977571, 0.35200001671910286, 0.4480000212788582, 0.0, 0.0, 0.0, 0.0, 0.0, 1.7103943390797663E9, 0.0, 2024-03-13 22:32:19.079
32.0, -700.4514725510962, -349.9929275033064, -461.690649529919, -374.14146151719615, 0.8800000417977571, 0.35200001671910286, 0.4480000212788582, 0.0, 0.0, 0.0, 0.0, 0.0, 1.7103943390797663E9, 0.0, 2024-03-13 22:32:19.079
33.0, -698.7797372709028, -339.8091799239628, -438.3910728059709, -365.9361210144125, 0.8800000417977571, 0.35200001671910286, 0.4480000212788582, 0.0, 0.0, 0.0, 0.0, 0.0, 1.710394339080716E9, 0.0, 2024-03-13 22:32:19.080
33.0, -699.3856010637246, -344.2596608712338, -445.6539585199207, -369.2309728753753, 0.8800000417977571, 0.35200001671910286, 0.4480000212788582, 0.0, 0.0, 0.0, 0.0, 0.0, 1.710394339080716E9, 0.0, 2024-03-13 22:32:19.080
34.0, -691.2737580598332, -344.1923426720314, -461.24186153523624, -371.8975215437822, 0.8800000417977571, 0.35200001671910286, 0.4480000212788582, 0.0, 0.0, 0.0, 0.0, 0.0, 1.710394339094062E9, 0.0, 2024-03-13 22:32:19.094
34.0, -685.0056857340969, -329.8498263419606, -438.6453860029578, -357.61110371304676, 0.8800000417977571, 0.35200001671910286, 0.4480000212788582, 0.0, 0.0, 0.0, 0.0, 0.0, 1.710394339094062E9, 0.0, 2024-03-13 22:32:19.094
35.0, -687.5450778040104, -328.01353546371683, -433.10659416858107, -356.0328659317456, 0.8800000417977571, 0.35200001671910286, 0.4480000212788582, 0.0, 0.0, 0.0, 0.0, 0.0, 1.7103943391097898E9, 0.0, 2024-03-13 22:32:19.109
35.0, -692.7996372417547, -326.74196947878227, -443.9523040400818, -357.95517450897023, 0.8800000417977571, 0.35200001671910286, 0.4480000212788582, 0.0, 0.0, 0.0, 0.0, 0.0, 1.7103943391097898E9, 0.0, 2024-03-13 22:32:19.109
36.0, -683.5920035508461, -325.4741433938034, -430.4998838994652, -346.4101033457555, 0.8800000417977571, 0.35200001671910286, 0.4480000212788582, 0.0, 0.0, 0.0, 0.0, 0.0, 1.71039433911047E9, 0.0, 2024-03-13 22:32:19.110
36.0, -687.0401913099922, -325.032835199032, -419.8673483254388, -348.49696752103046, 0.8800000417977571, 0.35200001671910286, 0.4480000212788582, 0.0, 0.0, 0.0, 0.0, 0.0, 1.71039433911047E9, 0.0, 2024-03-13 22:32:19.110
37.0, -696.6629538959824, -340.38138461718336, -442.6582986554131, -356.4779140264727, 0.8800000417977571, 0.35200001671910286, 0.4480000212788582, 0.0, 0.0, 0.0, 0.0, 0.0, 1.710394339124012E9, 0.0, 2024-03-13 22:32:19.124
37.0, -686.4979058164172, -331.3345666243695, -438.21903740800917, -353.6655092597939, 0.8800000417977571, 0.35200001671910286, 0.4480000212788582, 0.0, 0.0, 0.0, 0.0, 0.0, 1.710394339124012E9, 0.0, 2024-03-13 22:32:19.124
38.0, -692.6201220438816, -332.8006074069999, -422.54885659366846, -357.1062172190286, 0.8800000417977571, 0.35200001671910286, 0.4480000212788582, 0.0, 0.0, 0.0, 0.0, 0.0, 1.7103943391397755E9, 0.0, 2024-03-13 22:32:19.139
38.0, -698.3272093762644, -338.56379323871806, -431.973404482007, -358.2207074058242, 0.8800000417977571, 0.35200001671910286, 0.4480000212788582, 0.0, 0.0, 0.0, 0.0, 0.0, 1.7103943391397755E9, 0.0, 2024-03-13 22:32:19.139
39.0, -696.666693795938, -335.2577216778882, -444.93215782847255, -361.5940971658565, 0.8800000417977571, 0.35200001671910286, 0.4480000212788582, 0.0, 0.0, 0.0, 0.0, 0.0, 1.7103943391404593E9, 0.0, 2024-03-13 22:32:19.140
39.0, -698.8881943696178, -332.4079179116525, -428.0652090283111, -353.13070356613025, 0.8800000417977571, 0.35200001671910286, 0.4480000212788582, 0.0, 0.0, 0.0, 0.0, 0.0, 1.7103943391404593E9, 0.0, 2024-03-13 22:32:19.140
40.0, -703.9894179091789, -337.1388913556002, -430.29792930185795, -359.88122298615053, 0.8800000417977571, 0.35200001671910286, 0.4480000212788582, 0.0, 0.0, 0.0, 0.0, 0.0, 1.7103943391540196E9, 0.0, 2024-03-13 22:32:19.154
40.0, -699.1686868662946, -341.50335460389033, -446.89560530520976, -361.190187970642, 0.8800000417977571, 0.35200001671910286, 0.4480000212788582, 0.0, 0.0, 0.0, 0.0, 0.0, 1.7103943391540196E9, 0.0, 2024-03-13 22:32:19.154
41.0, -689.9386137756519, -339.7418617247604, -442.51992235705256, -358.7480332995765, 0.8800000417977571, 0.35200001671910286, 0.4480000212788582, 0.0, 0.0, 0.0, 0.0, 0.0, 1.7103943391698637E9, 0.0, 2024-03-13 22:32:19.169
41.0, -696.2366053010337, -338.05516684474424, -430.7504571964964, -359.30901829293, 0.8800000417977571, 0.35200001671910286, 0.4480000212788582, 0.0, 0.0, 0.0, 0.0, 0.0, 1.7103943391698637E9, 0.0, 2024-03-13 22:32:19.169
42.0, -695.1370747140609, -337.9579294458963, -446.0354283154011, -360.77131917560473, 0.8800000417977571, 0.35200001671910286, 0.4480000212788582, 0.0, 0.0, 0.0, 0.0, 0.0, 1.710394339170688E9, 0.0, 2024-03-13 22:32:19.170
42.0, -689.7067399783991, -326.85416647745296, -448.2606687890366, -359.2641394934617, 0.8800000417977571, 0.35200001671910286, 0.4480000212788582, 0.0, 0.0, 0.0, 0.0, 0.0, 1.710394339170688E9, 0.0, 2024-03-13 22:32:19.170
43.0, -681.7257934729569, -321.88757933629677, -425.81004935503006, -353.91608255682513, 0.8800000417977571, 0.35200001671910286, 0.4480000212788582, 0.0, 0.0, 0.0, 0.0, 0.0, 1.7103943391843517E9, 0.0, 2024-03-13 22:32:19.184
43.0, -687.6385753029026, -326.82798717776313, -436.6146203270182, -355.5616385373287, 0.8800000417977571, 0.35200001671910286, 0.4480000212788582, 0.0, 0.0, 0.0, 0.0, 0.0, 1.7103943391843517E9, 0.0, 2024-03-13 22:32:19.184
44.0, -687.8554895003326, -330.57162703340873, -453.2796145295724, -364.2643857342191, 0.8800000417977571, 0.35200001671910286, 0.4480000212788582, 0.0, 0.0, 0.0, 0.0, 0.0, 1.710394339200096E9, 0.0, 2024-03-13 22:32:19.200
44.0, -694.460152822081, -336.52928766282275, -439.4232851937413, -365.9361210144125, 0.8800000417977571, 0.35200001671910286, 0.4480000212788582, 0.0, 0.0, 0.0, 0.0, 0.0, 1.710394339200096E9, 0.0, 2024-03-13 22:32:19.200
45.0, -697.3697949876077, -339.4426697283052, -441.89535906445235, -365.47611331986263, 0.8800000417977571, 0.35200001671910286, 0.4480000212788582, 0.0, 0.0, 0.0, 0.0, 0.0, 1.7103943392004423E9, 0.0, 2024-03-13 22:32:19.200
45.0, -686.5876634153537, -333.11475900327787, -450.6990835601464, -364.06991093652323, 0.8800000417977571, 0.35200001671910286, 0.4480000212788582, 0.0, 0.0, 0.0, 0.0, 0.0, 1.7103943392004423E9, 0.0, 2024-03-13 22:32:19.200
46.0, -685.3946353294887, -336.31611336534843, -436.99983002245426, -358.94250809727237, 0.8800000417977571, 0.35200001671910286, 0.4480000212788582, 0.0, 0.0, 0.0, 0.0, 0.0, 1.7103943392142825E9, 0.0, 2024-03-13 22:32:19.214
46.0, -688.8540427885018, -337.6662172493525, -424.95735216513276, -354.8473176457919, 0.8800000417977571, 0.35200001671910286, 0.4480000212788582, 0.0, 0.0, 0.0, 0.0, 0.0, 1.7103943392142825E9, 0.0, 2024-03-13 22:32:19.214
47.0, -694.1983598251827, -337.6624773493968, -439.6177599914372, -366.014658913482, 0.8800000417977571, 0.35200001671910286, 0.4480000212788582, 0.0, 0.0, 0.0, 0.0, 0.0, 1.710394339229751E9, 0.0, 2024-03-13 22:32:19.229
47.0, -687.8293102006428, -332.97264280496165, -448.5785602852702, -360.24025338189676, 0.8800000417977571, 0.35200001671910286, 0.4480000212788582, 0.0, 0.0, 0.0, 0.0, 0.0, 1.710394339229751E9, 0.0, 2024-03-13 22:32:19.229
48.0, -693.5214379332028, -333.1072792033665, -421.1950128097087, -358.84153079846874, 0.8800000417977571, 0.35200001671910286, 0.4480000212788582, 0.0, 0.0, 0.0, 0.0, 0.0, 1.710394339230408E9, 0.0, 2024-03-13 22:32:19.230
48.0, -692.7248392426409, -331.89181171776727, -434.277182854712, -358.16834880644456, 0.8800000417977571, 0.35200001671910286, 0.4480000212788582, 0.0, 0.0, 0.0, 0.0, 0.0, 1.710394339230408E9, 0.0, 2024-03-13 22:32:19.230
49.0, -689.3290100828744, -325.82943388959393, -441.3605533707887, -354.24893365288153, 0.8800000417977571, 0.35200001671910286, 0.4480000212788582, 0.0, 0.0, 0.0, 0.0, 0.0, 1.7103943392440157E9, 0.0, 2024-03-13 22:32:19.244
49.0, -674.2721728612669, -317.0294492938556, -422.7208919916302, -344.42795636923984, 0.8800000417977571, 0.35200001671910286, 0.4480000212788582, 0.0, 0.0, 0.0, 0.0, 0.0, 1.7103943392440157E9, 0.0, 2024-03-13 22:32:19.244
50.0, -681.7257934729569, -327.179537773598, -419.0483102351427, -348.35111142275855, 0.8800000417977571, 0.35200001671910286, 0.4480000212788582, 0.0, 0.0, 0.0, 0.0, 0.0, 1.7103943392599163E9, 0.0, 2024-03-13 22:32:19.259
50.0, -681.3929423769005, -331.82075361860916, -445.6950974194333, -353.2877793642692, 0.8800000417977571, 0.35200001671910286, 0.4480000212788582, 0.0, 0.0, 0.0, 0.0, 0.0, 1.7103943392599163E9, 0.0, 2024-03-13 22:32:19.259
51.0, -681.7145737730898, -325.82943388959393, -438.5144895045087, -353.2279409649782, 0.8800000417977571, 0.35200001671910286, 0.4480000212788582, 0.0, 0.0, 0.0, 0.0, 0.0, 1.7103943392604039E9, 0.0, 2024-03-13 22:32:19.260
51.0, -684.7102336375974, -325.8743126890622, -426.93201934173703, -356.09644423099235, 0.8800000417977571, 0.35200001671910286, 0.4480000212788582, 0.0, 0.0, 0.0, 0.0, 0.0, 1.7103943392604039E9, 0.0, 2024-03-13 22:32:19.260
52.0, -692.6163821439259, -330.27243503695354, -445.53054182138294, -358.187048306223, 0.8800000417977571, 0.35200001671910286, 0.4480000212788582, 0.0, 0.0, 0.0, 0.0, 0.0, 1.7103943392740228E9, 0.0, 2024-03-13 22:32:19.274
52.0, -679.9007222945802, -327.67694446770474, -453.9527965215966, -358.0673715076409, 0.8800000417977571, 0.35200001671910286, 0.4480000212788582, 0.0, 0.0, 0.0, 0.0, 0.0, 1.7103943392740228E9, 0.0, 2024-03-13 22:32:19.274
53.0, -673.1277634748258, -320.3130814549513, -436.8651936240494, -356.90800252137706, 0.8800000417977571, 0.35200001671910286, 0.4480000212788582, 0.0, 0.0, 0.0, 0.0, 0.0, 1.7103943392899935E9, 0.0, 2024-03-13 22:32:19.289
53.0, -681.205947379116, -319.942831359338, -443.52221554517746, -360.924655073788, 0.8800000417977571, 0.35200001671910286, 0.4480000212788582, 0.0, 0.0, 0.0, 0.0, 0.0, 1.7103943392899935E9, 0.0, 2024-03-13 22:32:19.289
54.0, -676.4375749356113, -323.8659864128567, -460.2994067464024, -363.7407997404225, 0.8800000417977571, 0.35200001671910286, 0.4480000212788582, 0.0, 0.0, 0.0, 0.0, 0.0, 1.7103943392905004E9, 0.0, 2024-03-13 22:32:19.290
54.0, -674.8555972543545, -317.73629038548097, -424.66190006863326, -352.98858736781403, 0.8800000417977571, 0.35200001671910286, 0.4480000212788582, 0.0, 0.0, 0.0, 0.0, 0.0, 1.7103943392905004E9, 0.0, 2024-03-13 22:32:19.290
55.0, -682.4700335641392, -326.89156547700986, -430.56346219871193, -355.3671637396328, 0.8800000417977571, 0.35200001671910286, 0.4480000212788582, 0.0, 0.0, 0.0, 0.0, 0.0, 1.7103943393039782E9, 0.0, 2024-03-13 22:32:19.303
55.0, -685.5255318279378, -328.23792946105823, -439.6214998913929, -350.5464326967485, 0.8800000417977571, 0.35200001671910286, 0.4480000212788582, 0.0, 0.0, 0.0, 0.0, 0.0, 1.7103943393039782E9, 0.0, 2024-03-13 22:32:19.303
56.0, -685.7835849248804, -327.3889721711166, -427.29852953739464, -349.1028313138522, 0.8800000417977571, 0.35200001671910286, 0.4480000212788582, 0.0, 0.0, 0.0, 0.0, 0.0, 1.7103943393199005E9, 0.0, 2024-03-13 22:32:19.319
56.0, -685.0954433330335, -324.03802181081846, -426.43835254758596, -350.90546309249476, 0.8800000417977571, 0.35200001671910286, 0.4480000212788582, 0.0, 0.0, 0.0, 0.0, 0.0, 1.7103943393199005E9, 0.0, 2024-03-13 22:32:19.319
57.0, -681.7257934729569, -320.3990991539322, -433.4244856648147, -349.6563365072943, 0.8800000417977571, 0.35200001671910286, 0.4480000212788582, 0.0, 0.0, 0.0, 0.0, 0.0, 1.7103943393204E9, 0.0, 2024-03-13 22:32:19.320
57.0, -678.588017410133, -318.48053047666326, -431.08330829255283, -346.23432804783806, 0.8800000417977571, 0.35200001671910286, 0.4480000212788582, 0.0, 0.0, 0.0, 0.0, 0.0, 1.7103943393204E9, 0.0, 2024-03-13 22:32:19.320
58.0, -671.7103413916193, -310.0507959765382, -409.57888354733586, -335.8822849704884, 0.8800000417977571, 0.35200001671910286, 0.4480000212788582, 0.0, 0.0, 0.0, 0.0, 0.0, 1.710394339334064E9, 0.0, 2024-03-13 22:32:19.334
58.0, -668.8642775253393, -304.9383527371101, -415.14385468140244, -330.23129613744095, 0.8800000417977571, 0.35200001671910286, 0.4480000212788582, 0.0, 0.0, 0.0, 0.0, 0.0, 1.710394339334064E9, 0.0, 2024-03-13 22:32:19.334
59.0, -657.13221136434, -304.63168094074354, -418.99595163576305, -325.7247166908346, 0.8800000417977571, 0.35200001671910286, 0.4480000212788582, 0.0, 0.0, 0.0, 0.0, 0.0, 1.7103943393500967E9, 0.0, 2024-03-13 22:32:19.350
59.0, -663.4863013890572, -298.6478410116397, -411.69566692225635, -330.04804103961214, 0.8800000417977571, 0.35200001671910286, 0.4480000212788582, 0.0, 0.0, 0.0, 0.0, 0.0, 1.7103943393500967E9, 0.0, 2024-03-13 22:32:19.350
60.0, -680.5813840865158, -311.9768444537185, -416.3144433675334, -336.93693675799295, 0.8800000417977571, 0.35200001671910286, 0.4480000212788582, 0.0, 0.0, 0.0, 0.0, 0.0, 1.710394339350524E9, 0.0, 2024-03-13 22:32:19.350
60.0, -676.3777365363203, -320.4776370530017, -438.73888350185007, -341.4023773050867, 0.8800000417977571, 0.35200001671910286, 0.4480000212788582, 0.0, 0.0, 0.0, 0.0, 0.0, 1.710394339350524E9, 0.0, 2024-03-13 22:32:19.350
61.0, -671.2017149976455, -314.10484752850607, -427.9118731301278, -341.05830650916323, 0.8800000417977571, 0.35200001671910286, 0.4480000212788582, 0.0, 0.0, 0.0, 0.0, 0.0, 1.710394339364418E9, 0.0, 2024-03-13 22:32:19.364
61.0, -670.0311263115145, -311.2737432620488, -419.8561286255717, -338.8854246349074, 0.8800000417977571, 0.35200001671910286, 0.4480000212788582, 0.0, 0.0, 0.0, 0.0, 0.0, 1.710394339364418E9, 0.0, 2024-03-13 22:32:19.364
62.0, -680.2934117899276, -312.18253895128146, -431.9771443819627, -342.9132968871854, 0.8800000417977571, 0.35200001671910286, 0.4480000212788582, 0.0, 0.0, 0.0, 0.0, 0.0, 1.7103943393797917E9, 0.0, 2024-03-13 22:32:19.379
62.0, -672.4433617829345, -308.0499495002441, -435.3206149423495, -340.4449629164301, 0.8800000417977571, 0.35200001671910286, 0.4480000212788582, 0.0, 0.0, 0.0, 0.0, 0.0, 1.7103943393797917E9, 0.0, 2024-03-13 22:32:19.379
63.0, -667.2449008445255, -311.3186220615171, -419.6466942280531, -338.8143665357493, 0.8800000417977571, 0.35200001671910286, 0.4480000212788582, 0.0, 0.0, 0.0, 0.0, 0.0, 1.7103943393804016E9, 0.0, 2024-03-13 22:32:19.380
63.0, -675.2034079502337, -321.6631853389554, -430.18199240323156, -352.1770290774293, 0.8800000417977571, 0.35200001671910286, 0.4480000212788582, 0.0, 0.0, 0.0, 0.0, 0.0, 1.7103943393804016E9, 0.0, 2024-03-13 22:32:19.380
64.0, -673.6027307691984, -316.10943390475586, -432.5381293753162, -347.079545437824, 0.8800000417977571, 0.35200001671910286, 0.4480000212788582, 0.0, 0.0, 0.0, 0.0, 0.0, 1.710394339393994E9, 0.0, 2024-03-13 22:32:19.393
64.0, -667.6076711402275, -312.1339202518575, -419.8710882253945, -345.19463586015627, 0.8800000417977571, 0.35200001671910286, 0.4480000212788582, 0.0, 0.0, 0.0, 0.0, 0.0, 1.710394339393994E9, 0.0, 2024-03-13 22:32:19.393
65.0, -672.7201143796556, -312.1264404519461, -417.7580447504297, -343.01801408594474, 0.8800000417977571, 0.35200001671910286, 0.4480000212788582, 0.0, 0.0, 0.0, 0.0, 0.0, 1.7103943394097853E9, 0.0, 2024-03-13 22:32:19.409
65.0, -675.7045545442961, -323.3910191184841, -441.9215383641422, -349.27112681185827, 0.8800000417977571, 0.35200001671910286, 0.4480000212788582, 0.0, 0.0, 0.0, 0.0, 0.0, 1.7103943394097853E9, 0.0, 2024-03-13 22:32:19.409
66.0, -675.2146276501007, -325.15251199761406, -426.4159131478518, -349.5217001088895, 0.8800000417977571, 0.35200001671910286, 0.4480000212788582, 0.0, 0.0, 0.0, 0.0, 0.0, 1.710394339410349E9, 0.0, 2024-03-13 22:32:19.410
