%OpenBCI Raw EXG Data
%Number of channels = 4
%Sample Rate = 200 Hz
%Board = OpenBCI_GUI$BoardGanglionBLE
Sample Index, EXG Channel 0, EXG Channel 1, EXG Channel 2, EXG Channel 3, Accel Channel 0, Accel Channel 1, Accel Channel 2, Other, Other, Other, Other, Other, Timestamp, Other, Timestamp (Formatted)
2.0, 102.10861854022369, -79.18116186186671, 111.01706023467705, -36.08255477249622, 0.01600000075995922, 0.0, 0.0, 0.0, 0.0, 0.0, 0.0, 0.0, 1.7103879248787367E9, 0.0, 2024-03-13 20:45:24.878
2.0, 47.5416082367301, 148.5189070403576, 36.10873407218605, 160.0751979034394, 0.01600000075995922, 0.0, 0.0, 0.0, 0.0, 0.0, 0.0, 0.0, 1.7103879248787367E9, 0.0, 2024-03-13 20:45:24.878
3.0, 213.17242752434686, 50.4325509024784, 235.56694845901802, 72.28104644361883, 0.01600000075995922, 0.0, 0.0, 0.0, 0.0, 0.0, 0.0, 0.0, 1.7103879248931956E9, 0.0, 2024-03-13 20:45:24.893
3.0, 107.55391287570819, 84.92564819380641, 78.33407452190295, 162.05360497999936, 0.01600000075995922, 0.0, 0.0, 0.0, 0.0, 0.0, 0.0, 0.0, 1.7103879248931956E9, 0.0, 2024-03-13 20:45:24.893
4.0, 30.19595224224031, 178.02297779079527, -5.6547287330031395, 213.74650216754526, 0.01600000075995922, 0.0, 0.0, 0.0, 0.0, 0.0, 0.0, 0.0, 1.7103879248941524E9, 0.0, 2024-03-13 20:45:24.894
4.0, -137.34782587271184, 262.3221927420236, -112.5335896667093, 271.28299303585663, 0.01600000075995922, 0.0, 0.0, 0.0, 0.0, 0.0, 0.0, 0.0, 1.7103879248941524E9, 0.0, 2024-03-13 20:45:24.894
5.0, 55.84979598829523, 421.77843720279634, 54.4510734048672, 487.91856791917235, 0.01600000075995922, 0.0, 0.0, 0.0, 0.0, 0.0, 0.0, 0.0, 1.7103879249075177E9, 0.0, 2024-03-13 20:45:24.907
5.0, -95.81623686477542, 548.310472403653, -134.13151191081852, 602.1912110652775, 0.01600000075995922, 0.0, 0.0, 0.0, 0.0, 0.0, 0.0, 0.0, 1.7103879249075177E9, 0.0, 2024-03-13 20:45:24.907
6.0, 0.725540591403842, 490.974066182971, 3.2761523611843586, 493.10580915771425, 0.01600000075995922, 0.0, 0.0, 0.0, 0.0, 0.0, 0.0, 0.0, 1.710387924923257E9, 0.0, 2024-03-13 20:45:24.923
6.0, 92.48585595423356, 413.18040720466524, 108.76190056139603, 456.5482870908454, 0.01600000075995922, 0.0, 0.0, 0.0, 0.0, 0.0, 0.0, 0.0, 1.710387924923257E9, 0.0, 2024-03-13 20:45:24.923
7.0, 254.90597112989053, 339.82787942374125, 210.84620975190774, 410.00710209226236, 0.01600000075995922, 0.0, 0.0, 0.0, 0.0, 0.0, 0.0, 0.0, 1.7103879249240546E9, 0.0, 2024-03-13 20:45:24.924
7.0, 72.03795294649899, 171.28367807064205, 52.63161207642406, 181.80775654595345, 0.01600000075995922, 0.0, 0.0, 0.0, 0.0, 0.0, 0.0, 0.0, 1.7103879249240546E9, 0.0, 2024-03-13 20:45:24.924
8.0, 222.0883490187116, 54.21358975768089, 232.90039979061112, 67.37055780179799, 0.01600000075995922, 0.0, 0.0, 0.0, 0.0, 0.0, 0.0, 0.0, 1.7103879249376051E9, 0.0, 2024-03-13 20:45:24.937
8.0, 115.24688708456233, 93.58725649118423, 80.30500179855153, 160.13129640277475, 0.01600000075995922, 0.0, 0.0, 0.0, 0.0, 0.0, 0.0, 0.0, 1.7103879249376051E9, 0.0, 2024-03-13 20:45:24.937
9.0, 33.621700601652265, 187.32784888055176, -1.5819776812568307, 216.9515964295715, 0.01600000075995922, 0.0, 0.0, 0.0, 0.0, 0.0, 0.0, 0.0, 1.7103879249533873E9, 0.0, 2024-03-13 20:45:24.953
9.0, -126.79008829779923, 265.05231970967725, -110.499084090814, 270.5836317441426, 0.01600000075995922, 0.0, 0.0, 0.0, 0.0, 0.0, 0.0, 0.0, 1.7103879249533873E9, 0.0, 2024-03-13 20:45:24.953
10.0, 45.60247010970488, 416.9390066601336, 47.25550589011982, 486.6844009337947, 0.01600000075995922, 0.0, 1.0400000493973494, 0.0, 0.0, 0.0, 0.0, 0.0, 1.710387924953899E9, 0.0, 2024-03-13 20:45:24.953
10.0, -87.00129266921431, 555.9772673128173, -123.74580973386765, 610.4451702674851, 0.01600000075995922, 0.0, 1.0400000493973494, 0.0, 0.0, 0.0, 0.0, 0.0, 1.710387924953899E9, 0.0, 2024-03-13 20:45:24.953
11.0, 0.5722046932205558, 500.76886416692287, 18.288110783323646, 509.9839776577428, 0.01600000075995922, -0.19200000911951065, 1.0400000493973494, 0.0, 0.0, 0.0, 0.0, 0.0, 1.710387924967784E9, 0.0, 2024-03-13 20:45:24.967
11.0, 103.178229927551, 412.32397011481225, 118.22010754933581, 459.8020000522956, 0.01600000075995922, -0.19200000911951065, 1.0400000493973494, 0.0, 0.0, 0.0, 0.0, 0.0, 1.710387924967784E9, 0.0, 2024-03-13 20:45:24.967
12.0, 249.18018429772928, 339.6595839257352, 216.93102697981521, 410.7027234840207, 0.01600000075995922, -0.19200000911951065, 1.0400000493973494, 0.0, 0.0, 0.0, 0.0, 0.0, 1.7103879249834464E9, 0.0, 2024-03-13 20:45:24.983
12.0, 65.6988225216046, 167.28572501800954, 53.304794068448246, 183.72258532326669, 0.01600000075995922, -0.19200000911951065, 1.0400000493973494, 0.0, 0.0, 0.0, 0.0, 0.0, 1.7103879249834464E9, 0.0, 2024-03-13 20:45:24.983
13.0, 233.43146558431908, 67.93154279515147, 248.00959561159834, 85.99899948108941, 0.01600000075995922, -0.19200000911951065, 1.0400000493973494, 0.0, 0.0, 0.0, 0.0, 0.0, 1.710387924984196E9, 0.0, 2024-03-13 20:45:24.984
13.0, 118.08921105088666, 108.40100021567196, 103.79905332019553, 185.7944898987189, 0.01600000075995922, -0.19200000911951065, 1.0400000493973494, 0.0, 0.0, 0.0, 0.0, 0.0, 1.710387924984196E9, 0.0, 2024-03-13 20:45:24.984
14.0, 38.14697954803705, 203.49169648904353, 15.774898013100028, 239.98938015662134, 0.01600000075995922, -0.19200000911951065, 1.0400000493973494, 0.0, 0.0, 0.0, 0.0, 0.0, 1.710387924997489E9, 0.0, 2024-03-13 20:45:24.997
14.0, -118.50620989594609, 287.80587104009464, -86.0027393810451, 296.0560903423466, 0.01600000075995922, -0.19200000911951065, 1.0400000493973494, 0.0, 0.0, 0.0, 0.0, 0.0, 1.710387924997489E9, 0.0, 2024-03-13 20:45:24.997
15.0, 51.081423544790596, 438.00586311053485, 72.48861089115962, 509.1275405678898, 0.01600000075995922, -0.19200000911951065, 1.0400000493973494, 0.0, 0.0, 0.0, 0.0, 0.0, 1.7103879250131483E9, 0.0, 2024-03-13 20:45:25.013
15.0, -78.17512877378613, 568.8163438607007, -117.42911870870739, 623.0448932182044, 0.01600000075995922, -0.19200000911951065, 1.0400000493973494, 0.0, 0.0, 0.0, 0.0, 0.0, 1.7103879250131483E9, 0.0, 2024-03-13 20:45:25.013
16.0, 11.399215064942837, 507.5418229866773, 4.050311652012169, 505.99724430497736, 0.01600000075995922, -0.19200000911951065, 1.0400000493973494, 0.0, 0.0, 0.0, 0.0, 0.0, 1.710387925013891E9, 0.0, 2024-03-13 20:45:25.013
16.0, 104.41239691292867, 417.5299108531326, 110.85250463662669, 458.5117345675826, 0.01600000075995922, -0.19200000911951065, 1.0400000493973494, 0.0, 0.0, 0.0, 0.0, 0.0, 1.710387925013891E9, 0.0, 2024-03-13 20:45:25.013
17.0, 242.9831700711511, 331.79083441896364, 202.147202454973, 398.71260422607884, 0.01600000075995922, -0.19200000911951065, 1.0400000493973494, 0.0, 0.0, 0.0, 0.0, 0.0, 1.7103879250275228E9, 0.0, 2024-03-13 20:45:25.027
17.0, 66.20370901562274, 171.115382572636, 49.347979915328324, 175.5322044203058, 0.01600000075995922, -0.19200000911951065, 1.0400000493973494, 0.0, 0.0, 0.0, 0.0, 0.0, 1.7103879250275228E9, 0.0, 2024-03-13 20:45:25.027
18.0, 220.87662143306807, 60.82573287934065, 248.6939973034896, 78.97546736430377, 0.01600000075995922, -0.19200000911951065, 1.0400000493973494, 0.0, 0.0, 0.0, 0.0, 0.0, 1.710387925043199E9, 0.0, 2024-03-13 20:45:25.043
18.0, 116.76154656661674, 101.31762969959527, 99.81605986738577, 176.1941667124629, 0.01600000075995922, -0.19200000911951065, 1.0400000493973494, 0.0, 0.0, 0.0, 0.0, 0.0, 1.710387925043199E9, 0.0, 2024-03-13 20:45:25.043
19.0, 34.369680592790246, 192.17101932317019, 13.392581741325557, 229.5587991802022, 0.01600000075995922, -0.19200000911951065, 1.0400000493973494, 0.0, 0.0, 0.0, 0.0, 0.0, 1.710387925044216E9, 0.0, 2024-03-13 20:45:25.044
19.0, -119.44866468477994, 275.80079218233004, -94.87752197589725, 288.3743358333595, 0.01600000075995922, -0.19200000911951065, 1.0400000493973494, 0.0, 0.0, 0.0, 0.0, 0.0, 1.710387925044216E9, 0.0, 2024-03-13 20:45:25.044
20.0, 48.81504417164251, 416.48273886553943, 60.89492102852091, 492.686940362677, 0.01600000075995922, -0.19200000911951065, 1.0400000493973494, 0.0, 0.0, 0.0, 0.0, 0.0, 1.7103879250579355E9, 0.0, 2024-03-13 20:45:25.057
20.0, -81.36526343598962, 562.1443623397499, -115.31981513369828, 618.4373364727944, 0.01600000075995922, -0.19200000911951065, 1.0400000493973494, 0.0, 0.0, 0.0, 0.0, 0.0, 1.7103879250579355E9, 0.0, 2024-03-13 20:45:25.057
21.0, -6.952474017627537, 498.95501268841326, 6.698160820640624, 505.9523655055091, 0.01600000075995922, -0.19200000911951065, 1.0400000493973494, 0.0, 0.0, 0.0, 0.0, 0.0, 1.7103879250732703E9, 0.0, 2024-03-13 20:45:25.073
21.0, 94.2847478329204, 415.73849877435714, 118.60531724477187, 459.7272020531818, 0.01600000075995922, -0.19200000911951065, 1.0400000493973494, 0.0, 0.0, 0.0, 0.0, 0.0, 1.7103879250732703E9, 0.0, 2024-03-13 20:45:25.073
22.0, 251.22964947344735, 341.2864404064603, 217.753804970067, 416.64916441356763, 0.01600000075995922, -0.19200000911951065, 1.0400000493973494, 0.0, 0.0, 0.0, 0.0, 0.0, 1.7103879250739708E9, 0.0, 2024-03-13 20:45:25.073
22.0, 71.02444005850703, 180.06122326664627, 65.11913802847266, 195.2452170867473, 0.01600000075995922, -0.19200000911951065, 1.0400000493973494, 0.0, 0.0, 0.0, 0.0, 0.0, 1.7103879250739708E9, 0.0, 2024-03-13 20:45:25.073
23.0, 230.4283259199001, 71.13289715722203, 248.82115390198305, 88.84880324732512, 0.01600000075995922, -0.19200000911951065, 1.0400000493973494, 0.0, 0.0, 0.0, 0.0, 0.0, 1.7103879250875292E9, 0.0, 2024-03-13 20:45:25.087
23.0, 129.16305481968448, 106.07478244323283, 98.60059238178656, 179.39178117457777, 0.01600000075995922, -0.19200000911951065, 1.0400000493973494, 0.0, 0.0, 0.0, 0.0, 0.0, 1.7103879250875292E9, 0.0, 2024-03-13 20:45:25.087
24.0, 43.4277182854712, 203.12518629338592, 17.457852993160486, 239.7088876599446, 0.01600000075995922, -0.19200000911951065, 1.0400000493973494, 0.0, 0.0, 0.0, 0.0, 0.0, 1.7103879251198716E9, 0.0, 2024-03-13 20:45:25.119
24.0, -111.17600598279387, 290.77161170495674, -87.38650236465037, 297.17806032905355, 0.01600000075995922, -0.19200000911951065, 1.0400000493973494, 0.0, 0.0, 0.0, 0.0, 0.0, 1.7103879251198716E9, 0.0, 2024-03-13 20:45:25.119
25.0, 60.58076943224296, 425.750210955739, 49.29375136597082, 492.3353897668421, 0.01600000075995922, -0.19200000911951065, 1.0400000493973494, 0.0, 0.0, 0.0, 0.0, 0.0, 1.7103879251204312E9, 0.0, 2024-03-13 20:45:25.120
25.0, -79.45791445858777, 564.1788679156452, -123.28954193927348, 619.2825538627803, 0.01600000075995922, -0.19200000911951065, 1.0400000493973494, 0.0, 0.0, 0.0, 0.0, 0.0, 1.7103879251204312E9, 0.0, 2024-03-13 20:45:25.120
26.0, 16.84076950047165, 511.4013997409493, 20.285217359662056, 513.8472943119705, 0.01600000075995922, -0.19200000911951065, 1.0400000493973494, 0.0, 0.0, 0.0, 0.0, 0.0, 1.7103879251213636E9, 0.0, 2024-03-13 20:45:25.121
26.0, 103.08099252870306, 426.00452415272593, 131.38455539336428, 472.2184679051861, 0.01600000075995922, -0.19200000911951065, 1.0400000493973494, 0.0, 0.0, 0.0, 0.0, 0.0, 1.7103879251213636E9, 0.0, 2024-03-13 20:45:25.121
27.0, 249.5466944933869, 344.7346281656064, 229.7214848282747, 422.5582063435577, 0.01600000075995922, -0.19200000911951065, 1.0400000493973494, 0.0, 0.0, 0.0, 0.0, 0.0, 1.7103879251219625E9, 0.0, 2024-03-13 20:45:25.121
27.0, 76.26777979638427, 187.36524788010865, 72.16510954499245, 205.10733326990157, 0.01600000075995922, -0.19200000911951065, 1.0400000493973494, 0.0, 0.0, 0.0, 0.0, 0.0, 1.7103879251219625E9, 0.0, 2024-03-13 20:45:25.121
28.0, 234.8750669672154, 75.27296640817076, 258.1073254919611, 100.77908410597593, 0.01600000075995922, -0.19200000911951065, 1.0400000493973494, 0.0, 0.0, 0.0, 0.0, 0.0, 1.710387925132522E9, 0.0, 2024-03-13 20:45:25.132
28.0, 116.64186976803467, 110.06151579599828, 107.44545577699319, 191.67735252901912, 0.01600000075995922, -0.19200000911951065, 1.0400000493973494, 0.0, 0.0, 0.0, 0.0, 0.0, 1.710387925132522E9, 0.0, 2024-03-13 20:45:25.132
29.0, 39.76261632889509, 201.51702931243926, 20.285217359662056, 241.88176953420043, 0.01600000075995922, -0.19200000911951065, 1.0400000493973494, 0.0, 0.0, 0.0, 0.0, 0.0, 1.710387925147643E9, 0.0, 2024-03-13 20:45:25.147
29.0, -106.71430533565581, 292.8996147797443, -83.70270090829581, 302.21944546932355, 0.01600000075995922, -0.19200000911951065, 1.0400000493973494, 0.0, 0.0, 0.0, 0.0, 0.0, 1.710387925147643E9, 0.0, 2024-03-13 20:45:25.147
30.0, 67.13307415461168, 436.66323902644217, 75.30101565783843, 509.88674025889486, 0.01600000075995922, -0.19200000911951065, 1.0400000493973494, 0.0, 0.0, 0.0, 0.0, 0.0, 1.7103879251632369E9, 0.0, 2024-03-13 20:45:25.163
30.0, -68.84407838433981, 573.4874789053574, -110.8281952869147, 637.0919574517757, 0.01600000075995922, -0.19200000911951065, 1.0400000493973494, 0.0, 0.0, 0.0, 0.0, 0.0, 1.7103879251632369E9, 0.0, 2024-03-13 20:45:25.163
31.0, 30.786856435239315, 525.781315070577, 31.80036932323128, 535.6808302532881, 0.01600000075995922, -0.19200000911951065, 1.0400000493973494, 0.0, 0.0, 0.0, 0.0, 0.0, 1.710387925163948E9, 0.0, 2024-03-13 20:45:25.163
31.0, 105.807379596401, 422.39926059544086, 128.62076932610944, 474.4137891791761, 0.01600000075995922, -0.19200000911951065, 1.0400000493973494, 0.0, 0.0, 0.0, 0.0, 0.0, 1.710387925163948E9, 0.0, 2024-03-13 20:45:25.163
32.0, 257.5575601984747, 342.46076899254695, 222.72787191113457, 418.5153744914569, 0.01600000075995922, -0.19200000911951065, 1.0400000493973494, 0.0, 0.0, 0.0, 0.0, 0.0, 1.7103879251775174E9, 0.0, 2024-03-13 20:45:25.177
32.0, 89.00213914550841, 183.47575192619115, 63.746594744734466, 197.25354336295277, 0.01600000075995922, -0.19200000911951065, 1.0400000493973494, 0.0, 0.0, 0.0, 0.0, 0.0, 1.7103879251775174E9, 0.0, 2024-03-13 20:45:25.177
33.0, 224.44822589075193, 63.0659329527989, 246.26306233229116, 88.65058854967356, 0.01600000075995922, -0.19200000911951065, 1.0400000493973494, 0.0, 0.0, 0.0, 0.0, 0.0, 1.7103879251935706E9, 0.0, 2024-03-13 20:45:25.193
33.0, 121.7056943080388, 97.42439384572208, 92.30634075636044, 175.86879541631788, 0.01600000075995922, -0.19200000911951065, 1.0400000493973494, 0.0, 0.0, 0.0, 0.0, 0.0, 1.7103879251935706E9, 0.0, 2024-03-13 20:45:25.193
34.0, 40.25254322309047, 206.93614434823394, 10.87188917119056, 243.370249716565, 0.01600000075995922, -0.19200000911951065, 1.0400000493973494, 0.0, 0.0, 0.0, 0.0, 0.0, 1.7103879251940277E9, 0.0, 2024-03-13 20:45:25.194
34.0, -112.44757196772844, 285.7190068648197, -95.49460546858609, 294.24971866374835, 0.01600000075995922, -0.19200000911951065, 1.0400000493973494, 0.0, 0.0, 0.0, 0.0, 0.0, 1.7103879251940277E9, 0.0, 2024-03-13 20:45:25.194
35.0, 58.68838005466387, 427.4294260358438, 67.99325114442036, 499.87876797746867, 0.01600000075995922, -0.19200000911951065, 1.0400000493973494, 0.0, 0.0, 0.0, 0.0, 0.0, 1.7103879252075088E9, 0.0, 2024-03-13 20:45:25.207
35.0, -76.2976989960298, 567.6681945743039, -110.67859928868711, 631.2951125204563, 0.01600000075995922, -0.19200000911951065, 1.0400000493973494, 0.0, 0.0, 0.0, 0.0, 0.0, 1.7103879252075088E9, 0.0, 2024-03-13 20:45:25.207
36.0, 6.45132742356509, 510.5374828511849, 26.92353978101164, 525.3549664756283, 0.01600000075995922, -0.19200000911951065, 1.0400000493973494, 0.0, 0.0, 0.0, 0.0, 0.0, 1.7103879252232237E9, 0.0, 2024-03-13 20:45:25.223
36.0, 97.7291956921108, 412.4511267133057, 123.16425529075786, 463.90841020364314, 0.01600000075995922, -0.19200000911951065, 1.0400000493973494, 0.0, 0.0, 0.0, 0.0, 0.0, 1.7103879252232237E9, 0.0, 2024-03-13 20:45:25.223
37.0, 243.18138476880267, 330.96431652875617, 223.6404075003229, 414.00505514489487, 0.01600000075995922, -0.19200000911951065, 1.0400000493973494, 0.0, 0.0, 0.0, 0.0, 0.0, 1.7103879252239237E9, 0.0, 2024-03-13 20:45:25.223
37.0, 72.67747583892196, 182.31638293992728, 64.24026153888553, 200.9149054195732, 0.01600000075995922, -0.19200000911951065, 1.0400000493973494, 0.0, 0.0, 0.0, 0.0, 0.0, 1.7103879252239237E9, 0.0, 2024-03-13 20:45:25.223
38.0, 227.29054985707626, 65.89703721925616, 249.6888106917031, 87.70439386088401, 0.01600000075995922, -0.19200000911951065, 1.0400000493973494, 0.0, 0.0, 0.0, 0.0, 0.0, 1.710387925237713E9, 0.0, 2024-03-13 20:45:25.237
38.0, 116.6306500681676, 89.63792213797569, 96.33795290859416, 167.64849531371146, 0.01600000075995922, -0.19200000911951065, 1.0400000493973494, 0.0, 0.0, 0.0, 0.0, 0.0, 1.710387925237713E9, 0.0, 2024-03-13 20:45:25.237
39.0, 46.27378215175122, 197.8332278560847, 14.121862232685089, 234.3309115236625, 0.01600000075995922, -0.19200000911951065, 1.0400000493973494, 0.0, 0.0, 0.0, 0.0, 0.0, 1.7103879252532575E9, 0.0, 2024-03-13 20:45:25.253
39.0, -100.98851850349456, 290.8239703043364, -88.97595984581858, 300.74218498682603, 0.01600000075995922, -0.19200000911951065, 1.0400000493973494, 0.0, 0.0, 0.0, 0.0, 0.0, 1.7103879252532575E9, 0.0, 2024-03-13 20:45:25.253
40.0, 70.25215071765706, 428.053989328444, 65.63337427238002, 497.29449710808694, 0.01600000075995922, -0.19200000911951065, 1.0400000493973494, 0.0, 0.0, 0.0, 0.0, 0.0, 1.7103879252539778E9, 0.0, 2024-03-13 20:45:25.253
40.0, -74.8129587136209, 568.3675558660179, -120.8361675683409, 627.5776519645005, 0.01600000075995922, -0.19200000911951065, 1.0400000493973494, 0.0, 0.0, 0.0, 0.0, 0.0, 1.7103879252539778E9, 0.0, 2024-03-13 20:45:25.253
41.0, 26.082062290981412, 527.0603608554229, 23.73340511880815, 527.1875174539164, 0.01600000075995922, -0.20800000987946987, 1.0400000493973494, 0.0, 0.0, 0.0, 0.0, 0.0, 1.710387925267904E9, 0.0, 2024-03-13 20:45:25.267
41.0, 109.76793364947662, 425.3500416604802, 117.41976895881817, 462.86497811600566, 0.01600000075995922, -0.20800000987946987, 1.0400000493973494, 0.0, 0.0, 0.0, 0.0, 0.0, 1.710387925267904E9, 0.0, 2024-03-13 20:45:25.267
42.0, 259.64068447379395, 340.41878361674026, 217.80990346940234, 410.4072713875212, 0.01600000075995922, -0.20800000987946987, 1.0400000493973494, 0.0, 0.0, 0.0, 0.0, 0.0, 1.710387925283447E9, 0.0, 2024-03-13 20:45:25.283
42.0, 76.57445159275085, 191.0527892364189, 66.92924960702658, 205.283108567819, 0.01600000075995922, -0.20800000987946987, 1.0400000493973494, 0.0, 0.0, 0.0, 0.0, 0.0, 1.710387925283447E9, 0.0, 2024-03-13 20:45:25.283
43.0, 227.66827975260094, 68.2569140912965, 263.01033433387056, 97.84700254071504, 0.01600000075995922, -0.20800000987946987, 1.0400000493973494, 0.0, 0.0, 0.0, 0.0, 0.0, 1.7103879252840369E9, 0.0, 2024-03-13 20:45:25.284
43.0, 116.20056157326326, 95.58062316756696, 102.86781823122874, 181.415067050606, 0.01600000075995922, -0.20800000987946987, 1.0400000493973494, 0.0, 0.0, 0.0, 0.0, 0.0, 1.7103879252840369E9, 0.0, 2024-03-13 20:45:25.284
44.0, 40.56669481936842, 199.64333943463862, 10.651235073804855, 240.44190805125982, 0.01600000075995922, -0.20800000987946987, 1.0400000493973494, 0.0, 0.0, 0.0, 0.0, 0.0, 1.7103879252977931E9, 0.0, 2024-03-13 20:45:25.297
44.0, -106.33657544013113, 294.40305456193164, -87.42390136420727, 302.8664481616579, 0.01600000075995922, -0.20800000987946987, 1.0400000493973494, 0.0, 0.0, 0.0, 0.0, 0.0, 1.7103879252977931E9, 0.0, 2024-03-13 20:45:25.297
45.0, 54.17432080814615, 426.03818325232714, 65.46133887441829, 497.81060330197215, 0.01600000075995922, -0.20800000987946987, 1.0400000493973494, 0.0, 0.0, 0.0, 0.0, 0.0, 1.7103879253131971E9, 0.0, 2024-03-13 20:45:25.313
45.0, -75.72549430280924, 570.1701876446605, -114.28386284597218, 628.4752279538661, 0.01600000075995922, -0.20800000987946987, 1.0400000493973494, 0.0, 0.0, 0.0, 0.0, 0.0, 1.7103879253131971E9, 0.0, 2024-03-13 20:45:25.313
46.0, 27.996891068294644, 529.0387679319829, 28.382100763730705, 534.7308956645429, 0.01600000075995922, -0.20800000987946987, 1.0400000493973494, 0.0, 0.0, 0.0, 0.0, 0.0, 1.7103879253139288E9, 0.0, 2024-03-13 20:45:25.313
46.0, 111.48454772913828, 424.9797915648669, 133.4938589683734, 475.7377137634903, 0.01600000075995922, -0.20800000987946987, 1.0400000493973494, 0.0, 0.0, 0.0, 0.0, 0.0, 1.7103879253139288E9, 0.0, 2024-03-13 20:45:25.313
47.0, 257.0975525039248, 343.11899138474837, 222.6792532117106, 414.6931967367418, 0.01600000075995922, -0.20800000987946987, 1.0400000493973494, 0.0, 0.0, 0.0, 0.0, 0.0, 1.710387925327479E9, 0.0, 2024-03-13 20:45:25.327
47.0, 78.94928806461394, 185.17740640603006, 58.38357820827514, 197.87810665555298, 0.01600000075995922, -0.20800000987946987, 1.0400000493973494, 0.0, 0.0, 0.0, 0.0, 0.0, 1.710387925327479E9, 0.0, 2024-03-13 20:45:25.327
48.0, 242.8373139728792, 71.31615225505084, 253.6905036442913, 86.20469397865236, 0.01600000075995922, -0.20800000987946987, 1.0400000493973494, 0.0, 0.0, 0.0, 0.0, 0.0, 1.7103879253432696E9, 0.0, 2024-03-13 20:45:25.343
48.0, 108.38417066587135, 86.31689097732306, 94.92427072534338, 165.7448862362653, 0.01600000075995922, -0.20800000987946987, 1.0400000493973494, 0.0, 0.0, 0.0, 0.0, 0.0, 1.7103879253432696E9, 0.0, 2024-03-13 20:45:25.343
49.0, 40.70881101768464, 201.3225545147434, 15.374728717841208, 239.6340896608308, 0.01600000075995922, -0.20800000987946987, 1.0400000493973494, 0.0, 0.0, 0.0, 0.0, 0.0, 1.7103879253439372E9, 0.0, 2024-03-13 20:45:25.343
49.0, -112.29423606954515, 290.46493990859017, -96.7474719537422, 291.4260941972025, 0.01600000075995922, -0.20800000987946987, 1.0400000493973494, 0.0, 0.0, 0.0, 0.0, 0.0, 1.7103879253439372E9, 0.0, 2024-03-13 20:45:25.343
50.0, 64.96019228035584, 432.0519423810765, 61.73639851855114, 497.96019930019975, 0.01600000075995922, -0.20800000987946987, 1.0400000493973494, 0.0, 0.0, 0.0, 0.0, 0.0, 1.7103879253575237E9, 0.0, 2024-03-13 20:45:25.357
50.0, -73.67228922713548, 573.5921961041167, -108.460838614963, 628.3181521557271, 0.01600000075995922, -0.20800000987946987, 1.0400000493973494, 0.0, 0.0, 0.0, 0.0, 0.0, 1.7103879253575237E9, 0.0, 2024-03-13 20:45:25.357
51.0, 25.659453595988452, 524.7827617824078, 32.9410388097167, 535.0600068606436, 0.01600000075995922, -0.19200000911951065, 1.0400000493973494, 0.0, 0.0, 0.0, 0.0, 0.0, 1.7103879253731887E9, 0.0, 2024-03-13 20:45:25.373
51.0, 100.04045386472717, 425.6791528565809, 121.36536341207102, 464.7685871934518, 0.01600000075995922, -0.19200000911951065, 1.0400000493973494, 0.0, 0.0, 0.0, 0.0, 0.0, 1.7103879253731887E9, 0.0, 2024-03-13 20:45:25.373
52.0, 248.84733320167288, 337.26978785404935, 219.1562674534507, 411.19639027817175, 0.01600000075995922, -0.19200000911951065, 1.0400000493973494, 0.0, 0.0, 0.0, 0.0, 0.0, 1.710387925373888E9, 0.0, 2024-03-13 20:45:25.373
52.0, 81.69063473213464, 193.91755260247737, 79.61499025672674, 213.62682536896318, 0.01600000075995922, -0.19200000911951065, 1.0400000493973494, 0.0, 0.0, 0.0, 0.0, 0.0, 1.710387925373888E9, 0.0, 2024-03-13 20:45:25.373
53.0, 235.0171831655316, 81.45502103492618, 259.8164597717114, 96.20892636012286, 0.01600000075995922, -0.19200000911951065, 1.0400000493973494, 0.0, 0.0, 0.0, 0.0, 0.0, 1.7103879253878932E9, 0.0, 2024-03-13 20:45:25.387
53.0, 114.09499789820984, 94.90370127558708, 105.48948810016736, 177.73500549420714, 0.01600000075995922, -0.19200000911951065, 1.0400000493973494, 0.0, 0.0, 0.0, 0.0, 0.0, 1.7103879253878932E9, 0.0, 2024-03-13 20:45:25.387
54.0, 40.402139221318066, 206.83142714947462, 11.64978836197406, 239.8210846586153, 0.01600000075995922, -0.19200000911951065, 1.0400000493973494, 0.0, 0.0, 0.0, 0.0, 0.0, 1.7103879254035196E9, 0.0, 2024-03-13 20:45:25.403
54.0, -104.30206986423582, 302.32790256803855, -89.42848774045706, 301.4639856782742, 0.01600000075995922, -0.19200000911951065, 1.0400000493973494, 0.0, 0.0, 0.0, 0.0, 0.0, 1.7103879254035196E9, 0.0, 2024-03-13 20:45:25.403
55.0, 53.7853712127544, 422.03275039978325, 51.17118114372715, 483.8495567673817, 0.01600000075995922, -0.19200000911951065, 1.0400000493973494, 0.0, 0.0, 0.0, 0.0, 0.0, 1.7103879254042373E9, 0.0, 2024-03-13 20:45:25.404
55.0, -81.52981903403997, 558.0005531888455, -119.0559751894325, 614.5441006189212, 0.01600000075995922, -0.19200000911951065, 1.0400000493973494, 0.0, 0.0, 0.0, 0.0, 0.0, 1.7103879254042373E9, 0.0, 2024-03-13 20:45:25.404
56.0, 14.810003824532032, 519.412265446037, 24.1223547141999, 524.6930041834712, 0.01600000075995922, -0.19200000911951065, 1.0400000493973494, 0.0, 0.0, 0.0, 0.0, 0.0, 1.7103879254179664E9, 0.0, 2024-03-13 20:45:25.417
56.0, 104.39369741315022, 409.0029389541596, 116.04348577512428, 452.4418769394979, 0.01600000075995922, -0.19200000911951065, 1.0400000493973494, 0.0, 0.0, 0.0, 0.0, 0.0, 1.7103879254179664E9, 0.0, 2024-03-13 20:45:25.417
57.0, 235.43231206061319, 320.582354251761, 212.64510163059458, 399.2137508201413, 0.01600000075995922, -0.19200000911951065, 1.0400000493973494, 0.0, 0.0, 0.0, 0.0, 0.0, 1.7103879254332113E9, 0.0, 2024-03-13 20:45:25.433
57.0, 78.71741426736116, 185.58879540115595, 67.57999219931662, 203.06534789409488, 0.01600000075995922, -0.19200000911951065, 1.0400000493973494, 0.0, 0.0, 0.0, 0.0, 0.0, 1.7103879254332113E9, 0.0, 2024-03-13 20:45:25.433
58.0, 233.89147327886894, 70.57939196377993, 248.63415890419856, 84.3721430003643, 0.01600000075995922, -0.19200000911951065, 1.0400000493973494, 0.0, 0.0, 0.0, 0.0, 0.0, 1.7103879254339073E9, 0.0, 2024-03-13 20:45:25.433
58.0, 121.09609061526135, 92.8205770002678, 83.89530575601384, 161.39538258779794, 0.01600000075995922, -0.19200000911951065, 1.0400000493973494, 0.0, 0.0, 0.0, 0.0, 0.0, 1.7103879254339073E9, 0.0, 2024-03-13 20:45:25.433
59.0, 36.845494363456964, 203.33462069090456, -0.44504809472709894, 232.90226974058896, 0.01600000075995922, -0.19200000911951065, 1.0400000493973494, 0.0, 0.0, 0.0, 0.0, 0.0, 1.7103879254475408E9, 0.0, 2024-03-13 20:45:25.447
59.0, -98.35936883464456, 312.7697032443248, -86.88161587063223, 306.9803381129168, 0.01600000075995922, -0.19200000911951065, 1.0400000493973494, 0.0, 0.0, 0.0, 0.0, 0.0, 1.7103879254475408E9, 0.0, 2024-03-13 20:45:25.447
60.0, 65.75679097091779, 432.9046395709738, 61.10061552608386, 490.8356898846105, 0.01600000075995922, -0.19200000911951065, 1.0400000493973494, 0.0, 0.0, 0.0, 0.0, 0.0, 1.7103879254634461E9, 0.0, 2024-03-13 20:45:25.463
60.0, -90.94688712246716, 564.5378983113915, -114.75509024038911, 623.3814842142165, 0.01600000075995922, -0.19200000911951065, 1.0400000493973494, 0.0, 0.0, 0.0, 0.0, 0.0, 1.7103879254634461E9, 0.0, 2024-03-13 20:45:25.463
61.0, 29.586348549462855, 532.4532965915278, 32.791442811489105, 537.4946817317978, 0.01600000075995922, -0.19200000911951065, 1.0400000493973494, 0.0, 0.0, 0.0, 0.0, 0.0, 1.7103879254639652E9, 0.0, 2024-03-13 20:45:25.463
61.0, 105.98689479427412, 425.26402396149933, 126.82561734737828, 470.4868942257017, 0.01600000075995922, -0.19200000911951065, 1.0400000493973494, 0.0, 0.0, 0.0, 0.0, 0.0, 1.7103879254639652E9, 0.0, 2024-03-13 20:45:25.463
62.0, 256.0952593157999, 331.5477409218438, 217.5668099722825, 405.1639316496439, 0.01600000075995922, -0.19200000911951065, 1.0400000493973494, 0.0, 0.0, 0.0, 0.0, 0.0, 1.710387925477626E9, 0.0, 2024-03-13 20:45:25.477
62.0, 79.61499025672674, 191.74841062817723, 70.94590215943754, 208.23762953281403, 0.01600000075995922, -0.19200000911951065, 1.0400000493973494, 0.0, 0.0, 0.0, 0.0, 0.0, 1.710387925477626E9, 0.0, 2024-03-13 20:45:25.477
63.0, 244.07522085821256, 83.39228921197355, 260.09321236843243, 99.86654851678759, 0.01600000075995922, -0.19200000911951065, 1.0400000493973494, 0.0, 0.0, 0.0, 0.0, 0.0, 1.7103879254931977E9, 0.0, 2024-03-13 20:45:25.493
63.0, 122.93612139346078, 96.94568665139377, 100.98664855351672, 175.72293931804597, 0.01600000075995922, -0.19200000911951065, 1.0400000493973494, 0.0, 0.0, 0.0, 0.0, 0.0, 1.7103879254931977E9, 0.0, 2024-03-13 20:45:25.493
64.0, 42.56380139570683, 202.40338560193777, 13.317783742211759, 242.89902232214808, 0.01600000075995922, -0.19200000911951065, 1.0400000493973494, 0.0, 0.0, 0.0, 0.0, 0.0, 1.7103879254939148E9, 0.0, 2024-03-13 20:45:25.493
64.0, -103.21749887708575, 300.0877024945803, -81.75421303138137, 304.5980218411423, 0.01600000075995922, -0.19200000911951065, 1.0400000493973494, 0.0, 0.0, 0.0, 0.0, 0.0, 1.7103879254939148E9, 0.0, 2024-03-13 20:45:25.493
65.0, 57.558930268045515, 420.03564382344484, 62.66763360751793, 485.76438554469496, 0.01600000075995922, -0.19200000911951065, 1.0400000493973494, 0.0, 0.0, 0.0, 0.0, 0.0, 1.710387925507552E9, 0.0, 2024-03-13 20:45:25.507
65.0, -81.94868782907724, 552.2261476572603, -120.33502097427845, 619.2189755635336, 0.01600000075995922, -0.19200000911951065, 1.0400000493973494, 0.0, 0.0, 0.0, 0.0, 0.0, 1.710387925507552E9, 0.0, 2024-03-13 20:45:25.507
66.0, 23.7895036181435, 522.9128118045628, 32.62314731348306, 533.885678274557, 0.01600000075995922, -0.19200000911951065, 1.0400000493973494, 0.0, 0.0, 0.0, 0.0, 0.0, 1.7103879255232341E9, 0.0, 2024-03-13 20:45:25.523
66.0, 97.16821069875732, 413.50951840076596, 123.00717949261889, 459.8431389518082, 0.01600000075995922, -0.19200000911951065, 1.0400000493973494, 0.0, 0.0, 0.0, 0.0, 0.0, 1.7103879255232341E9, 0.0, 2024-03-13 20:45:25.523
67.0, 242.0631546820514, 322.3101880312897, 208.50129247969016, 401.85038028890267, 0.01600000075995922, -0.19200000911951065, 1.0400000493973494, 0.0, 0.0, 0.0, 0.0, 0.0, 1.7103879255240986E9, 0.0, 2024-03-13 20:45:25.524
67.0, 81.68315493222326, 178.69615978281945, 62.06363976467401, 199.3516272380948, 0.01600000075995922, -0.19200000911951065, 1.0400000493973494, 0.0, 0.0, 0.0, 0.0, 0.0, 1.7103879255240986E9, 0.0, 2024-03-13 20:45:25.524
68.0, 215.71929939417168, 63.86627154331654, 250.74346247920766, 83.06691791582853, 0.01600000075995922, -0.19200000911951065, 1.0400000493973494, 0.0, 0.0, 0.0, 0.0, 0.0, 1.7103879255379388E9, 0.0, 2024-03-13 20:45:25.537
68.0, 108.88157735997811, 68.15593679249287, 77.82918802788481, 152.43458229396492, 0.01600000075995922, -0.19200000911951065, 1.0400000493973494, 0.0, 0.0, 0.0, 0.0, 0.0, 1.7103879255379388E9, 0.0, 2024-03-13 20:45:25.537
69.0, 31.486217726953328, 190.3833471443504, 2.5954905692487955, 230.9986606631428, 0.01600000075995922, -0.19200000911951065, 1.0400000493973494, 0.0, 0.0, 0.0, 0.0, 0.0, 1.7103879255532746E9, 0.0, 2024-03-13 20:45:25.553
69.0, -117.56001520715654, 285.4160749684088, -95.53200446814299, 296.3178833392449, 0.01600000075995922, -0.19200000911951065, 1.0400000493973494, 0.0, 0.0, 0.0, 0.0, 0.0, 1.7103879255532746E9, 0.0, 2024-03-13 20:45:25.553
70.0, 50.89816844696179, 408.0791836651042, 54.686687102075666, 473.94256178475916, 0.01600000075995922, -0.19200000911951065, 1.0400000493973494, 0.0, 0.0, 0.0, 0.0, 0.0, 1.7103879255539196E9, 0.0, 2024-03-13 20:45:25.553
70.0, -89.75759893655777, 549.0322730951011, -132.23912253323942, 604.9063784331083, 0.01600000075995922, -0.19200000911951065, 1.0400000493973494, 0.0, 0.0, 0.0, 0.0, 0.0, 1.7103879255539196E9, 0.0, 2024-03-13 20:45:25.553
71.0, 19.828949565067887, 521.5253089210019, 28.59153516124934, 529.1360053308308, 0.01600000075995922, -0.19200000911951065, 1.0400000493973494, 0.0, 0.0, 0.0, 0.0, 0.0, 1.7103879255674815E9, 0.0, 2024-03-13 20:45:25.567
71.0, 102.00390134146437, 411.1122425291687, 121.97122720489278, 455.6320116017014, 0.01600000075995922, -0.19200000911951065, 1.0400000493973494, 0.0, 0.0, 0.0, 0.0, 0.0, 1.7103879255674815E9, 0.0, 2024-03-13 20:45:25.567
72.0, 220.4614925379865, 307.2421311098151, 200.32961107650772, 388.88414714252576, 0.01600000075995922, -0.19200000911951065, 1.0400000493973494, 0.0, 0.0, 0.0, 0.0, 0.0, 1.710387925583207E9, 0.0, 2024-03-13 20:45:25.583
72.0, 76.24160049669445, 180.13228136580437, 61.19224307499826, 196.14653297606856, 0.01600000075995922, -0.19200000911951065, 1.0400000493973494, 0.0, 0.0, 0.0, 0.0, 0.0, 1.710387925583207E9, 0.0, 2024-03-13 20:45:25.583
73.0, 218.40454756235704, 61.68590986914933, 252.00006886431947, 86.80681787151843, 0.01600000075995922, -0.19200000911951065, 1.0400000493973494, 0.0, 0.0, 0.0, 0.0, 0.0, 1.7103879255841517E9, 0.0, 2024-03-13 20:45:25.584
73.0, 96.82413990283385, 67.25836080312729, 82.11137347714975, 149.90640992391855, 0.01600000075995922, -0.19200000911951065, 1.0400000493973494, 0.0, 0.0, 0.0, 0.0, 0.0, 1.7103879255841517E9, 0.0, 2024-03-13 20:45:25.584
74.0, 26.14938049018383, 183.21021902933717, -2.6067102691158652, 221.30110007803887, 0.01600000075995922, -0.19200000911951065, 1.0400000493973494, 0.0, 0.0, 0.0, 0.0, 0.0, 1.7103879255975516E9, 0.0, 2024-03-13 20:45:25.597
74.0, -110.20363199431449, 282.0352054084651, -98.56880323216319, 286.4183681565337, 0.01600000075995922, -0.19200000911951065, 1.0400000493973494, 0.0, 0.0, 0.0, 0.0, 0.0, 1.7103879255975516E9, 0.0, 2024-03-13 20:45:25.597
75.0, 58.04885716224089, 401.54183854255825, 47.74917268427089, 465.0827387897298, 0.01600000075995922, -0.19200000911951065, 1.0400000493973494, 0.0, 0.0, 0.0, 0.0, 0.0, 1.7103879256131976E9, 0.0, 2024-03-13 20:45:25.613
75.0, -106.22437844146043, 534.4242238681763, -136.9887954769656, 594.4496181569993, 0.01600000075995922, -0.19200000911951065, 1.0400000493973494, 0.0, 0.0, 0.0, 0.0, 0.0, 1.7103879256131976E9, 0.0, 2024-03-13 20:45:25.613
76.0, 10.284724878147244, 513.8921731114388, 26.022223891690373, 520.9194451281801, 0.01600000075995922, -0.19200000911951065, 1.0400000493973494, 0.0, 0.0, 0.0, 0.0, 0.0, 1.7103879256139224E9, 0.0, 2024-03-13 20:45:25.613
76.0, 97.07471319986507, 411.6507881227881, 110.19054234446958, 450.5569673618302, 0.01600000075995922, -0.19200000911951065, 1.0400000493973494, 0.0, 0.0, 0.0, 0.0, 0.0, 1.7103879256139224E9, 0.0, 2024-03-13 20:45:25.613
77.0, 231.63257370563224, 301.62854127632454, 202.47257375111803, 377.122161781881, 0.01600000075995922, -0.19200000911951065, 1.0400000493973494, 0.0, 0.0, 0.0, 0.0, 0.0, 1.7103879256275449E9, 0.0, 2024-03-13 20:45:25.627
77.0, 36.875413563102484, 158.64281622041017, 46.74500954616815, 178.39322788640857, 0.01600000075995922, -0.19200000911951065, 1.0400000493973494, 0.0, 0.0, 0.0, 0.0, 0.0, 1.7103879256275449E9, 0.0, 2024-03-13 20:45:25.627
78.0, 216.4224005858414, 57.14193142298609, 250.94167717685923, 78.20878787338734, 0.01600000075995922, -0.19200000911951065, 1.0400000493973494, 0.0, 0.0, 0.0, 0.0, 0.0, 1.710387925643227E9, 0.0, 2024-03-13 20:45:25.643
78.0, 90.60842617647722, 61.31565977353603, 75.17759895930067, 140.05177354067564, 0.01600000075995922, -0.19200000911951065, 1.0400000493973494, 0.0, 0.0, 0.0, 0.0, 0.0, 1.710387925643227E9, 0.0, 2024-03-13 20:45:25.643
79.0, 28.883247357793152, 191.4604383315891, 6.544824922457337, 227.52803350426257, 0.01600000075995922, -0.19200000911951065, 1.0400000493973494, 0.0, 0.0, 0.0, 0.0, 0.0, 1.710387925643956E9, 0.0, 2024-03-13 20:45:25.643
79.0, -118.00132340192795, 295.4165674499236, -83.87473630625755, 309.96477827755734, 0.01600000075995922, -0.19200000911951065, 1.0400000493973494, 0.0, 0.0, 0.0, 0.0, 0.0, 1.710387925643956E9, 0.0, 2024-03-13 20:45:25.643
80.0, 48.79634467186406, 417.54487045295537, 63.980338491965085, 488.91712120734155, 0.01600000075995922, -0.19200000911951065, 1.0400000493973494, 0.0, 0.0, 0.0, 0.0, 0.0, 1.7103879256576579E9, 0.0, 2024-03-13 20:45:25.657
80.0, -83.08187751565129, 558.1090102875605, -112.09602137189358, 617.3153664860874, 0.01600000075995922, -0.19200000911951065, 1.0400000493973494, 0.0, 0.0, 0.0, 0.0, 0.0, 1.7103879256576579E9, 0.0, 2024-03-13 20:45:25.657
81.0, 21.74377834238112, 532.9619229855016, 31.714351624250412, 537.37126503326, 0.01600000075995922, -0.19200000911951065, 1.0400000493973494, 0.0, 0.0, 0.0, 0.0, 0.0, 1.7103879256732366E9, 0.0, 2024-03-13 20:45:25.673
81.0, 106.58153888722882, 422.3843009956181, 131.1152825965546, 462.3413921222091, 0.01600000075995922, -0.19200000911951065, 1.0400000493973494, 0.0, 0.0, 0.0, 0.0, 0.0, 1.7103879256732366E9, 0.0, 2024-03-13 20:45:25.673
82.0, 222.3090031160973, 312.9417386422865, 214.25325861154124, 394.4939970760606, 0.01600000075995922, -0.19200000911951065, 1.0400000493973494, 0.0, 0.0, 0.0, 0.0, 0.0, 1.7103879256739361E9, 0.0, 2024-03-13 20:45:25.673
82.0, 71.5143669527024, 182.36126173939556, 73.21228153258562, 206.52475535310805, 0.01600000075995922, -0.19200000911951065, 1.0400000493973494, 0.0, 0.0, 0.0, 0.0, 0.0, 1.7103879256739361E9, 0.0, 2024-03-13 20:45:25.673
83.0, 210.95092695066705, 60.00295488908887, 258.15220429142937, 86.95267396979034, 0.01600000075995922, -0.19200000911951065, 1.0400000493973494, 0.0, 0.0, 0.0, 0.0, 0.0, 1.71038792568773E9, 0.0, 2024-03-13 20:45:25.687
83.0, 93.33481324417517, 66.17004991602153, 90.56354737700894, 148.79565963707864, 0.01600000075995922, -0.19200000911951065, 1.0400000493973494, 0.0, 0.0, 0.0, 0.0, 0.0, 1.71038792568773E9, 0.0, 2024-03-13 20:45:25.687
84.0, 9.203893790952861, 167.1211694199592, -5.9763601291924715, 210.915397901088, 0.01600000075995922, -0.19200000911951065, 1.0400000493973494, 0.0, 0.0, 0.0, 0.0, 0.0, 1.710387925703405E9, 0.0, 2024-03-13 20:45:25.703
84.0, -116.33332802169025, 294.73964555794373, -82.28153892513365, 305.1627467344515, 0.01600000075995922, -0.19200000911951065, 1.0400000493973494, 0.0, 0.0, 0.0, 0.0, 0.0, 1.710387925703405E9, 0.0, 2024-03-13 20:45:25.703
85.0, 43.20893413806334, 410.8616692321375, 65.65207377215847, 477.17757524643093, 0.01600000075995922, -0.19200000911951065, 1.0400000493973494, 0.0, 0.0, 0.0, 0.0, 0.0, 1.7103879257041152E9, 0.0, 2024-03-13 20:45:25.704
85.0, -111.04884938430041, 517.7293104659766, -137.01871467661113, 585.2681637657806, 0.01600000075995922, -0.19200000911951065, 1.0400000493973494, 0.0, 0.0, 0.0, 0.0, 0.0, 1.7103879257041152E9, 0.0, 2024-03-13 20:45:25.704
86.0, -21.220192348584533, 488.40475491341203, 5.920261629857123, 500.091942274943, 0.01600000075995922, -0.19200000911951065, 1.0400000493973494, 0.0, 0.0, 0.0, 0.0, 0.0, 1.7103879257180505E9, 0.0, 2024-03-13 20:45:25.718
86.0, 121.10731031512842, 439.6102801915258, 143.33727565174922, 484.1487487638369, 0.01600000075995922, -0.19200000911951065, 1.0400000493973494, 0.0, 0.0, 0.0, 0.0, 0.0, 1.7103879257180505E9, 0.0, 2024-03-13 20:45:25.718
87.0, 247.97593651199713, 326.52131538139656, 226.7594840633683, 399.2062710202299, 0.01600000075995922, -0.19200000911951065, 1.0400000493973494, 0.0, 0.0, 0.0, 0.0, 0.0, 1.710387925733491E9, 0.0, 2024-03-13 20:45:25.733
87.0, 38.36763364542276, 141.3644784251228, 43.8353673806414, 160.83439759444445, 0.01600000075995922, -0.19200000911951065, 1.0400000493973494, 0.0, 0.0, 0.0, 0.0, 0.0, 1.710387925733491E9, 0.0, 2024-03-13 20:45:25.733
88.0, 224.94937248481438, 68.28683329094201, 252.74804885545745, 89.85483633540571, 0.01600000075995922, -0.19200000911951065, 1.0400000493973494, 0.0, 0.0, 0.0, 0.0, 0.0, 1.710387925734019E9, 0.0, 2024-03-13 20:45:25.734
88.0, 116.24544037273154, 96.36600215826184, 113.08148501021788, 174.3429162343964, 0.01600000075995922, -0.19200000911951065, 1.0400000493973494, 0.0, 0.0, 0.0, 0.0, 0.0, 1.710387925734019E9, 0.0, 2024-03-13 20:45:25.734
89.0, 15.127895320765674, 158.61663692072034, -0.12715659849345684, 205.67953796312213, 0.01600000075995922, -0.19200000911951065, 1.0400000493973494, 0.0, 0.0, 0.0, 0.0, 0.0, 1.71038792574756E9, 0.0, 2024-03-13 20:45:25.747
89.0, -126.85366659704596, 278.7066944479011, -94.87752197589725, 291.39617499755695, 0.01600000075995922, -0.19200000911951065, 1.0400000493973494, 0.0, 0.0, 0.0, 0.0, 0.0, 1.71038792574756E9, 0.0, 2024-03-13 20:45:25.747
90.0, 69.35083482833579, 446.2037238134071, 89.25084249256179, 517.1122269732878, 0.01600000075995922, -0.19200000911951065, 1.0400000493973494, 0.0, 0.0, 0.0, 0.0, 0.0, 1.7103879257632103E9, 0.0, 2024-03-13 20:45:25.763
90.0, -102.03943039104342, 529.9026848217472, -125.83267390914261, 596.7047778302804, 0.01600000075995922, -0.19200000911951065, 1.0400000493973494, 0.0, 0.0, 0.0, 0.0, 0.0, 1.7103879257632103E9, 0.0, 2024-03-13 20:45:25.763
91.0, -11.597429762594402, 486.7068403335288, 10.288464778102934, 502.3545817481354, 0.01600000075995922, -0.19200000911951065, 1.0400000493973494, 0.0, 0.0, 0.0, 0.0, 0.0, 1.710387925763922E9, 0.0, 2024-03-13 20:45:25.763
91.0, 117.87977665336803, 443.4361978461966, 140.90634068055078, 488.296297814697, 0.01600000075995922, -0.19200000911951065, 1.0400000493973494, 0.0, 0.0, 0.0, 0.0, 0.0, 1.710387925763922E9, 0.0, 2024-03-13 20:45:25.763
92.0, 248.33122700778767, 319.6810383624397, 223.43845290271565, 401.70452419063076, 0.01600000075995922, -0.19200000911951065, 1.0400000493973494, 0.0, 0.0, 0.0, 0.0, 0.0, 1.7103879257775214E9, 0.0, 2024-03-13 20:45:25.777
92.0, 56.35281253233552, 156.20440144930035, 52.99064247217029, 174.60844913125038, 0.01600000075995922, -0.19200000911951065, 1.0400000493973494, 0.0, 0.0, 0.0, 0.0, 0.0, 1.7103879257775214E9, 0.0, 2024-03-13 20:45:25.777
93.0, 227.18957255827263, 74.68580211512744, 259.01612118119374, 100.50981130916625, 0.01600000075995922, -0.19200000911951065, 1.0400000493973494, 0.0, 0.0, 0.0, 0.0, 0.0, 1.7103879257931871E9, 0.0, 2024-03-13 20:45:25.793
93.0, 112.16520952107385, 90.8571295235306, 111.17787593277171, 176.156767712906, 0.01600000075995922, -0.19200000911951065, 1.0400000493973494, 0.0, 0.0, 0.0, 0.0, 0.0, 1.7103879257931871E9, 0.0, 2024-03-13 20:45:25.793
94.0, 7.550858010537922, 152.78613288979977, -5.662208532914519, 202.51184270065278, 0.01600000075995922, -0.19200000911951065, 1.0400000493973494, 0.0, 0.0, 0.0, 0.0, 0.0, 1.710387925793891E9, 0.0, 2024-03-13 20:45:25.793
94.0, -131.48740264214575, 278.7066944479011, -103.56156967300922, 288.4453939325176, 0.01600000075995922, -0.19200000911951065, 1.0400000493973494, 0.0, 0.0, 0.0, 0.0, 0.0, 1.710387925793891E9, 0.0, 2024-03-13 20:45:25.793
95.0, 61.35492872307077, 435.48891044035554, 75.64134655380622, 512.9796375222504, 0.01600000075995922, -0.19200000911951065, 1.0400000493973494, 0.0, 0.0, 0.0, 0.0, 0.0, 1.7103879258075316E9, 0.0, 2024-03-13 20:45:25.807
95.0, -97.73106564208865, 536.2904339460656, -121.9843168547377, 602.7933349581435, 0.01600000075995922, -0.19200000911951065, 1.0400000493973494, 0.0, 0.0, 0.0, 0.0, 0.0, 1.7103879258075316E9, 0.0, 2024-03-13 20:45:25.807
96.0, -1.5595382815226912, 500.6791065679863, 13.415021141059697, 508.96298496983945, 0.01600000075995922, -0.19200000911951065, 1.0400000493973494, 0.0, 0.0, 0.0, 0.0, 0.0, 1.7103879258232937E9, 0.0, 2024-03-13 20:45:25.823
96.0, 124.92574816988781, 452.53163453843445, 146.25439761718735, 493.98842554725707, 0.01600000075995922, -0.19200000911951065, 1.0400000493973494, 0.0, 0.0, 0.0, 0.0, 0.0, 1.7103879258232937E9, 0.0, 2024-03-13 20:45:25.823
97.0, 267.0344666861929, 339.34917222941294, 234.22432437492535, 413.49268885096535, 0.01600000075995922, -0.19200000911951065, 1.0400000493973494, 0.0, 0.0, 0.0, 0.0, 0.0, 1.7103879258239331E9, 0.0, 2024-03-13 20:45:25.823
97.0, 68.12227769289166, 167.0463714208454, 52.30250088032335, 182.76517093461007, 0.01600000075995922, -0.19200000911951065, 1.0400000493973494, 0.0, 0.0, 0.0, 0.0, 0.0, 1.7103879258239331E9, 0.0, 2024-03-13 20:45:25.823
98.0, 240.22312390385196, 94.23425918351859, 267.9993608747609, 112.537329566665, 0.01600000075995922, -0.19200000911951065, 1.0400000493973494, 0.0, 0.0, 0.0, 0.0, 0.0, 1.710387925837944E9, 0.0, 2024-03-13 20:45:25.837
98.0, 139.50013829721138, 116.0528355250135, 123.95337418140844, 190.0130970487371, 0.01600000075995922, -0.19200000911951065, 1.0400000493973494, 0.0, 0.0, 0.0, 0.0, 0.0, 1.710387925837944E9, 0.0, 2024-03-13 20:45:25.837
99.0, 3.986733352765441, 164.67901474889368, 0.8003385905176401, 208.67519782762975, 0.01600000075995922, -0.19200000911951065, 1.0400000493973494, 0.0, 0.0, 0.0, 0.0, 0.0, 1.7103879258535988E9, 0.0, 2024-03-13 20:45:25.853
99.0, -127.9120582845062, 284.31654438143596, -96.72503255400807, 300.44299299037084, 0.01600000075995922, -0.19200000911951065, 1.0400000493973494, 0.0, 0.0, 0.0, 0.0, 0.0, 1.7103879258535988E9, 0.0, 2024-03-13 20:45:25.853
100.0, 67.94837234495208, 437.96098431106657, 81.0941206892021, 508.5777752744034, 0.01600000075995922, -0.19200000911951065, 1.0400000493973494, 0.0, 0.0, 0.0, 0.0, 0.0, 1.7103879258539093E9, 0.0, 2024-03-13 20:45:25.853
100.0, -97.43187364563346, 527.2959745526314, -129.12752577010542, 595.8483407404274, 0.01600000075995922, -0.19200000911951065, 1.0400000493973494, 0.0, 0.0, 0.0, 0.0, 0.0, 1.7103879258539093E9, 0.0, 2024-03-13 20:45:25.853
0.0, -312.62758704600856, 112.59716796595603, -60.960369277745485, -58.510734806768596, 0.01600000075995922, -0.19200000911951065, 1.0400000493973494, 0.0, 0.0, 0.0, 0.0, 0.0, 1.7103879258684063E9, 0.0, 2024-03-13 20:45:25.868
1.0, -173.77819134108722, 72.49048084113747, 72.28291639359668, -78.15268937405199, 0.01600000075995922, -0.19200000911951065, 1.0400000493973494, 0.0, 0.0, 0.0, 0.0, 0.0, 1.7103879258691466E9, 0.0, 2024-03-13 20:45:25.869
1.0, -52.564293877221644, -56.717452778015286, 146.3516350160353, -173.90347798960283, 0.01600000075995922, -0.19200000911951065, 1.0400000493973494, 0.0, 0.0, 0.0, 0.0, 0.0, 1.7103879258691466E9, 0.0, 2024-03-13 20:45:25.869
2.0, -252.96870295284316, -234.32717162370682, -24.264470912516117, -397.1960747940466, 0.01600000075995922, -0.19200000911951065, 1.0400000493973494, 0.0, 0.0, 0.0, 0.0, 0.0, 1.7103879258825383E9, 0.0, 2024-03-13 20:45:25.882
2.0, -75.3328048074618, -300.27656744234264, 190.9237626879476, -467.0686256662011, 0.01600000075995922, -0.19200000911951065, 1.0400000493973494, 0.0, 0.0, 0.0, 0.0, 0.0, 1.7103879258825383E9, 0.0, 2024-03-13 20:45:25.882
3.0, -181.3814079510048, -280.9038856718689, 44.8918891181238, -384.86188474018127, 0.01600000075995922, -0.19200000911951065, 1.0400000493973494, 0.0, 0.0, 0.0, 0.0, 0.0, 1.7103879258982208E9, 0.0, 2024-03-13 20:45:25.898
3.0, -290.29290451062843, -205.88149256072938, -59.763601291924715, -343.8314423263073, 0.01600000075995922, -0.19200000911951065, 1.0400000493973494, 0.0, 0.0, 0.0, 0.0, 0.0, 1.7103879258982208E9, 0.0, 2024-03-13 20:45:25.898
4.0, -433.94620170863345, -89.94646388432011, -159.8171448064968, -265.8825774998404, 0.01600000075995922, -0.19200000911951065, 1.0400000493973494, 0.0, 0.0, 0.0, 0.0, 0.0, 1.7103879258989928E9, 0.0, 2024-03-13 20:45:25.898
4.0, -241.83315083477646, 66.7347748093307, 18.32737973285839, -51.58817998878658, 0.01600000075995922, -0.19200000911951065, 1.0400000493973494, 0.0, 0.0, 0.0, 0.0, 0.0, 1.7103879258989928E9, 0.0, 2024-03-13 20:45:25.898
5.0, -396.86135374801233, 166.10017673205584, -185.48033830244094, 43.678291582502425, 0.01600000075995922, -0.19200000911951065, 1.0400000493973494, 0.0, 0.0, 0.0, 0.0, 0.0, 1.710387925912634E9, 0.0, 2024-03-13 20:45:25.912
5.0, -303.58450895315036, 132.9908424243331, -54.101392759010196, -48.843093421310186, 0.01600000075995922, -0.19200000911951065, 1.0400000493973494, 0.0, 0.0, 0.0, 0.0, 0.0, 1.710387925912634E9, 0.0, 2024-03-13 20:45:25.912
6.0, -173.16858764830977, 82.54707182198763, 81.71120418189093, -68.48504798859358, 0.01600000075995922, -0.19200000911951065, 1.0400000493973494, 0.0, 0.0, 0.0, 0.0, 0.0, 1.7103879259282691E9, 0.0, 2024-03-13 20:45:25.928
6.0, -38.55088874325156, -45.512712510768324, 162.85207362053916, -156.47180429613218, 0.01600000075995922, -0.19200000911951065, 1.0400000493973494, 0.0, 0.0, 0.0, 0.0, 0.0, 1.7103879259282691E9, 0.0, 2024-03-13 20:45:25.928
7.0, -246.51363562932238, -220.20904929097742, -18.703239678405225, -385.19473583623767, 0.01600000075995922, -0.19200000911951065, 1.0400000493973494, 0.0, 0.0, 0.0, 0.0, 0.0, 1.7103879259292219E9, 0.0, 2024-03-13 20:45:25.929
7.0, -60.967849077656865, -282.51952245272696, 205.64026901358739, -440.6836314788088, 0.01600000075995922, -0.19200000911951065, 1.0400000493973494, 0.0, 0.0, 0.0, 0.0, 0.0, 1.7103879259292219E9, 0.0, 2024-03-13 20:45:25.929
8.0, -176.75889160577208, -270.96697148960084, 53.3029241184704, -371.2823080010712, 0.01600000075995922, -0.19200000911951065, 1.0400000493973494, 0.0, 0.0, 0.0, 0.0, 0.0, 1.7103879259425244E9, 0.0, 2024-03-13 20:45:25.942
8.0, -279.2564597413875, -202.0219158064574, -60.70605608075857, -345.3049629088491, 0.01600000075995922, -0.19200000911951065, 1.0400000493973494, 0.0, 0.0, 0.0, 0.0, 0.0, 1.7103879259425244E9, 0.0, 2024-03-13 20:45:25.942
9.0, -412.34827946452424, -74.4221391682513, -149.34542493056506, -249.89824508922175, 0.01600000075995922, -0.19200000911951065, 1.0400000493973494, 0.0, 0.0, 0.0, 0.0, 0.0, 1.7103879259582667E9, 0.0, 2024-03-13 20:45:25.958
9.0, -218.52609431091696, 76.70908799115568, 22.056059988681227, -43.50625618454069, 0.01600000075995922, -0.19200000911951065, 1.0400000493973494, 0.0, 0.0, 0.0, 0.0, 0.0, 1.7103879259582667E9, 0.0, 2024-03-13 20:45:25.958
10.0, -399.48676351690665, 167.88036911096424, -186.02262379601598, 46.68143124692142, 0.01600000075995922, -0.19200000911951065, 1.0400000493973494, 0.0, 0.0, 0.0, 0.0, 0.0, 1.7103879259589813E9, 0.0, 2024-03-13 20:45:25.958
10.0, -295.5736432480626, 134.26614830922335, -53.64512496441603, -45.51084256079048, 0.01600000075995922, -0.19200000911951065, 1.0400000493973494, 0.0, 0.0, 0.0, 0.0, 0.0, 1.7103879259589813E9, 0.0, 2024-03-13 20:45:25.958
11.0, -177.72378579434007, 75.21686790883541, 73.93595217401162, -76.6305500920862, 0.01600000075995922, -0.19200000911951065, 1.0400000493973494, 0.0, 0.0, 0.0, 0.0, 0.0, 1.7103879259727535E9, 0.0, 2024-03-13 20:45:25.972
11.0, -56.77916112728417, -57.091442773584276, 148.50207749055699, -167.49328946555033, 0.01600000075995922, -0.19200000911951065, 1.0400000493973494, 0.0, 0.0, 0.0, 0.0, 0.0, 1.7103879259727535E9, 0.0, 2024-03-13 20:45:25.972
12.0, -248.32748710783198, -220.18660989124328, -13.471119640395045, -383.635197554715, 0.01600000075995922, -0.19200000911951065, 1.0400000493973494, 0.0, 0.0, 0.0, 0.0, 0.0, 1.7103879259881854E9, 0.0, 2024-03-13 20:45:25.988
12.0, -70.5494727641344, -295.19030350260437, 193.30607895972207, -460.60981844272465, 0.01600000075995922, -0.19200000911951065, 1.0400000493973494, 0.0, 0.0, 0.0, 0.0, 0.0, 1.7103879259881854E9, 0.0, 2024-03-13 20:45:25.988
13.0, -165.3372371410951, -273.1286336639896, 42.244039949495345, -390.1164441779256, 0.01600000075995922, -0.19200000911951065, 1.0400000493973494, 0.0, 0.0, 0.0, 0.0, 0.0, 1.71038792598891E9, 0.0, 2024-03-13 20:45:25.988
13.0, -285.0346051729284, -208.04315473511815, -72.61763743963093, -360.9452245235443, 0.01600000075995922, -0.19200000911951065, 1.0400000493973494, 0.0, 0.0, 0.0, 0.0, 0.0, 1.71038792598891E9, 0.0, 2024-03-13 20:45:25.988
14.0, -417.7673945003189, -81.71120418189093, -169.46234679222107, -272.9285490163602, 0.01600000075995922, -0.19200000911951065, 1.0400000493973494, 0.0, 0.0, 0.0, 0.0, 0.0, 1.7103879260025387E9, 0.0, 2024-03-13 20:45:26.002
14.0, -224.75302773714066, 75.94614840019494, 8.62233934784308, -66.28598681464791, 0.01600000075995922, -0.19200000911951065, 1.0400000493973494, 0.0, 0.0, 0.0, 0.0, 0.0, 1.7103879260025387E9, 0.0, 2024-03-13 20:45:26.002
15.0, -390.36514752497897, 163.0820774678141, -197.9416849547997, 24.436506310477853, 0.01600000075995922, -0.19200000911951065, 1.0400000493973494, 0.0, 0.0, 0.0, 0.0, 0.0, 1.7103879260186508E9, 0.0, 2024-03-13 20:45:26.018
15.0, -298.13547471771017, 135.63495169300586, -46.038168454542756, -47.53038853686303, 0.01600000075995922, -0.19200000911951065, 1.0400000493973494, 0.0, 0.0, 0.0, 0.0, 0.0, 1.7103879260186508E9, 0.0, 2024-03-13 20:45:26.018
16.0, -173.47151954472065, 75.7030549030751, 86.11306642973796, -68.84033848438412, 0.01600000075995922, -0.19200000911951065, 1.0400000493973494, 0.0, 0.0, 0.0, 0.0, 0.0, 1.7103879260192287E9, 0.0, 2024-03-13 20:45:26.019
16.0, -60.87061167880893, -60.016044538933784, 155.1628393116407, -169.1351055460982, 0.01600000075995922, -0.19200000911951065, 1.0400000493973494, 0.0, 0.0, 0.0, 0.0, 0.0, 1.7103879260192287E9, 0.0, 2024-03-13 20:45:26.019
17.0, -260.399884164799, -224.39773724135011, -14.144301632419229, -388.24649420008063, 0.01600000075995922, -0.19200000911951065, 1.0400000493973494, 0.0, 0.0, 0.0, 0.0, 0.0, 1.7103879260325115E9, 0.0, 2024-03-13 20:45:26.032
17.0, -69.47238157689571, -290.840799854137, 201.67597506055608, -450.78884115908295, 0.01600000075995922, -0.19200000911951065, 1.0400000493973494, 0.0, 0.0, 0.0, 0.0, 0.0, 1.7103879260325115E9, 0.0, 2024-03-13 20:45:26.032
18.0, -185.25594430509955, -282.33252745494246, 50.80467094806954, -386.8440317166969, 0.01600000075995922, -0.19200000911951065, 1.0400000493973494, 0.0, 0.0, 0.0, 0.0, 0.0, 1.7103879260484087E9, 0.0, 2024-03-13 20:45:26.048
18.0, -281.58267751382664, -206.59581345226616, -62.68446315731853, -350.7951360438019, 0.01600000075995922, -0.19200000911951065, 1.0400000493973494, 0.0, 0.0, 0.0, 0.0, 0.0, 1.7103879260484087E9, 0.0, 2024-03-13 20:45:26.048
19.0, -422.57316594338045, -77.26446313457564, -157.99207362812012, -260.5195609633811, 0.01600000075995922, -0.19200000911951065, 1.0400000493973494, 0.0, 0.0, 0.0, 0.0, 0.0, 1.7103879260490394E9, 0.0, 2024-03-13 20:45:26.049
19.0, -220.92711008246988, 71.46948815323412, 16.797760650981218, -52.61291257664561, 0.01600000075995922, -0.19200000911951065, 1.0400000493973494, 0.0, 0.0, 0.0, 0.0, 0.0, 1.7103879260490394E9, 0.0, 2024-03-13 20:45:26.049
20.0, -414.63709823740646, 149.43144262954593, -194.9796841898933, 30.513843738473952, 0.01600000075995922, -0.19200000911951065, 1.0400000493973494, 0.0, 0.0, 0.0, 0.0, 0.0, 1.7103879260625396E9, 0.0, 2024-03-13 20:45:26.062
20.0, -326.97010337607935, 116.26974972244352, -52.463316578418016, -50.74670249875635, 0.01600000075995922, -0.19200000911951065, 1.0400000493973494, 0.0, 0.0, 0.0, 0.0, 0.0, 1.7103879260625396E9, 0.0, 2024-03-13 20:45:26.062
21.0, -197.64249295834452, 63.009834453463554, 79.49718340812251, -73.80692562554032, 0.01600000075995922, -0.19200000911951065, 1.0400000493973494, 0.0, 0.0, 0.0, 0.0, 0.0, 1.710387926078386E9, 0.0, 2024-03-13 20:45:26.078
21.0, -79.47287405841053, -85.75029613403603, 145.73829142330214, -182.53516708733514, 0.01600000075995922, -0.19200000911951065, 1.0400000493973494, 0.0, 0.0, 0.0, 0.0, 0.0, 1.710387926078386E9, 0.0, 2024-03-13 20:45:26.078
22.0, -270.01142705092207, -243.5983836138621, -24.219592113047838, -399.38765616808087, 0.01600000075995922, -0.19200000911951065, 1.0400000493973494, 0.0, 0.0, 0.0, 0.0, 0.0, 1.710387926079173E9, 0.0, 2024-03-13 20:45:26.079
22.0, -75.76663320232183, -303.769634000957, 201.09255066746846, -457.94700967427343, 0.01600000075995922, -0.19200000911951065, 1.0400000493973494, 0.0, 0.0, 0.0, 0.0, 0.0, 1.710387926079173E9, 0.0, 2024-03-13 20:45:26.079
23.0, -185.78327019885182, -293.85889911837876, 41.705494355876, -393.08966464269906, 0.01600000075995922, -0.19200000911951065, 1.0400000493973494, 0.0, 0.0, 0.0, 0.0, 0.0, 1.710387926092599E9, 0.0, 2024-03-13 20:45:26.092
23.0, -294.9752592551522, -225.2205152316019, -80.34427074808627, -362.4411845058203, 0.01600000075995922, -0.19200000911951065, 1.0400000493973494, 0.0, 0.0, 0.0, 0.0, 0.0, 1.710387926092599E9, 0.0, 2024-03-13 20:45:26.092
24.0, -411.4656630749814, -75.61890715407208, -149.83535182476044, -243.91814506007358, 0.01600000075995922, -0.19200000911951065, 1.0400000493973494, 0.0, 0.0, 0.0, 0.0, 0.0, 1.7103879261082098E9, 0.0, 2024-03-13 20:45:26.108
24.0, -226.97826821077615, 68.26813379116356, 22.557206582743675, -38.61820694245398, 0.01600000075995922, -0.19200000911951065, 1.0400000493973494, 0.0, 0.0, 0.0, 0.0, 0.0, 1.7103879261082098E9, 0.0, 2024-03-13 20:45:26.108
25.0, -409.85376619407907, 157.75272003095597, -187.91501317359507, 40.432058420963585, 0.01600000075995922, -0.19200000911951065, 1.0400000493973494, 0.0, 0.0, 0.0, 0.0, 0.0, 1.7103879261089096E9, 0.0, 2024-03-13 20:45:26.108
25.0, -300.43177329050377, 123.95524413138628, -53.45439006667584, -53.289834468625486, 0.01600000075995922, -0.19200000911951065, 1.0400000493973494, 0.0, 0.0, 0.0, 0.0, 0.0, 1.7103879261089096E9, 0.0, 2024-03-13 20:45:26.108
26.0, -179.87422826886177, 56.506148430518806, 64.58994218474254, -92.2296728072688, 0.01600000075995922, -0.19200000911951065, 1.0400000493973494, 0.0, 0.0, 0.0, 0.0, 0.0, 1.7103879261225617E9, 0.0, 2024-03-13 20:45:26.122
26.0, -78.12651007436216, -77.52999603142962, 137.86954191653058, -186.76873383717611, 0.01600000075995922, -0.19200000911951065, 1.0400000493973494, 0.0, 0.0, 0.0, 0.0, 0.0, 1.7103879261225617E9, 0.0, 2024-03-13 20:45:26.122
27.0, -259.23303537862375, -240.17637515440583, -35.181238883174956, -399.7504264637828, 0.01600000075995922, -0.19200000911951065, 1.0400000493973494, 0.0, 0.0, 0.0, 0.0, 0.0, 1.7103879261381783E9, 0.0, 2024-03-13 20:45:26.138
27.0, -77.86845697741956, -295.75876829586923, 189.69333560252562, -460.8454321399331, 0.01600000075995922, -0.19200000911951065, 1.0400000493973494, 0.0, 0.0, 0.0, 0.0, 0.0, 1.7103879261381783E9, 0.0, 2024-03-13 20:45:26.138
28.0, -197.8332278560847, -299.4051707526669, 30.953281983267516, -400.12815635930747, 0.01600000075995922, -0.19200000911951065, 1.0400000493973494, 0.0, 0.0, 0.0, 0.0, 0.0, 1.7103879261389065E9, 0.0, 2024-03-13 20:45:26.138
28.0, -304.29882984468713, -227.7412078017369, -82.27405912522227, -366.8505265535787, 0.01600000075995922, -0.19200000911951065, 1.0400000493973494, 0.0, 0.0, 0.0, 0.0, 0.0, 1.7103879261389065E9, 0.0, 2024-03-13 20:45:26.138
29.0, -421.2118423595093, -80.28256239881739, -153.97916097566485, -249.99922238802537, 0.01600000075995922, -0.19200000911951065, 1.0400000493973494, 0.0, 0.0, 0.0, 0.0, 0.0, 1.710387926152976E9, 0.0, 2024-03-13 20:45:26.152
29.0, -236.8179449941963, 66.09899181686342, 20.017814512830228, -50.4325509024784, 0.01600000075995922, -0.19200000911951065, 1.0400000493973494, 0.0, 0.0, 0.0, 0.0, 0.0, 1.710387926152976E9, 0.0, 2024-03-13 20:45:26.152
30.0, -411.45818327507004, 147.94296244718134, -200.024809230119, 26.874921081587672, 0.01600000075995922, -0.19200000911951065, 1.0400000493973494, 0.0, 0.0, 0.0, 0.0, 0.0, 1.7103879261687353E9, 0.0, 2024-03-13 20:45:26.168
30.0, -306.1201611231081, 127.90831838455051, -58.68651010468602, -49.20586371701211, 0.01600000075995922, -0.19200000911951065, 1.0400000493973494, 0.0, 0.0, 0.0, 0.0, 0.0, 1.7103879261687353E9, 0.0, 2024-03-13 20:45:26.168
31.0, -185.88798739761114, 65.62776442244649, 69.57896872563288, -83.90465550590307, 0.01600000075995922, -0.19200000911951065, 1.0400000493973494, 0.0, 0.0, 0.0, 0.0, 0.0, 1.7103879261691885E9, 0.0, 2024-03-13 20:45:26.169
31.0, -66.4393227128312, -67.24901105323806, 133.36670236987993, -186.34986504213884, 0.01600000075995922, -0.19200000911951065, 1.0400000493973494, 0.0, 0.0, 0.0, 0.0, 0.0, 1.7103879261691885E9, 0.0, 2024-03-13 20:45:26.169
32.0, -264.0762058212422, -227.04184651002288, -33.662839501164854, -403.4491875199601, 0.01600000075995922, -0.19200000911951065, 1.0400000493973494, 0.0, 0.0, 0.0, 0.0, 0.0, 1.7103879261825147E9, 0.0, 2024-03-13 20:45:26.182
32.0, -64.84238543175161, -291.45414344687015, 187.92810282343999, -464.1776830004528, 0.01600000075995922, -0.19200000911951065, 1.0400000493973494, 0.0, 0.0, 0.0, 0.0, 0.0, 1.7103879261825147E9, 0.0, 2024-03-13 20:45:26.182
33.0, -179.59747567214072, -290.05168096348643, 33.88162364857271, -402.9704803256318, 0.01600000075995922, -0.19200000911951065, 1.0400000493973494, 0.0, 0.0, 0.0, 0.0, 0.0, 1.710387926198192E9, 0.0, 2024-03-13 20:45:26.198
33.0, -295.73445894615725, -222.0640396689996, -80.58736424520612, -367.220776649192, 0.01600000075995922, -0.19200000911951065, 1.0400000493973494, 0.0, 0.0, 0.0, 0.0, 0.0, 1.710387926198192E9, 0.0, 2024-03-13 20:45:26.198
34.0, -414.2107496424578, -79.75523650506511, -159.43567501101643, -252.53113465802744, 0.01600000075995922, -0.19200000911951065, 1.0400000493973494, 0.0, 0.0, 0.0, 0.0, 0.0, 1.7103879261989155E9, 0.0, 2024-03-13 20:45:26.198
34.0, -217.68835672084242, 74.85783751308918, 21.47637549554929, -47.90063863247633, 0.01600000075995922, -0.19200000911951065, 1.0400000493973494, 0.0, 0.0, 0.0, 0.0, 0.0, 1.7103879261989155E9, 0.0, 2024-03-13 20:45:26.198
35.0, -410.00710209226236, 151.2565138079226, -197.11516706459224, 31.691912224516273, 0.01600000075995922, -0.19200000911951065, 1.0400000493973494, 0.0, 0.0, 0.0, 0.0, 0.0, 1.7103879262289128E9, 0.0, 2024-03-13 20:45:26.228
35.0, -280.28119232924655, 144.46485548838973, -55.26824154518545, -43.03128889016807, 0.01600000075995922, -0.19200000911951065, 1.0400000493973494, 0.0, 0.0, 0.0, 0.0, 0.0, 1.7103879262289128E9, 0.0, 2024-03-13 20:45:26.228
36.0, -168.4899728037417, 83.50822611059994, 70.68597911251709, -72.15762974508107, 0.01600000075995922, -0.19200000911951065, 1.0400000493973494, 0.0, 0.0, 0.0, 0.0, 0.0, 1.7103879262296865E9, 0.0, 2024-03-13 20:45:26.229
36.0, -55.47393604274839, -55.06067709764466, 146.21699861763045, -165.43634448992088, 0.01600000075995922, -0.19200000911951065, 1.0400000493973494, 0.0, 0.0, 0.0, 0.0, 0.0, 1.7103879262296865E9, 0.0, 2024-03-13 20:45:26.229
37.0, -239.55742171173915, -205.9114117603749, -14.05828393343836, -372.04524759203196, 0.01600000075995922, -0.19200000911951065, 1.0400000493973494, 0.0, 0.0, 0.0, 0.0, 0.0, 1.7103879262305725E9, 0.0, 2024-03-13 20:45:26.230
37.0, -41.628826406784356, -258.10545554198325, 211.01824514986947, -428.30082272551954, 0.01600000075995922, -0.19200000911951065, 1.0400000493973494, 0.0, 0.0, 0.0, 0.0, 0.0, 1.7103879262305725E9, 0.0, 2024-03-13 20:45:26.230
38.0, -167.8915888108313, -272.62748706992716, 48.13438237970695, -380.4114037929103, 0.01600000075995922, -0.19200000911951065, 1.0400000493973494, 0.0, 0.0, 0.0, 0.0, 0.0, 1.7103879262425654E9, 0.0, 2024-03-13 20:45:26.242
38.0, -286.8185374517925, -206.03856835886836, -73.67602912709117, -352.313535425812, 0.01600000075995922, -0.19200000911951065, 1.0400000493973494, 0.0, 0.0, 0.0, 0.0, 0.0, 1.7103879262425654E9, 0.0, 2024-03-13 20:45:26.242
39.0, -395.52246956387535, -61.42598682222888, -163.56826446205378, -247.23169642081484, 0.01600000075995922, -0.19200000911951065, 1.0400000493973494, 0.0, 0.0, 0.0, 0.0, 0.0, 1.710387926258298E9, 0.0, 2024-03-13 20:45:26.258
39.0, -214.24016896169633, 75.13459010981023, 6.920684868004173, -54.41554435528815, 0.01600000075995922, -0.19200000911951065, 1.0400000493973494, 0.0, 0.0, 0.0, 0.0, 0.0, 1.710387926258298E9, 0.0, 2024-03-13 20:45:26.258
40.0, -398.2077177320607, 151.42480930592865, -208.92951102461666, 21.72133894264698, 0.01600000075995922, -0.19200000911951065, 1.0400000493973494, 0.0, 0.0, 0.0, 0.0, 0.0, 1.7103879262589211E9, 0.0, 2024-03-13 20:45:26.258
40.0, -308.1584065989591, 124.00012293085456, -68.55984598770738, -53.63390526454896, 0.01600000075995922, -0.19200000911951065, 1.0400000493973494, 0.0, 0.0, 0.0, 0.0, 0.0, 1.7103879262589211E9, 0.0, 2024-03-13 20:45:26.258
41.0, -172.72353955358267, 68.59350508730859, 68.83846853440627, -79.8132049543783, 0.01600000075995922, -0.19200000911951065, 1.0400000493973494, 0.0, 0.0, 0.0, 0.0, 0.0, 1.7103879262729707E9, 0.0, 2024-03-13 20:45:26.272
41.0, -68.16715649235994, -70.57752201380208, 142.35368196340278, -183.6197380744852, 0.01600000075995922, -0.19200000911951065, 1.0400000493973494, 0.0, 0.0, 0.0, 0.0, 0.0, 1.7103879262729707E9, 0.0, 2024-03-13 20:45:26.272
42.0, -257.26958790188655, -218.48869531136006, -12.47256635222584, -380.8115730881691, 0.01600000075995922, -0.19200000911951065, 1.0400000493973494, 0.0, 0.0, 0.0, 0.0, 0.0, 1.7103879262881944E9, 0.0, 2024-03-13 20:45:26.288
42.0, -67.17608300410211, -277.03682911768556, 197.8949362053536, -452.5391143383458, 0.01600000075995922, -0.19200000911951065, 1.0400000493973494, 0.0, 0.0, 0.0, 0.0, 0.0, 1.7103879262881944E9, 0.0, 2024-03-13 20:45:26.288
43.0, -183.14290083013475, -281.2554362677038, 40.95003456482664, -395.8123118104413, 0.01600000075995922, -0.19200000911951065, 1.0400000493973494, 0.0, 0.0, 0.0, 0.0, 0.0, 1.7103879262889016E9, 0.0, 2024-03-13 20:45:26.288
43.0, -290.0124120139517, -203.88064608443528, -76.05834539886564, -352.7324042208493, 0.01600000075995922, -0.19200000911951065, 1.0400000493973494, 0.0, 0.0, 0.0, 0.0, 0.0, 1.7103879262889016E9, 0.0, 2024-03-13 20:45:26.288
44.0, -400.0627081100829, -55.142954896669835, -141.4392764242366, -233.97375107789412, 0.01600000075995922, -0.19200000911951065, 1.0400000493973494, 0.0, 0.0, 0.0, 0.0, 0.0, 1.7103879263025546E9, 0.0, 2024-03-13 20:45:26.302
44.0, -202.11167340539396, 84.1140899034217, 26.259707538876683, -43.236983387731016, 0.01600000075995922, -0.19200000911951065, 1.0400000493973494, 0.0, 0.0, 0.0, 0.0, 0.0, 1.7103879263025546E9, 0.0, 2024-03-13 20:45:26.302
45.0, -414.4688027394004, 149.79047302529216, -208.86219282541424, 27.626640972681344, 0.01600000075995922, -0.19200000911951065, 1.0400000493973494, 0.0, 0.0, 0.0, 0.0, 0.0, 1.7103879263184545E9, 0.0, 2024-03-13 20:45:26.318
45.0, -290.756652105134, 145.19039607979357, -60.44800298381597, -38.92861863877624, 0.01600000075995922, -0.19200000911951065, 1.0400000493973494, 0.0, 0.0, 0.0, 0.0, 0.0, 1.7103879263184545E9, 0.0, 2024-03-13 20:45:26.318
46.0, -169.62316249031574, 85.25849928986281, 78.38269322132692, -64.81994603201747, 0.01600000075995922, -0.19200000911951065, 1.0400000493973494, 0.0, 0.0, 0.0, 0.0, 0.0, 1.7103879263191118E9, 0.0, 2024-03-13 20:45:26.319
46.0, -49.03756821900606, -55.890934887807816, 159.6469793585129, -166.12448608176783, 0.01600000075995922, -0.19200000911951065, 1.0400000493973494, 0.0, 0.0, 0.0, 0.0, 0.0, 1.7103879263191118E9, 0.0, 2024-03-13 20:45:26.319
47.0, -234.37766027310863, -203.08778729382902, -22.88070792891085, -378.6573907136917, 0.01600000075995922, -0.19200000911951065, 1.0400000493973494, 0.0, 0.0, 0.0, 0.0, 0.0, 1.7103879263328176E9, 0.0, 2024-03-13 20:45:26.332
47.0, -56.951196525245905, -274.1945051513612, 195.9614079282619, -445.9494106164202, 0.01600000075995922, -0.19200000911951065, 1.0400000493973494, 0.0, 0.0, 0.0, 0.0, 0.0, 1.7103879263328176E9, 0.0, 2024-03-13 20:45:26.332
48.0, -178.36330868676305, -285.5525813167915, 41.60451705707237, -391.0738585665822, 0.01600000075995922, -0.19200000911951065, 1.0400000493973494, 0.0, 0.0, 0.0, 0.0, 0.0, 1.71038792634823E9, 0.0, 2024-03-13 20:45:26.348
48.0, -280.73372022388503, -207.85241983737797, -85.4454942876473, -358.8733199480921, 0.01600000075995922, -0.19200000911951065, 1.0400000493973494, 0.0, 0.0, 0.0, 0.0, 0.0, 1.71038792634823E9, 0.0, 2024-03-13 20:45:26.348
49.0, -411.5479408740066, -70.17735271854326, -163.5981836616993, -258.22700229054317, 0.01600000075995922, -0.19200000911951065, 1.0400000493973494, 0.0, 0.0, 0.0, 0.0, 0.0, 1.710387926349286E9, 0.0, 2024-03-13 20:45:26.349
49.0, -221.42825667653233, 68.85903798416257, 5.181631388608366, -66.12143121659756, 0.01600000075995922, -0.19200000911951065, 1.0400000493973494, 0.0, 0.0, 0.0, 0.0, 0.0, 1.710387926349286E9, 0.0, 2024-03-13 20:45:26.349
50.0, -401.5773675921373, 151.7015619026497, -209.47927631810308, 18.792997277341783, 0.01600000075995922, -0.19200000911951065, 1.0400000493973494, 0.0, 0.0, 0.0, 0.0, 0.0, 1.7103879263627038E9, 0.0, 2024-03-13 20:45:26.362
50.0, -282.5700111021288, 142.00774121750146, -49.44147741422057, -44.2056174762547, 0.01600000075995922, -0.19200000911951065, 1.0400000493973494, 0.0, 0.0, 0.0, 0.0, 0.0, 1.7103879263627038E9, 0.0, 2024-03-13 20:45:26.362
51.0, -164.76503244787455, 89.06197754479945, 92.69903025170788, -60.80329347960651, 0.01600000075995922, -0.19200000911951065, 1.0400000493973494, 0.0, 0.0, 0.0, 0.0, 0.0, 1.7103879263782732E9, 0.0, 2024-03-13 20:45:26.378
51.0, -62.35161206126213, -60.03848393866792, 156.77099629258737, -174.85341257834807, 0.01600000075995922, -0.19200000911951065, 1.0400000493973494, 0.0, 0.0, 0.0, 0.0, 0.0, 1.7103879263782732E9, 0.0, 2024-03-13 20:45:26.378
52.0, -256.34209271287546, -215.50425514671952, -20.453512857668102, -381.39125758130103, 0.01600000075995922, -0.19200000911951065, 1.0400000493973494, 0.0, 0.0, 0.0, 0.0, 0.0, 1.7103879263789473E9, 0.0, 2024-03-13 20:45:26.378
52.0, -45.267749063670635, -268.794089615345, 205.60660991398618, -439.6214998913929, 0.01600000075995922, -0.19200000911951065, 1.0400000493973494, 0.0, 0.0, 0.0, 0.0, 0.0, 1.7103879263789473E9, 0.0, 2024-03-13 20:45:26.378
53.0, -165.04926484450698, -275.59696763474494, 44.76847241958603, -390.27725987602025, 0.01600000075995922, -0.19200000911951065, 1.0400000493973494, 0.0, 0.0, 0.0, 0.0, 0.0, 1.7103879263924959E9, 0.0, 2024-03-13 20:45:26.392
53.0, -299.8633084972389, -210.09261991083622, -83.82237770687789, -354.18722530361265, 0.01600000075995922, -0.19200000911951065, 1.0400000493973494, 0.0, 0.0, 0.0, 0.0, 0.0, 1.7103879263924959E9, 0.0, 2024-03-13 20:45:26.392
54.0, -405.0218154513277, -57.82820306485519, -145.94211597088724, -234.759130068589, 0.01600000075995922, -0.19200000911951065, 1.0400000493973494, 0.0, 0.0, 0.0, 0.0, 0.0, 1.7103879264084015E9, 0.0, 2024-03-13 20:45:26.408
54.0, -215.67629054468125, 77.43088868260384, 27.52379372389987, -44.27667557541281, 0.01600000075995922, -0.19200000911951065, 1.0400000493973494, 0.0, 0.0, 0.0, 0.0, 0.0, 1.7103879264084015E9, 0.0, 2024-03-13 20:45:26.408
55.0, -400.1636854088865, 151.37619060650468, -199.2057711398229, 32.48103111516684, 0.01600000075995922, -0.19200000911951065, 1.0400000493973494, 0.0, 0.0, 0.0, 0.0, 0.0, 1.7103879264092624E9, 0.0, 2024-03-13 20:45:26.409
55.0, -293.77475136937574, 143.8477719957009, -49.688310811296105, -36.57996146660298, 0.01600000075995922, -0.19200000911951065, 1.0400000493973494, 0.0, 0.0, 0.0, 0.0, 0.0, 1.7103879264092624E9, 0.0, 2024-03-13 20:45:26.409
56.0, -164.1105499556288, 88.68424764927477, 87.40707181440666, -62.04868016485125, 0.01600000075995922, -0.19200000911951065, 1.0400000493973494, 0.0, 0.0, 0.0, 0.0, 0.0, 1.7103879264225647E9, 0.0, 2024-03-13 20:45:26.422
56.0, -65.87459781952202, -73.63676017755643, 139.11492860177532, -186.81735253660008, 0.01600000075995922, -0.19200000911951065, 1.0400000493973494, 0.0, 0.0, 0.0, 0.0, 0.0, 1.7103879264225647E9, 0.0, 2024-03-13 20:45:26.422
57.0, -259.0310807810165, -224.00504774600267, -27.4209464751184, -386.79167311731726, 0.01600000075995922, -0.19200000911951065, 1.0400000493973494, 0.0, 0.0, 0.0, 0.0, 0.0, 1.7103879264382508E9, 0.0, 2024-03-13 20:45:26.438
57.0, -60.65369748137891, -271.688772181049, 207.09882999630645, -444.5880870325491, 0.01600000075995922, -0.19200000911951065, 1.0400000493973494, 0.0, 0.0, 0.0, 0.0, 0.0, 1.7103879264382508E9, 0.0, 2024-03-13 20:45:26.438
58.0, -185.11756800673902, -290.8781988536939, 28.38023081375286, -414.43701358977705, 0.01600000075995922, -0.19200000911951065, 1.0400000493973494, 0.0, 0.0, 0.0, 0.0, 0.0, 1.7103879264389727E9, 0.0, 2024-03-13 20:45:26.438
58.0, -301.1311345822178, -222.91299695894122, -100.71176590677351, -378.34323911741376, 0.01600000075995922, -0.19200000911951065, 1.0400000493973494, 0.0, 0.0, 0.0, 0.0, 0.0, 1.7103879264389727E9, 0.0, 2024-03-13 20:45:26.438
59.0, -420.74809476500377, -70.30076941708103, -156.12960345018655, -253.50350864650682, 0.01600000075995922, -0.19200000911951065, 1.0400000493973494, 0.0, 0.0, 0.0, 0.0, 0.0, 1.710387926452806E9, 0.0, 2024-03-13 20:45:26.452
59.0, -223.13739095628262, 67.89040389563888, 6.326040775049478, -67.94276249501854, 0.01600000075995922, -0.19200000911951065, 1.0400000493973494, 0.0, 0.0, 0.0, 0.0, 0.0, 1.710387926452806E9, 0.0, 2024-03-13 20:45:26.452
60.0, -405.03677505115047, 135.90796438977122, -214.11301236320287, 7.098330115899444, 0.01600000075995922, -0.19200000911951065, 1.0400000493973494, 0.0, 0.0, 0.0, 0.0, 0.0, 1.7103879264686167E9, 0.0, 2024-03-13 20:45:26.468
60.0, -312.4555516480468, 128.26360888034105, -58.75756820384413, -52.3212003801018, 0.01600000075995922, -0.19200000911951065, 1.0400000493973494, 0.0, 0.0, 0.0, 0.0, 0.0, 1.7103879264686167E9, 0.0, 2024-03-13 20:45:26.468
61.0, -185.5663560014218, 57.53088101837784, 70.3830472161062, -91.9342207107693, 0.01600000075995922, -0.19200000911951065, 1.0400000493973494, 0.0, 0.0, 0.0, 0.0, 0.0, 1.7103879264691632E9, 0.0, 2024-03-13 20:45:26.469
61.0, -77.69642157945782, -85.29402833944187, 136.6765138306655, -196.7093879193999, 0.01600000075995922, -0.19200000911951065, 1.0400000493973494, 0.0, 0.0, 0.0, 0.0, 0.0, 1.7103879264691632E9, 0.0, 2024-03-13 20:45:26.469
62.0, -251.4316040710546, -225.5197072280571, -24.48512500990182, -387.3227389110252, 0.01600000075995922, -0.19200000911951065, 1.0400000493973494, 0.0, 0.0, 0.0, 0.0, 0.0, 1.7103879264827223E9, 0.0, 2024-03-13 20:45:26.482
62.0, -59.25871479790658, -280.23070367984474, 205.07180422032252, -449.027348279953, 0.01600000075995922, -0.19200000911951065, 1.0400000493973494, 0.0, 0.0, 0.0, 0.0, 0.0, 1.7103879264827223E9, 0.0, 2024-03-13 20:45:26.482
63.0, -181.75913784652948, -297.1425312794745, 40.56108496943489, -408.43821406085044, 0.01600000075995922, -0.19200000911951065, 1.0400000493973494, 0.0, 0.0, 0.0, 0.0, 0.0, 1.710387926498556E9, 0.0, 2024-03-13 20:45:26.498
63.0, -308.9475254896097, -218.55975341051817, -83.10805681534111, -370.07806021533906, 0.01600000075995922, -0.19200000911951065, 1.0400000493973494, 0.0, 0.0, 0.0, 0.0, 0.0, 1.710387926498556E9, 0.0, 2024-03-13 20:45:26.498
64.0, -406.11386623838916, -65.51369747379795, -154.21103477291763, -249.53921469347551, 0.01600000075995922, -0.19200000911951065, 1.0400000493973494, 0.0, 0.0, 0.0, 0.0, 0.0, 1.7103879264990323E9, 0.0, 2024-03-13 20:45:26.499
64.0, -219.96221589390188, 65.23881482705474, 22.650704081635922, -61.59615227021277, 0.01600000075995922, -0.19200000911951065, 1.0400000493973494, 0.0, 0.0, 0.0, 0.0, 0.0, 1.7103879264990323E9, 0.0, 2024-03-13 20:45:26.499
65.0, -415.2841009297408, 139.55810674652457, -203.25234289187938, 18.95381297543645, 0.01600000075995922, -0.19200000911951065, 1.0400000493973494, 0.0, 0.0, 0.0, 0.0, 0.0, 1.7103879265125268E9, 0.0, 2024-03-13 20:45:26.512
65.0, -295.8541357447393, 145.23527487926185, -51.38622539117932, -38.378853345289826, 0.01600000075995922, -0.19200000911951065, 1.0400000493973494, 0.0, 0.0, 0.0, 0.0, 0.0, 1.7103879265125268E9, 0.0, 2024-03-13 20:45:26.512
66.0, -162.80532487109303, 87.2256866665557, 91.87251236150041, -60.163770587183535, 0.01600000075995922, -0.19200000911951065, 1.0400000493973494, 0.0, 0.0, 0.0, 0.0, 0.0, 1.7103879265282736E9, 0.0, 2024-03-13 20:45:26.528
66.0, -66.49542121216655, -76.47534424392506, 139.3056634995155, -185.68790274998173, 0.01600000075995922, -0.19200000911951065, 1.0400000493973494, 0.0, 0.0, 0.0, 0.0, 0.0, 1.7103879265282736E9, 0.0, 2024-03-13 20:45:26.528
67.0, -252.14966486254707, -221.67509007360786, -26.9384993808344, -387.2217616122216, 0.01600000075995922, -0.19200000911951065, 1.0400000493973494, 0.0, 0.0, 0.0, 0.0, 0.0, 1.7103879265289707E9, 0.0, 2024-03-13 20:45:26.528
67.0, -49.48261631373316, -275.37257363740355, 211.4894725442864, -445.59412012062967, 0.01600000075995922, -0.19200000911951065, 1.0400000493973494, 0.0, 0.0, 0.0, 0.0, 0.0, 1.7103879265289707E9, 0.0, 2024-03-13 20:45:26.528
68.0, -198.63356644660234, -299.0723196566105, 32.37444396642968, -414.3023771913722, 0.01600000075995922, -0.19200000911951065, 1.0400000493973494, 0.0, 0.0, 0.0, 0.0, 0.0, 1.7103879265428576E9, 0.0, 2024-03-13 20:45:26.542
68.0, -297.99335851939395, -217.6995764207095, -87.20698716677725, -368.5821002330631, 0.01600000075995922, -0.19200000911951065, 1.0400000493973494, 0.0, 0.0, 0.0, 0.0, 0.0, 1.7103879265428576E9, 0.0, 2024-03-13 20:45:26.542
69.0, -402.55722138052806, -55.03823769791052, -143.18580970354378, -241.93599808355793, 0.01600000075995922, -0.19200000911951065, 1.0400000493973494, 0.0, 0.0, 0.0, 0.0, 0.0, 1.7103879265582457E9, 0.0, 2024-03-13 20:45:26.558
69.0, -220.1791300913319, 70.74020766187459, 23.686656369362026, -64.36741813737899, 0.01600000075995922, -0.19200000911951065, 1.0400000493973494, 0.0, 0.0, 0.0, 0.0, 0.0, 1.7103879265582457E9, 0.0, 2024-03-13 20:45:26.558
70.0, -407.7781217186712, 147.5540128517896, -213.67170416843146, 8.179161203093827, 0.01600000075995922, -0.19200000911951065, 1.0400000493973494, 0.0, 0.0, 0.0, 0.0, 0.0, 1.7103879265589542E9, 0.0, 2024-03-13 20:45:26.558
70.0, -302.47749856626615, 141.42805672436953, -53.13275867048651, -43.281862187199295, 0.01600000075995922, -0.19200000911951065, 1.0400000493973494, 0.0, 0.0, 0.0, 0.0, 0.0, 1.7103879265589542E9, 0.0, 2024-03-13 20:45:26.558
71.0, -178.2735510878265, 84.17018840275705, 89.31068089185283, -70.61305106338114, 0.01600000075995922, -0.19200000911951065, 1.0400000493973494, 0.0, 0.0, 0.0, 0.0, 0.0, 1.7103879265726044E9, 0.0, 2024-03-13 20:45:26.572
71.0, -69.92864937148988, -80.32744119828567, 137.4955519209616, -197.01979961572215, 0.01600000075995922, -0.19200000911951065, 1.0400000493973494, 0.0, 0.0, 0.0, 0.0, 0.0, 1.7103879265726044E9, 0.0, 2024-03-13 20:45:26.572
72.0, -244.63994575152174, -215.1788838505745, -23.33323582354933, -386.5149205205962, 0.01600000075995922, -0.19200000911951065, 1.0400000493973494, 0.0, 0.0, 0.0, 0.0, 0.0, 1.710387926588235E9, 0.0, 2024-03-13 20:45:26.588
72.0, -54.23602915741503, -276.3599072257057, 204.48090002732351, -447.7632620949298, 0.01600000075995922, -0.19200000911951065, 1.0400000493973494, 0.0, 0.0, 0.0, 0.0, 0.0, 1.710387926588235E9, 0.0, 2024-03-13 20:45:26.588
73.0, -185.383100903593, -287.63196569215506, 37.18769520940259, -408.24373926315457, 0.01600000075995922, -0.19200000911951065, 1.0400000493973494, 0.0, 0.0, 0.0, 0.0, 0.0, 1.710387926588951E9, 0.0, 2024-03-13 20:45:26.588
73.0, -287.86196953943, -219.52090769913048, -93.20952659565955, -369.1056862268597, 0.01600000075995922, -0.19200000911951065, 1.0400000493973494, 0.0, 0.0, 0.0, 0.0, 0.0, 1.710387926588951E9, 0.0, 2024-03-13 20:45:26.588
74.0, -417.838452599477, -63.42309339856729, -162.54353187419474, -247.5421081171371, 0.01600000075995922, -0.19200000911951065, 1.0400000493973494, 0.0, 0.0, 0.0, 0.0, 0.0, 1.7103879266029878E9, 0.0, 2024-03-13 20:45:26.602
74.0, -215.04424745216966, 66.16257011611015, 11.745155810844153, -63.802693244069815, 0.01600000075995922, -0.19200000911951065, 1.0400000493973494, 0.0, 0.0, 0.0, 0.0, 0.0, 1.7103879266029878E9, 0.0, 2024-03-13 20:45:26.602
75.0, -406.4803764340468, 144.24046149104834, -210.30579420831054, 14.761385125108063, 0.01600000075995922, -0.19200000911951065, 1.0400000493973494, 0.0, 0.0, 0.0, 0.0, 0.0, 1.7103879266182E9, 0.0, 2024-03-13 20:45:26.618
75.0, -287.27854514634237, 150.01112712267786, -48.36438622698188, -34.781069587916136, 0.01600000075995922, -0.19200000911951065, 1.0400000493973494, 0.0, 0.0, 0.0, 0.0, 0.0, 1.7103879266182E9, 0.0, 2024-03-13 20:45:26.618
76.0, -181.33652915153652, 80.407849047333, 88.79083479801193, -68.49626768846065, 0.01600000075995922, -0.19200000911951065, 1.0400000493973494, 0.0, 0.0, 0.0, 0.0, 0.0, 1.7103879266189163E9, 0.0, 2024-03-13 20:45:26.618
76.0, -69.0310733821243, -77.4252788326703, 134.05110406177118, -189.7344745020382, 0.01600000075995922, -0.19200000911951065, 1.0400000493973494, 0.0, 0.0, 0.0, 0.0, 0.0, 1.7103879266189163E9, 0.0, 2024-03-13 20:45:26.618
77.0, -240.66443209862337, -212.81526707857847, -21.867195040918887, -376.52938763890415, 0.01600000075995922, -0.19200000911951065, 1.0400000493973494, 0.0, 0.0, 0.0, 0.0, 0.0, 1.7103879266325748E9, 0.0, 2024-03-13 20:45:26.632
77.0, -53.293574368581176, -261.1310346061364, 219.0852093542926, -431.40867958869785, 0.01600000075995922, -0.19200000911951065, 1.0400000493973494, 0.0, 0.0, 0.0, 0.0, 0.0, 1.7103879266325748E9, 0.0, 2024-03-13 20:45:26.632
78.0, -185.25220440514386, -297.83441277127713, 38.47796069411561, -411.50493202451617, 0.01600000075995922, -0.19200000911951065, 1.0400000493973494, 0.0, 0.0, 0.0, 0.0, 0.0, 1.7103879266482024E9, 0.0, 2024-03-13 20:45:26.648
78.0, -300.18493989342824, -220.44840288814157, -91.87064241152257, -370.5792068094015, 0.01600000075995922, -0.19200000911951065, 1.0400000493973494, 0.0, 0.0, 0.0, 0.0, 0.0, 1.7103879266482024E9, 0.0, 2024-03-13 20:45:26.648
79.0, -401.315574595239, -56.309803682845086, -151.1480567092076, -242.69893767451867, 0.01600000075995922, -0.19200000911951065, 1.0400000493973494, 0.0, 0.0, 0.0, 0.0, 0.0, 1.7103879266489172E9, 0.0, 2024-03-13 20:45:26.648
79.0, -211.9550900887698, 68.53366668801755, 18.592912629712373, -67.85300489608198, 0.01600000075995922, -0.19200000911951065, 1.0400000493973494, 0.0, 0.0, 0.0, 0.0, 0.0, 1.7103879266489172E9, 0.0, 2024-03-13 20:45:26.648
80.0, -413.52634795056656, 140.8857712307945, -208.96691002417356, 10.191227379254997, 0.01600000075995922, -0.19200000911951065, 1.0400000493973494, 0.0, 0.0, 0.0, 0.0, 0.0, 1.7103879266625636E9, 0.0, 2024-03-13 20:45:26.662
80.0, -289.8590761157684, 149.8839705241844, -52.69893027562648, -37.11850706022233, 0.01600000075995922, -0.19200000911951065, 1.0400000493973494, 0.0, 0.0, 0.0, 0.0, 0.0, 1.7103879266625636E9, 0.0, 2024-03-13 20:45:26.662
81.0, -165.05674464441836, 84.3721430003643, 86.1691649290733, -68.60472478717566, 0.01600000075995922, -0.19200000911951065, 1.0400000493973494, 0.0, 0.0, 0.0, 0.0, 0.0, 1.7103879266782916E9, 0.0, 2024-03-13 20:45:26.678
81.0, -73.71716802660376, -92.5830933530815, 129.7427393128164, -205.1952209188603, 0.01600000075995922, -0.19200000911951065, 1.0400000493973494, 0.0, 0.0, 0.0, 0.0, 0.0, 1.7103879266782916E9, 0.0, 2024-03-13 20:45:26.678
82.0, -269.9702881514095, -223.42162335291505, -29.885540545918047, -389.75367388222367, 0.01600000075995922, -0.19200000911951065, 1.0400000493973494, 0.0, 0.0, 0.0, 0.0, 0.0, 1.710387926678918E9, 0.0, 2024-03-13 20:45:26.678
82.0, -55.316860244609416, -275.4698110362515, 211.39223514543846, -445.0368750272319, 0.01600000075995922, -0.19200000911951065, 1.0400000493973494, 0.0, 0.0, 0.0, 0.0, 0.0, 1.710387926678918E9, 0.0, 2024-03-13 20:45:26.678
83.0, -195.56310858298093, -309.9554285276681, 25.799699844326824, -422.59373539313674, 0.01600000075995922, -0.19200000911951065, 1.0400000493973494, 0.0, 0.0, 0.0, 0.0, 0.0, 1.710387926692568E9, 0.0, 2024-03-13 20:45:26.692
83.0, -300.98901838390157, -227.04184651002288, -95.25899177137762, -370.93075740523636, 0.01600000075995922, -0.19200000911951065, 1.0400000493973494, 0.0, 0.0, 0.0, 0.0, 0.0, 1.710387926692568E9, 0.0, 2024-03-13 20:45:26.692
84.0, -394.3182217781432, -53.42260091705248, -145.17169658001512, -233.96253137802705, 0.01600000075995922, -0.19200000911951065, 1.0400000493973494, 0.0, 0.0, 0.0, 0.0, 0.0, 1.7103879267083404E9, 0.0, 2024-03-13 20:45:26.708
84.0, -220.04823359288275, 59.6962830927223, 8.64851864753291, -67.91284329537302, 0.01600000075995922, -0.19200000911951065, 1.0400000493973494, 0.0, 0.0, 0.0, 0.0, 0.0, 1.7103879267083404E9, 0.0, 2024-03-13 20:45:26.708
85.0, -424.05042642587796, 124.48257002513856, -231.52972645685077, -4.095190451480448, 0.01600000075995922, -0.19200000911951065, 1.0400000493973494, 0.0, 0.0, 0.0, 0.0, 0.0, 1.710387926708925E9, 0.0, 2024-03-13 20:45:26.708
85.0, -297.1219618297182, 141.41683702450246, -56.23687563370913, -42.27208919916302, 0.01600000075995922, -0.19200000911951065, 1.0400000493973494, 0.0, 0.0, 0.0, 0.0, 0.0, 1.710387926708925E9, 0.0, 2024-03-13 20:45:26.708
86.0, -177.72004589438438, 74.15099642146379, 79.93475170293823, -79.21482096146792, 0.01600000075995922, -0.19200000911951065, 1.0400000493973494, 0.0, 0.0, 0.0, 0.0, 0.0, 1.71038792672283E9, 0.0, 2024-03-13 20:45:26.722
86.0, -104.44418606255203, -98.16302408697084, 121.7804923071526, -212.50298543227836, 0.01600000075995922, -0.19200000911951065, 1.0400000493973494, 0.0, 0.0, 0.0, 0.0, 0.0, 1.71038792672283E9, 0.0, 2024-03-13 20:45:26.722
87.0, -255.98306231712922, -219.01602120511234, -27.83981527015567, -386.71313521824777, 0.01600000075995922, -0.19200000911951065, 1.0400000493973494, 0.0, 0.0, 0.0, 0.0, 0.0, 1.7103879267384245E9, 0.0, 2024-03-13 20:45:26.738
87.0, -46.498176149092615, -267.6534201288596, 212.33095003431663, -440.5078561808914, 0.01600000075995922, -0.19200000911951065, 1.0400000493973494, 0.0, 0.0, 0.0, 0.0, 0.0, 1.7103879267384245E9, 0.0, 2024-03-13 20:45:26.738
88.0, -183.43835292663425, -297.763354672119, 47.76039238413796, -409.81075734458864, 0.01600000075995922, -0.19200000911951065, 1.0400000493973494, 0.0, 0.0, 0.0, 0.0, 0.0, 1.7103879267390547E9, 0.0, 2024-03-13 20:45:26.739
88.0, -289.8665559156798, -218.26430131401867, -79.46165435854346, -360.71335072629154, 0.01600000075995922, -0.19200000911951065, 1.0400000493973494, 0.0, 0.0, 0.0, 0.0, 0.0, 1.7103879267390547E9, 0.0, 2024-03-13 20:45:26.739
89.0, -388.2708035497926, -48.91602147044614, -139.94331644196063, -228.78650983935222, 0.01600000075995922, -0.19200000911951065, 1.0400000493973494, 0.0, 0.0, 0.0, 0.0, 0.0, 1.7103879267525203E9, 0.0, 2024-03-13 20:45:26.752
89.0, -213.38373187184334, 63.93358974251896, 21.90272409049794, -59.19513649865985, 0.01600000075995922, -0.19200000911951065, 1.0400000493973494, 0.0, 0.0, 0.0, 0.0, 0.0, 1.7103879267525203E9, 0.0, 2024-03-13 20:45:26.752
90.0, -420.72565536526963, 127.38099249079823, -209.2100035212934, 12.06491725705564, 0.01600000075995922, -0.19200000911951065, 1.0400000493973494, 0.0, 0.0, 0.0, 0.0, 0.0, 1.7103879267686083E9, 0.0, 2024-03-13 20:45:26.768
90.0, -289.5598841193132, 147.8532048482448, -36.74825696460903, -23.587549020536244, 0.01600000075995922, -0.19200000911951065, 1.0400000493973494, 0.0, 0.0, 0.0, 0.0, 0.0, 1.7103879267686083E9, 0.0, 2024-03-13 20:45:26.768
91.0, -165.20634064264596, 81.67567513231188, 85.97095023142174, -68.27187369111925, 0.01600000075995922, -0.19200000911951065, 1.0400000493973494, 0.0, 0.0, 0.0, 0.0, 0.0, 1.7103879267691476E9, 0.0, 2024-03-13 20:45:26.769
91.0, -68.75806068535894, -81.36339348601177, 136.65033453097567, -188.32079231878743, 0.01600000075995922, -0.19200000911951065, 1.0400000493973494, 0.0, 0.0, 0.0, 0.0, 0.0, 1.7103879267691476E9, 0.0, 2024-03-13 20:45:26.769
92.0, -241.5021696886979, -215.63889154512435, -22.47305883374065, -377.9916885215789, 0.01600000075995922, -0.19200000911951065, 1.0400000493973494, 0.0, 0.0, 0.0, 0.0, 0.0, 1.710387926782563E9, 0.0, 2024-03-13 20:45:26.782
92.0, -54.531481253914535, -264.4670253666118, 218.4606460616924, -434.4978369520977, 0.01600000075995922, -0.19200000911951065, 1.0400000493973494, 0.0, 0.0, 0.0, 0.0, 0.0, 1.710387926782563E9, 0.0, 2024-03-13 20:45:26.782
93.0, -194.2429238986224, -319.7764058113098, 27.852904920000583, -423.3828542837873, 0.01600000075995922, -0.19200000911951065, 1.0400000493973494, 0.0, 0.0, 0.0, 0.0, 0.0, 1.7103879267982128E9, 0.0, 2024-03-13 20:45:26.798
93.0, -310.91845276625827, -228.34333169460297, -87.05365126859397, -364.89081897679716, 0.01600000075995922, -0.19200000911951065, 1.0400000493973494, 0.0, 0.0, 0.0, 0.0, 0.0, 1.7103879267982128E9, 0.0, 2024-03-13 20:45:26.798
94.0, -404.9619770520367, -54.48473250446841, -140.1003922400996, -231.63631360558793, 0.01600000075995922, -0.19200000911951065, 1.0400000493973494, 0.0, 0.0, 0.0, 0.0, 0.0, 1.7103879267989957E9, 0.0, 2024-03-13 20:45:26.798
94.0, -223.39544405322522, 62.48998835962266, 22.115898387972265, -65.59410532284528, 0.01600000075995922, -0.19200000911951065, 1.0400000493973494, 0.0, 0.0, 0.0, 0.0, 0.0, 1.7103879267989957E9, 0.0, 2024-03-13 20:45:26.798
95.0, -413.49642875092104, 132.01472853589803, -215.61271224543452, 6.4588072234764695, 0.01600000075995922, -0.19200000911951065, 1.0400000493973494, 0.0, 0.0, 0.0, 0.0, 0.0, 1.7103879268126E9, 0.0, 2024-03-13 20:45:26.812
95.0, -303.70792565168813, 148.02524024620652, -48.6897575231269, -31.882647122256458, 0.01600000075995922, -0.19200000911951065, 1.0400000493973494, 0.0, 0.0, 0.0, 0.0, 0.0, 1.7103879268126E9, 0.0, 2024-03-13 20:45:26.812
96.0, -164.42470155190676, 73.08138503413647, 82.26096947537735, -73.45537502970546, 0.01600000075995922, -0.19200000911951065, 1.0400000493973494, 0.0, 0.0, 0.0, 0.0, 0.0, 1.710387926828206E9, 0.0, 2024-03-13 20:45:26.828
96.0, -81.80283173080534, -97.46366279525682, 121.67951500834897, -211.47451294446364, 0.01600000075995922, -0.19200000911951065, 1.0400000493973494, 0.0, 0.0, 0.0, 0.0, 0.0, 1.710387926828206E9, 0.0, 2024-03-13 20:45:26.828
97.0, -266.189249296207, -225.90491692349315, -33.5356829026714, -391.60866426024586, 0.01600000075995922, -0.19200000911951065, 1.0400000493973494, 0.0, 0.0, 0.0, 0.0, 0.0, 1.7103879268289597E9, 0.0, 2024-03-13 20:45:26.828
97.0, -35.92921887431294, -261.822916097939, -276.51698302384466, -433.96677115838975, 0.01600000075995922, -0.19200000911951065, 1.0400000493973494, 0.0, 0.0, 0.0, 0.0, 0.0, 1.7103879268289597E9, 0.0, 2024-03-13 20:45:26.828
98.0, -196.78605586849153, -310.90910301636904, -456.75772148836404, -417.59348915237933, 0.01600000075995922, -0.19200000911951065, 1.0400000493973494, 0.0, 0.0, 0.0, 0.0, 0.0, 1.71038792684256E9, 0.0, 2024-03-13 20:45:26.842
98.0, -306.73724461579695, -227.70380880218, -576.8627386153676, -366.2783218603581, 0.01600000075995922, -0.19200000911951065, 1.0400000493973494, 0.0, 0.0, 0.0, 0.0, 0.0, 1.71038792684256E9, 0.0, 2024-03-13 20:45:26.842
99.0, -395.96377775864676, -47.046071492601186, -617.0367439393885, -223.17665990581736, 0.01600000075995922, -0.19200000911951065, 1.0400000493973494, 0.0, 0.0, 0.0, 0.0, 0.0, 1.710387926858258E9, 0.0, 2024-03-13 20:45:26.858
99.0, -222.64746406208724, 58.38357820827514, -465.0640392899513, -59.43822999577969, 0.01600000075995922, -0.19200000911951065, 1.0400000493973494, 0.0, 0.0, 0.0, 0.0, 0.0, 1.710387926858258E9, 0.0, 2024-03-13 20:45:26.858
100.0, -434.2192144053988, 121.763662757352, -699.8942274576984, 10.696113873273134, 0.01600000075995922, -0.19200000911951065, 1.0400000493973494, 0.0, 0.0, 0.0, 0.0, 0.0, 1.71038792685898E9, 0.0, 2024-03-13 20:45:26.858
100.0, -305.70129232807085, 140.30608673766255, -544.2732504014857, -31.39272022806108, 0.01600000075995922, -0.19200000911951065, 1.0400000493973494, 0.0, 0.0, 0.0, 0.0, 0.0, 1.71038792685898E9, 0.0, 2024-03-13 20:45:26.858
0.0, -673.1071940250695, -420.77614401467144, -411.65826792269945, -568.6592680625618, 0.01600000075995922, -0.19200000911951065, 1.0400000493973494, 0.0, 0.0, 0.0, 0.0, 0.0, 1.7103879268732686E9, 0.0, 2024-03-13 20:45:26.873
1.0, -580.5371903218329, -598.9805069533177, -374.0610536681488, -703.854781510774, 0.01600000075995922, -0.19200000911951065, 1.0400000493973494, 0.0, 0.0, 0.0, 0.0, 0.0, 1.710387926873982E9, 0.0, 2024-03-13 20:45:26.873
1.0, -751.6806221441366, -718.9060088824481, -525.4540738244541, -876.9280017102137, 0.01600000075995922, -0.19200000911951065, 1.0400000493973494, 0.0, 0.0, 0.0, 0.0, 0.0, 1.710387926873982E9, 0.0, 2024-03-13 20:45:26.873
2.0, -551.5529656652361, -763.3210607562214, -769.9275940279476, -930.8311797715724, 0.01600000075995922, -0.19200000911951065, 1.0400000493973494, 0.0, 0.0, 0.0, 0.0, 0.0, 1.7103879268875377E9, 0.0, 2024-03-13 20:45:26.887
2.0, -692.0348277008161, -805.8325035525486, -952.78626246145, -918.0781209226698, 0.01600000075995922, -0.19200000911951065, 1.0400000493973494, 0.0, 0.0, 0.0, 0.0, 0.0, 1.7103879268875377E9, 0.0, 2024-03-13 20:45:26.887
3.0, -796.383646314498, -721.7034540493041, -1077.9214450288564, -863.935589264147, 0.01600000075995922, -0.19200000911951065, 1.0400000493973494, 0.0, 0.0, 0.0, 0.0, 0.0, 1.7103879269033425E9, 0.0, 2024-03-13 20:45:26.903
3.0, -896.6092252270319, -544.1236544032581, -1132.7595980791375, -725.9875094485469, 0.01600000075995922, -0.19200000911951065, 1.0400000493973494, 0.0, 0.0, 0.0, 0.0, 0.0, 1.7103879269033425E9, 0.0, 2024-03-13 20:45:26.903
4.0, -693.5831462824717, -413.9396068956703, -949.300675702747, -539.4917883081362, 0.01600000075995922, -0.19200000911951065, 1.0400000493973494, 0.0, 0.0, 0.0, 0.0, 0.0, 1.7103879269040716E9, 0.0, 2024-03-13 20:45:26.904
4.0, -900.3640847825445, -348.06500907614827, -1185.2453540572897, -469.5967980362475, 0.01600000075995922, -0.19200000911951065, 1.0400000493973494, 0.0, 0.0, 0.0, 0.0, 0.0, 1.7103879269040716E9, 0.0, 2024-03-13 20:45:26.904
5.0, -771.4048545104451, -330.76797178108245, -1009.0923262443393, -500.62300806865096, 0.01600000075995922, -0.19200000911951065, 1.0400000493973494, 0.0, 0.0, 0.0, 0.0, 0.0, 1.7103879269178243E9, 0.0, 2024-03-13 20:45:26.917
5.0, -660.7131655719131, -398.76683277543634, -886.0776669518091, -551.1789756696671, 0.01600000075995922, -0.19200000911951065, 1.0400000493973494, 0.0, 0.0, 0.0, 0.0, 0.0, 1.7103879269178243E9, 0.0, 2024-03-13 20:45:26.917
6.0, -560.8129579555243, -581.2907801629044, -853.5928959366865, -690.5070785689168, 0.01600000075995922, -0.19200000911951065, 1.0400000493973494, 0.0, 0.0, 0.0, 0.0, 0.0, 1.7103879269332185E9, 0.0, 2024-03-13 20:45:26.933
6.0, -739.6493639866821, -697.4427230367437, -1007.9329572580755, -863.8420917652547, 0.01600000075995922, -0.19200000911951065, 1.0400000493973494, 0.0, 0.0, 0.0, 0.0, 0.0, 1.7103879269332185E9, 0.0, 2024-03-13 20:45:26.933
7.0, -533.0105416849256, -745.9193062623963, -762.8741427115165, -918.280075520277, 0.01600000075995922, -0.19200000911951065, 1.0400000493973494, 0.0, 0.0, 0.0, 0.0, 0.0, 1.7103879269339845E9, 0.0, 2024-03-13 20:45:26.933
7.0, -684.3979519912973, -799.0520649328828, -953.1976514565758, -910.3776669139042, 0.01600000075995922, -0.19200000911951065, 1.0400000493973494, 0.0, 0.0, 0.0, 0.0, 0.0, 1.7103879269339845E9, 0.0, 2024-03-13 20:45:26.933
8.0, -785.9568052380346, -718.1692485911772, -1073.8337343772873, -855.5133345639333, 0.01600000075995922, -0.19200000911951065, 1.0400000493973494, 0.0, 0.0, 0.0, 0.0, 0.0, 1.7103879269479015E9, 0.0, 2024-03-13 20:45:26.947
8.0, -888.3889251244254, -534.067063422408, -1114.6771817933768, -708.5371362552978, 0.01600000075995922, -0.19200000911951065, 1.0400000493973494, 0.0, 0.0, 0.0, 0.0, 0.0, 1.7103879269479015E9, 0.0, 2024-03-13 20:45:26.947
9.0, -712.563138557598, -429.17969921510667, -949.468971200753, -548.5909649003297, 0.01600000075995922, -0.19200000911951065, 1.0400000493973494, 0.0, 0.0, 0.0, 0.0, 0.0, 1.7103879269632132E9, 0.0, 2024-03-13 20:45:26.963
9.0, -921.4234614330344, -363.3574599949643, -1192.9906868655235, -478.2658861335367, 0.01600000075995922, -0.19200000911951065, 1.0400000493973494, 0.0, 0.0, 0.0, 0.0, 0.0, 1.7103879269632132E9, 0.0, 2024-03-13 20:45:26.963
10.0, -782.2056855824776, -329.5936431949958, -1014.1524108843878, -499.0896490868181, 0.01600000075995922, -0.19200000911951065, 1.0400000493973494, 0.0, 0.0, 0.0, 0.0, 0.0, 1.7103879269639304E9, 0.0, 2024-03-13 20:45:26.963
10.0, -649.908594599925, -398.50503977853805, -882.7154968916439, -545.6514035351574, 0.01600000075995922, -0.19200000911951065, 1.0400000493973494, 0.0, 0.0, 0.0, 0.0, 0.0, 1.7103879269639304E9, 0.0, 2024-03-13 20:45:26.963
11.0, -565.8057243963704, -573.9530964498408, -840.4995061918162, -684.3063244423829, 0.01600000075995922, -0.19200000911951065, 1.0400000493973494, 0.0, 0.0, 0.0, 0.0, 0.0, 1.7103879269776108E9, 0.0, 2024-03-13 20:45:26.977
11.0, -745.4013301185332, -703.9426691597328, -1005.382345488295, -866.1196908382699, 0.01600000075995922, -0.19200000911951065, 1.0400000493973494, 0.0, 0.0, 0.0, 0.0, 0.0, 1.7103879269776108E9, 0.0, 2024-03-13 20:45:26.977
12.0, -535.1086255600676, -745.4480788679793, -761.4342812285759, -918.1940578212962, 0.01600000075995922, -0.19200000911951065, 1.0400000493973494, 0.0, 0.0, 0.0, 0.0, 0.0, 1.7103879269937184E9, 0.0, 2024-03-13 20:45:26.993
12.0, -686.9036849616095, -799.990779821761, -946.8585210316814, -909.5474091237411, 0.01600000075995922, -0.19200000911951065, 1.0400000493973494, 0.0, 0.0, 0.0, 0.0, 0.0, 1.7103879269937184E9, 0.0, 2024-03-13 20:45:26.993
13.0, -790.7924958807416, -718.3225844893605, -1069.3533342303708, -856.0892791571096, 0.01600000075995922, -0.19200000911951065, 1.0400000493973494, 0.0, 0.0, 0.0, 0.0, 0.0, 1.710387926994094E9, 0.0, 2024-03-13 20:45:26.994
13.0, -897.0393137219362, -538.5586832691915, -1123.1966738924384, -713.5860011954792, 0.01600000075995922, -0.19200000911951065, 1.0400000493973494, 0.0, 0.0, 0.0, 0.0, 0.0, 1.710387926994094E9, 0.0, 2024-03-13 20:45:26.994
14.0, -713.2475402494892, -430.33906820137054, -961.4104717592709, -552.8955897493288, 0.01600000075995922, -0.19200000911951065, 1.0400000493973494, 0.0, 0.0, 0.0, 0.0, 0.0, 1.710387927007826E9, 0.0, 2024-03-13 20:45:27.007
14.0, -922.8109643165953, -369.15056502632797, -1202.1684013567865, -487.33140362612903, 0.01600000075995922, -0.19200000911951065, 1.0400000493973494, 0.0, 0.0, 0.0, 0.0, 0.0, 1.710387927007826E9, 0.0, 2024-03-13 20:45:27.007
15.0, -775.1372746662237, -329.83299679216, -1018.2289018360898, -509.66982606146485, 0.01600000075995922, -0.19200000911951065, 1.0400000493973494, 0.0, 0.0, 0.0, 0.0, 0.0, 1.710387927023166E9, 0.0, 2024-03-13 20:45:27.023
15.0, -644.6876942617819, -402.2935584336519, -889.4211375121959, -557.0917574996129, 0.01600000075995922, -0.19200000911951065, 1.0400000493973494, 0.0, 0.0, 0.0, 0.0, 0.0, 1.710387927023166E9, 0.0, 2024-03-13 20:45:27.023
16.0, -566.774358484894, -578.1380445002578, -843.2707720589824, -690.7726114657708, 0.01600000075995922, -0.19200000911951065, 1.0400000493973494, 0.0, 0.0, 0.0, 0.0, 0.0, 1.7103879270238888E9, 0.0, 2024-03-13 20:45:27.023
16.0, -749.2197679732926, -695.3558588614687, -1003.3740192120895, -857.8432922363281, 0.01600000075995922, -0.19200000911951065, 1.0400000493973494, 0.0, 0.0, 0.0, 0.0, 0.0, 1.7103879270238888E9, 0.0, 2024-03-13 20:45:27.023
17.0, -522.9202916044742, -737.190379765816, -764.9123881873675, -910.3140886146575, 0.01600000075995922, -0.19200000911951065, 1.0400000493973494, 0.0, 0.0, 0.0, 0.0, 0.0, 1.710387927037594E9, 0.0, 2024-03-13 20:45:27.037
17.0, -676.1626922888681, -797.4177286522463, -947.5017838240601, -905.351241373457, 0.01600000075995922, -0.19200000911951065, 1.0400000493973494, 0.0, 0.0, 0.0, 0.0, 0.0, 1.710387927037594E9, 0.0, 2024-03-13 20:45:27.037
18.0, -791.4881172725, -705.532126640901, -1067.8124954486266, -847.5473476583138, 0.01600000075995922, -0.19200000911951065, 1.0400000493973494, 0.0, 0.0, 0.0, 0.0, 0.0, 1.7103879270532348E9, 0.0, 2024-03-13 20:45:27.053
18.0, -879.084054034669, -518.6923347045667, -1103.651956724003, -697.5979288849048, 0.01600000075995922, -0.19200000911951065, 1.0400000493973494, 0.0, 0.0, 0.0, 0.0, 0.0, 1.7103879270532348E9, 0.0, 2024-03-13 20:45:27.053
19.0, -707.1141043221578, -419.4634391302243, -950.6806987863965, -546.0328733306378, 0.01600000075995922, -0.19200000911951065, 1.0400000493973494, 0.0, 0.0, 0.0, 0.0, 0.0, 1.71038792705415E9, 0.0, 2024-03-13 20:45:27.054
19.0, -923.2821917110123, -369.7377293193713, -708.7166514531709, -485.21836015116423, 0.01600000075995922, -0.19200000911951065, 1.0400000493973494, 0.0, 0.0, 0.0, 0.0, 0.0, 1.71038792705415E9, 0.0, 2024-03-13 20:45:27.054
20.0, -777.1343812425621, -329.6796608939767, -527.6157359988429, -505.59707500971854, 0.01600000075995922, -0.19200000911951065, 1.0400000493973494, 0.0, 0.0, 0.0, 0.0, 0.0, 1.7103879270677276E9, 0.0, 2024-03-13 20:45:27.067
20.0, -646.1200759448111, -398.0487719839439, -389.05431259050965, -547.7868864098564, 0.01600000075995922, -0.19200000911951065, 1.0400000493973494, 0.0, 0.0, 0.0, 0.0, 0.0, 1.7103879270677276E9, 0.0, 2024-03-13 20:45:27.067
21.0, -574.1980598969385, -586.8258320973255, -363.81746768951416, -699.4304798631929, 0.01600000075995922, -0.19200000911951065, 1.0400000493973494, 0.0, 0.0, 0.0, 0.0, 0.0, 1.710387927083506E9, 0.0, 2024-03-13 20:45:27.083
21.0, -746.1119111101143, -707.8770439131185, -522.0956436642446, -873.7116877483204, 0.01600000075995922, -0.19200000911951065, 1.0400000493973494, 0.0, 0.0, 0.0, 0.0, 0.0, 1.710387927083506E9, 0.0, 2024-03-13 20:45:27.083
22.0, -524.44243088644, -743.196659094654, -762.096243520733, -917.9659239239991, 0.01600000075995922, -0.19200000911951065, 1.0400000493973494, 0.0, 0.0, 0.0, 0.0, 0.0, 1.7103879270839715E9, 0.0, 2024-03-13 20:45:27.083
22.0, -681.6678250236437, -810.1558279013261, -958.6242462922819, -925.1128727393225, 0.01600000075995922, -0.19200000911951065, 1.0400000493973494, 0.0, 0.0, 0.0, 0.0, 0.0, 1.7103879270839715E9, 0.0, 2024-03-13 20:45:27.083
23.0, -794.9176055318676, -719.7549661723897, -1081.4332110872492, -864.0515261627734, 0.01600000075995922, -0.19200000911951065, 1.0400000493973494, 0.0, 0.0, 0.0, 0.0, 0.0, 1.7103879270975528E9, 0.0, 2024-03-13 20:45:27.097
23.0, -884.233896273654, -531.7483254498802, -1121.0013526184484, -710.82595502818, 0.01600000075995922, -0.19200000911951065, 1.0400000493973494, 0.0, 0.0, 0.0, 0.0, 0.0, 1.7103879270975528E9, 0.0, 2024-03-13 20:45:27.097
24.0, -708.9017765009776, -425.2341047618538, -953.5080631528981, -551.8820768613368, 0.01600000075995922, -0.19200000911951065, 1.0400000493973494, 0.0, 0.0, 0.0, 0.0, 0.0, 1.7103879271132965E9, 0.0, 2024-03-13 20:45:27.113
24.0, -911.1499562547542, -367.9612768404186, -711.2149046235718, -487.3014844264835, 0.01600000075995922, -0.19200000911951065, 1.0400000493973494, 0.0, 0.0, 0.0, 0.0, 0.0, 1.7103879271132965E9, 0.0, 2024-03-13 20:45:27.113
25.0, -773.9966051797383, -318.72923382371664, -529.3061707788147, -498.644600992091, 0.01600000075995922, -0.19200000911951065, 1.0400000493973494, 0.0, 0.0, 0.0, 0.0, 0.0, 1.7103879271139984E9, 0.0, 2024-03-13 20:45:27.113
25.0, -652.6985599668697, -403.50528601929545, -391.0850782664493, -547.1698029171675, 0.01600000075995922, -0.19200000911951065, 1.0400000493973494, 0.0, 0.0, 0.0, 0.0, 0.0, 1.7103879271139984E9, 0.0, 2024-03-13 20:45:27.113
26.0, -574.227979096584, -590.7340275510214, -358.5703880516812, -695.0734964148141, 0.01600000075995922, -0.19200000911951065, 1.0400000493973494, 0.0, 0.0, 0.0, 0.0, 0.0, 1.7103879271275446E9, 0.0, 2024-03-13 20:45:27.127
26.0, -737.5924190110527, -700.6552970986813, -507.49507423723117, -851.6238386100158, 0.01600000075995922, -0.19200000911951065, 1.0400000493973494, 0.0, 0.0, 0.0, 0.0, 0.0, 1.7103879271275446E9, 0.0, 2024-03-13 20:45:27.127
27.0, -524.0385216912255, -736.9098872691393, -262.80276988632977, -906.6976053575054, 0.01600000075995922, -0.19200000911951065, 1.0400000493973494, 0.0, 0.0, 0.0, 0.0, 0.0, 1.7103879271435876E9, 0.0, 2024-03-13 20:45:27.143
27.0, -682.1240928182378, -796.565031462349, -454.8802917106077, -903.8104025917128, 0.01600000075995922, -0.19200000911951065, 1.0400000493973494, 0.0, 0.0, 0.0, 0.0, 0.0, 1.7103879271435876E9, 0.0, 2024-03-13 20:45:27.143
28.0, -786.5252700312994, -705.6929423389956, -567.1315189306624, -836.9260317841545, 0.01600000075995922, -0.19200000911951065, 1.0400000493973494, 0.0, 0.0, 0.0, 0.0, 0.0, 1.7103879271442373E9, 0.0, 2024-03-13 20:45:27.144
28.0, -880.3107412201352, -530.099029569421, -619.7145123076625, -706.2782366820611, 0.01600000075995922, -0.19200000911951065, 1.0400000493973494, 0.0, 0.0, 0.0, 0.0, 0.0, 1.7103879271442373E9, 0.0, 2024-03-13 20:45:27.144
29.0, -727.0627306858078, -444.034581839107, -466.27950677555054, -564.2274866150692, 0.01600000075995922, -0.19200000911951065, 1.0400000493973494, 0.0, 0.0, 0.0, 0.0, 0.0, 1.7103879271575196E9, 0.0, 2024-03-13 20:45:27.157
29.0, -926.3115106751211, -385.8192991288379, -228.75472068972886, -499.5758360810578, 0.01600000075995922, -0.19200000911951065, 1.0400000493973494, 0.0, 0.0, 0.0, 0.0, 0.0, 1.7103879271575196E9, 0.0, 2024-03-13 20:45:27.157
30.0, -781.1959125944413, -337.7989836977795, -45.82499415706843, -511.66693263780326, 0.01600000075995922, -0.19200000911951065, 1.0400000493973494, 0.0, 0.0, 0.0, 0.0, 0.0, 1.7103879271733131E9, 0.0, 2024-03-13 20:45:27.173
30.0, -663.7013456365094, -416.789410661906, 92.07446695910767, -564.6613150099292, 0.01600000075995922, -0.19200000911951065, 1.0400000493973494, 0.0, 0.0, 0.0, 0.0, 0.0, 1.7103879271733131E9, 0.0, 2024-03-13 20:45:27.173
31.0, -588.0506493328139, -610.1104492214508, 121.27934571309015, -713.4139657975174, 0.01600000075995922, -0.19200000911951065, 1.0400000493973494, 0.0, 0.0, 0.0, 0.0, 0.0, 1.710387927174093E9, 0.0, 2024-03-13 20:45:27.174
31.0, -744.716928426642, -704.204462156631, -20.633028055541217, -860.3265858069062, 0.01600000075995922, -0.19200000911951065, 1.0400000493973494, 0.0, 0.0, 0.0, 0.0, 0.0, 1.710387927174093E9, 0.0, 2024-03-13 20:45:27.174
32.0, -529.7381292236969, -741.1621535187587, -253.3071638988331, -904.0721955886111, 0.01600000075995922, -0.19200000911951065, 1.0400000493973494, 0.0, 0.0, 0.0, 0.0, 0.0, 1.710387927187802E9, 0.0, 2024-03-13 20:45:27.187
32.0, -667.6020612902939, -797.4925266513601, -446.4729966102168, -909.8840001197532, 0.01600000075995922, -0.19200000911951065, 1.0400000493973494, 0.0, 0.0, 0.0, 0.0, 0.0, 1.710387927187802E9, 0.0, 2024-03-13 20:45:27.187
33.0, -803.8036078265868, -712.3611839599907, -579.028140689712, -853.744361884892, 0.01600000075995922, -0.19200000911951065, 1.0400000493973494, 0.0, 0.0, 0.0, 0.0, 0.0, 1.7103879272035081E9, 0.0, 2024-03-13 20:45:27.203
33.0, -883.7664087791927, -521.837590567302, -612.9527731877752, -695.2717111124657, 0.01600000075995922, -0.19200000911951065, 1.0400000493973494, 0.0, 0.0, 0.0, 0.0, 0.0, 1.7103879272035081E9, 0.0, 2024-03-13 20:45:27.203
34.0, -722.9638003343716, -427.0142971407622, -459.4691489562392, -546.6088179238141, 0.01600000075995922, -0.19200000911951065, 1.0400000493973494, 0.0, 0.0, 0.0, 0.0, 0.0, 1.7103879272043784E9, 0.0, 2024-03-13 20:45:27.204
34.0, -906.9612683043815, -361.2107574203983, -697.2351585892029, -474.3090719804168, 0.01600000075995922, -0.19200000911951065, 1.0400000493973494, 0.0, 0.0, 0.0, 0.0, 0.0, 1.7103879272043784E9, 0.0, 2024-03-13 20:45:27.204
35.0, -774.2022996773012, -317.23701374139637, -514.286732556764, -486.463746836409, 0.01600000075995922, -0.19200000911951065, 1.0400000493973494, 0.0, 0.0, 0.0, 0.0, 0.0, 1.710387927217513E9, 0.0, 2024-03-13 20:45:27.217
35.0, -661.1469939667732, -388.145516901277, -368.93365082889795, -527.3819922516122, 0.01600000075995922, -0.19200000911951065, 1.0400000493973494, 0.0, 0.0, 0.0, 0.0, 0.0, 1.710387927217513E9, 0.0, 2024-03-13 20:45:27.217
36.0, -561.4749202476814, -580.4044238734059, -338.88355468492955, -678.576797710266, 0.01600000075995922, -0.19200000911951065, 1.0400000493973494, 0.0, 0.0, 0.0, 0.0, 0.0, 1.7103879272343397E9, 0.0, 2024-03-13 20:45:27.234
36.0, -746.3512647072785, -685.4675633786246, -498.885824539233, -841.3166743321344, 0.01600000075995922, -0.19200000911951065, 1.0400000493973494, 0.0, 0.0, 0.0, 0.0, 0.0, 1.7103879272343397E9, 0.0, 2024-03-13 20:45:27.234
37.0, -531.424824103713, -730.0396910505369, -739.6643235865049, -894.2512183049694, 0.01600000075995922, -0.19200000911951065, 1.0400000493973494, 0.0, 0.0, 0.0, 0.0, 0.0, 1.7103879272343824E9, 0.0, 2024-03-13 20:45:27.234
37.0, -691.2868477096781, -800.1441157199442, -936.1586672584526, -905.7701101684943, 0.01600000075995922, -0.19200000911951065, 1.0400000493973494, 0.0, 0.0, 0.0, 0.0, 0.0, 1.7103879272343824E9, 0.0, 2024-03-13 20:45:27.234
38.0, -802.4011453432031, -718.5507183866575, -1071.0923877097666, -852.4802756998688, 0.01600000075995922, -0.19200000911951065, 1.0400000493973494, 0.0, 0.0, 0.0, 0.0, 0.0, 1.7103879272477288E9, 0.0, 2024-03-13 20:45:27.247
38.0, -878.3024149439298, -514.5784447533078, -1101.7857466461137, -692.9492332399823, 0.01600000075995922, -0.19200000911951065, 1.0400000493973494, 0.0, 0.0, 0.0, 0.0, 0.0, 1.7103879272477288E9, 0.0, 2024-03-13 20:45:27.247
39.0, -713.3634771481156, -425.9895645529032, -948.4030997133814, -550.0757051827386, 0.01600000075995922, -0.19200000911951065, 1.0400000493973494, 0.0, 0.0, 0.0, 0.0, 0.0, 1.7103879272632298E9, 0.0, 2024-03-13 20:45:27.263
39.0, -921.524438731838, -371.6488181967288, -705.9753047856502, -485.55121124722064, 0.01600000075995922, -0.19200000911951065, 1.0400000493973494, 0.0, 0.0, 0.0, 0.0, 0.0, 1.7103879272632298E9, 0.0, 2024-03-13 20:45:27.263
40.0, -784.4945043553598, -334.3096570391208, -528.3524962901138, -502.938006141223, 0.01600000075995922, -0.19200000911951065, 1.0400000493973494, 0.0, 0.0, 0.0, 0.0, 0.0, 1.7103879272640517E9, 0.0, 2024-03-13 20:45:27.264
40.0, -658.4056472992525, -402.7124272286892, -377.94680972211063, -543.4112034616992, 0.01600000075995922, -0.19200000911951065, 1.0400000493973494, 0.0, 0.0, 0.0, 0.0, 0.0, 1.7103879272640517E9, 0.0, 2024-03-13 20:45:27.264
41.0, -578.6859398437664, -603.0869171046652, -358.40583245363086, -698.7460781713016, 0.01600000075995922, -0.20800000987946987, 1.0400000493973494, 0.0, 0.0, 0.0, 0.0, 0.0, 1.7103879272776487E9, 0.0, 2024-03-13 20:45:27.277
41.0, -763.8465166999958, -698.501114724204, -498.09670564858243, -848.4112645480782, 0.01600000075995922, -0.20800000987946987, 1.0400000493973494, 0.0, 0.0, 0.0, 0.0, 0.0, 1.7103879272776487E9, 0.0, 2024-03-13 20:45:27.277
42.0, -522.404185410589, -736.5209376737475, -255.1995532764122, -898.2529112575576, 0.01600000075995922, -0.20800000987946987, 1.0400000493973494, 0.0, 0.0, 0.0, 0.0, 0.0, 1.710387927293344E9, 0.0, 2024-03-13 20:45:27.293
42.0, -689.3420997327194, -807.9492869274691, -449.82020707055926, -909.6596061224118, 0.01600000075995922, -0.20800000987946987, 1.0400000493973494, 0.0, 0.0, 0.0, 0.0, 0.0, 1.710387927293344E9, 0.0, 2024-03-13 20:45:27.293
43.0, -809.6565512572415, -729.7143197543919, -583.8451318326406, -861.474735093303, 0.01600000075995922, -0.20800000987946987, 1.0400000493973494, 0.0, 0.0, 0.0, 0.0, 0.0, 1.7103879272939625E9, 0.0, 2024-03-13 20:45:27.293
43.0, -888.6507181213237, -529.3435697783716, -616.8273095418699, -699.6137349610217, 0.01600000075995922, -0.20800000987946987, 1.0400000493973494, 0.0, 0.0, 0.0, 0.0, 0.0, 1.7103879272939625E9, 0.0, 2024-03-13 20:45:27.293
44.0, -708.6287638042122, -432.41471267677844, -452.5054552387446, -550.5992911765352, 0.01600000075995922, -0.20800000987946987, 1.0400000493973494, 0.0, 0.0, 0.0, 0.0, 0.0, 1.7103879273077848E9, 0.0, 2024-03-13 20:45:27.307
44.0, -934.6477476763539, -379.75318140070885, -217.56494002230465, -489.6800607983023, 0.01600000075995922, -0.20800000987946987, 1.0400000493973494, 0.0, 0.0, 0.0, 0.0, 0.0, 1.7103879273077848E9, 0.0, 2024-03-13 20:45:27.307
45.0, -776.001191555988, -319.91104220971465, -27.77623697090894, -490.4130811896175, 0.01600000075995922, -0.20800000987946987, 1.0400000493973494, 0.0, 0.0, 0.0, 0.0, 0.0, 1.7103879273232522E9, 0.0, 2024-03-13 20:45:27.323
45.0, -649.6879405025393, -393.3290182398632, 109.86517104832456, -544.7239083461463, 0.01600000075995922, -0.20800000987946987, 1.0400000493973494, 0.0, 0.0, 0.0, 0.0, 0.0, 1.7103879273232522E9, 0.0, 2024-03-13 20:45:27.323
46.0, -574.9011610886082, -596.6804684805684, 133.46019986877218, -698.9068938693963, 0.01600000075995922, -0.20800000987946987, 1.0400000493973494, 0.0, 0.0, 0.0, 0.0, 0.0, 1.710387927323974E9, 0.0, 2024-03-13 20:45:27.323
46.0, -738.3516187020577, -693.0595602886751, -27.75753747113049, -854.9598293704912, 0.01600000075995922, -0.20800000987946987, 1.0400000493973494, 0.0, 0.0, 0.0, 0.0, 0.0, 1.710387927323974E9, 0.0, 2024-03-13 20:45:27.323
47.0, -518.3314343588427, -727.8593293763697, -257.0433239545673, -895.593842389062, 0.01600000075995922, -0.20800000987946987, 1.0400000493973494, 0.0, 0.0, 0.0, 0.0, 0.0, 1.7103879273376417E9, 0.0, 2024-03-13 20:45:27.337
47.0, -683.859406397678, -806.6029229434207, -453.5152282267809, -913.0965741816908, 0.01600000075995922, -0.20800000987946987, 1.0400000493973494, 0.0, 0.0, 0.0, 0.0, 0.0, 1.7103879273376417E9, 0.0, 2024-03-13 20:45:27.337
48.0, -789.1469399002381, -713.2288407497108, -579.3086331863888, -846.1523649748415, 0.01600000075995922, -0.20800000987946987, 1.0400000493973494, 0.0, 0.0, 0.0, 0.0, 0.0, 1.710387927353676E9, 0.0, 2024-03-13 20:45:27.353
48.0, -863.6569667174481, -506.7358745462261, -614.5422306689434, -688.0537041979842, 0.01600000075995922, -0.20800000987946987, 1.0400000493973494, 0.0, 0.0, 0.0, 0.0, 0.0, 1.710387927353676E9, 0.0, 2024-03-13 20:45:27.353
49.0, -712.4621612587944, -426.77120364364237, -462.64432401861995, -552.3084254562855, 0.01600000075995922, -0.20800000987946987, 1.0400000493973494, 0.0, 0.0, 0.0, 0.0, 0.0, 1.7103879273539732E9, 0.0, 2024-03-13 20:45:27.353
49.0, -919.9237615508027, -369.45349692273885, -702.0558896320872, -483.1240161759779, 0.01600000075995922, -0.20800000987946987, 1.0400000493973494, 0.0, 0.0, 0.0, 0.0, 0.0, 1.7103879273539732E9, 0.0, 2024-03-13 20:45:27.353
50.0, -780.0141042084433, -321.6687951888889, -524.3433235376142, -488.3411766141653, 0.01600000075995922, -0.20800000987946987, 1.0400000493973494, 0.0, 0.0, 0.0, 0.0, 0.0, 1.7103879273676658E9, 0.0, 2024-03-13 20:45:27.367
50.0, -644.4146815650165, -394.12561693042517, -378.7321887128055, -540.6735966941342, 0.01600000075995922, -0.20800000987946987, 1.0400000493973494, 0.0, 0.0, 0.0, 0.0, 0.0, 1.7103879273676658E9, 0.0, 2024-03-13 20:45:27.367
51.0, -584.7109186723828, -604.8932887832634, -366.8879255531356, -705.7396910884418, 0.01600000075995922, -0.19200000911951065, 1.0400000493973494, 0.0, 0.0, 0.0, 0.0, 0.0, 1.7103879273838327E9, 0.0, 2024-03-13 20:45:27.383
51.0, -746.4073632066138, -701.238721491769, -514.2418537572958, -856.1229382567108, 0.01600000075995922, -0.19200000911951065, 1.0400000493973494, 0.0, 0.0, 0.0, 0.0, 0.0, 1.7103879273838327E9, 0.0, 2024-03-13 20:45:27.383
52.0, -527.7073635477573, -733.7945506060496, -741.1789830685593, -896.4951582783833, 0.01600000075995922, -0.19200000911951065, 1.0400000493973494, 0.0, 0.0, 0.0, 0.0, 0.0, 1.710387927384154E9, 0.0, 2024-03-13 20:45:27.384
52.0, -683.0927269067615, -810.4438001979142, -941.8433151911013, -914.469117465429, 0.01600000075995922, -0.19200000911951065, 1.0400000493973494, 0.0, 0.0, 0.0, 0.0, 0.0, 1.710387927384154E9, 0.0, 2024-03-13 20:45:27.384
53.0, -811.3208067375235, -724.8113109124824, -1074.1366662736982, -852.3269398016855, 0.01600000075995922, -0.19200000911951065, 1.0400000493973494, 0.0, 0.0, 0.0, 0.0, 0.0, 1.7103879273975723E9, 0.0, 2024-03-13 20:45:27.397
53.0, -872.4195523136295, -511.1788756935857, -1102.57860543672, -687.0401913099922, 0.01600000075995922, -0.19200000911951065, 1.0400000493973494, 0.0, 0.0, 0.0, 0.0, 0.0, 1.7103879273975723E9, 0.0, 2024-03-13 20:45:27.397
54.0, -717.8176979953423, -434.89800624735653, -953.0929342578165, -556.3026386089623, 0.01600000075995922, -0.19200000911951065, 1.0400000493973494, 0.0, 0.0, 0.0, 0.0, 0.0, 1.7103879274132497E9, 0.0, 2024-03-13 20:45:27.413
54.0, -927.7139731585048, -376.4022310404107, -1197.6244229106233, -487.99336591828614, 0.01600000075995922, -0.19200000911951065, 1.0400000493973494, 0.0, 0.0, 0.0, 0.0, 0.0, 1.7103879274132497E9, 0.0, 2024-03-13 20:45:27.413
55.0, -771.53949090885, -316.80318534653634, -1008.1984901549295, -482.1853012870997, 0.01600000075995922, -0.19200000911951065, 1.0400000493973494, 0.0, 0.0, 0.0, 0.0, 0.0, 1.7103879274139748E9, 0.0, 2024-03-13 20:45:27.413
55.0, -647.9488870231435, -403.69602091703564, -878.9643772360869, -542.0797990774736, 0.01600000075995922, -0.19200000911951065, 1.0400000493973494, 0.0, 0.0, 0.0, 0.0, 0.0, 1.7103879274139748E9, 0.0, 2024-03-13 20:45:27.413
56.0, -581.6516805086285, -603.0831772047095, -855.2795908167027, -705.2198449946009, 0.01600000075995922, -0.19200000911951065, 1.0400000493973494, 0.0, 0.0, 0.0, 0.0, 0.0, 1.7103879274277372E9, 0.0, 2024-03-13 20:45:27.427
56.0, -748.1613762858324, -697.7905337326229, -1004.5072088986635, -852.0240079052746, 0.01600000075995922, -0.19200000911951065, 1.0400000493973494, 0.0, 0.0, 0.0, 0.0, 0.0, 1.7103879274277372E9, 0.0, 2024-03-13 20:45:27.427
57.0, -526.9369441568851, -732.6501412196085, -1227.4015063578263, -889.4043079623953, 0.01600000075995922, -0.19200000911951065, 1.0400000493973494, 0.0, 0.0, 0.0, 0.0, 0.0, 1.7103879274434755E9, 0.0, 2024-03-13 20:45:27.443
57.0, -693.9459165781736, -815.4814454382285, -1428.5071466751397, -913.7772359736264, 0.01600000075995922, -0.19200000911951065, 1.0400000493973494, 0.0, 0.0, 0.0, 0.0, 0.0, 1.7103879274434755E9, 0.0, 2024-03-13 20:45:27.443
58.0, -808.9721495653503, -729.0598372621462, -1563.8036374221556, -855.6367512624711, 0.01600000075995922, -0.19200000911951065, 1.0400000493973494, 0.0, 0.0, 0.0, 0.0, 0.0, 1.710387927444129E9, 0.0, 2024-03-13 20:45:27.444
58.0, -879.2860086322762, -518.954127701465, -1583.0005438947119, -680.8169977837242, 0.01600000075995922, -0.19200000911951065, 1.0400000493973494, 0.0, 0.0, 0.0, 0.0, 0.0, 1.710387927444129E9, 0.0, 2024-03-13 20:45:27.444
59.0, -699.1481174165383, -425.06954916380346, -1431.457927740179, -545.1839160406962, 0.01600000075995922, -0.19200000911951065, 1.0400000493973494, 0.0, 0.0, 0.0, 0.0, 0.0, 1.7103879274577355E9, 0.0, 2024-03-13 20:45:27.457
59.0, -923.3682094099931, -381.9260632749647, -1200.7921181730926, -491.0787833817303, 0.01600000075995922, -0.19200000911951065, 1.0400000493973494, 0.0, 0.0, 0.0, 0.0, 0.0, 1.7103879274577355E9, 0.0, 2024-03-13 20:45:27.457
60.0, -764.3813223936595, -317.3791299397126, -1013.3408525940031, -490.17372759245336, 0.01600000075995922, -0.19200000911951065, 1.0400000493973494, 0.0, 0.0, 0.0, 0.0, 0.0, 1.7103879274732785E9, 0.0, 2024-03-13 20:45:27.473
60.0, -651.3334964830428, -397.28957229293883, -870.3439078382216, -542.3079329747707, 0.01600000075995922, -0.19200000911951065, 1.0400000493973494, 0.0, 0.0, 0.0, 0.0, 0.0, 1.7103879274732785E9, 0.0, 2024-03-13 20:45:27.473
61.0, -583.345855188556, -609.9384138234891, -850.44016027404, -707.9088330627419, 0.01600000075995922, -0.19200000911951065, 1.0400000493973494, 0.0, 0.0, 0.0, 0.0, 0.0, 1.7103879274739976E9, 0.0, 2024-03-13 20:45:27.473
61.0, -736.9678557184525, -699.2864937148988, -1001.0665009394288, -854.1931498795748, 0.01600000075995922, -0.19200000911951065, 1.0400000493973494, 0.0, 0.0, 0.0, 0.0, 0.0, 1.7103879274739976E9, 0.0, 2024-03-13 20:45:27.473
62.0, -520.8371673291549, -728.0912031736225, -1227.6670392546803, -889.9054545564577, 0.01600000075995922, -0.19200000911951065, 1.0400000493973494, 0.0, 0.0, 0.0, 0.0, 0.0, 1.7103879274875789E9, 0.0, 2024-03-13 20:45:27.487
62.0, -687.9508569492027, -813.1103488663211, -1433.5036530159414, -919.4544041063637, 0.01600000075995922, -0.19200000911951065, 1.0400000493973494, 0.0, 0.0, 0.0, 0.0, 0.0, 1.7103879274875789E9, 0.0, 2024-03-13 20:45:27.487
63.0, -794.3977594380267, -712.8997295536101, -1560.3517097630538, -851.391964812763, 0.01600000075995922, -0.19200000911951065, 1.0400000493973494, 0.0, 0.0, 0.0, 0.0, 0.0, 1.710387927503734E9, 0.0, 2024-03-13 20:45:27.503
63.0, -877.4534576539882, -511.8258783859201, -1591.3031217963435, -689.4599065813236, 0.01600000075995922, -0.19200000911951065, 1.0400000493973494, 0.0, 0.0, 0.0, 0.0, 0.0, 1.710387927503734E9, 0.0, 2024-03-13 20:45:27.503
64.0, -701.8632847843692, -429.33677501324564, -1439.2182201482356, -553.9689410366118, 0.01600000075995922, -0.19200000911951065, 1.0400000493973494, 0.0, 0.0, 0.0, 0.0, 0.0, 1.7103879275040913E9, 0.0, 2024-03-13 20:45:27.504
64.0, -925.1633613887243, -377.89819102268666, -1204.7751116259024, -497.0140046114102, 0.01600000075995922, -0.19200000911951065, 1.0400000493973494, 0.0, 0.0, 0.0, 0.0, 0.0, 1.7103879275040913E9, 0.0, 2024-03-13 20:45:27.504
65.0, -779.9879249087535, -312.98848739173263, -1004.211756802164, -478.4603609312326, 0.01600000075995922, -0.19200000911951065, 1.0400000493973494, 0.0, 0.0, 0.0, 0.0, 0.0, 1.7103879275179613E9, 0.0, 2024-03-13 20:45:27.517
65.0, -650.8136503892019, -396.76224639918655, -873.246070203837, -542.8801376679912, 0.01600000075995922, -0.19200000911951065, 1.0400000493973494, 0.0, 0.0, 0.0, 0.0, 0.0, 1.7103879275179613E9, 0.0, 2024-03-13 20:45:27.517
66.0, -584.0190371805802, -607.8702491479926, -860.111541559454, -713.1222536009736, 0.01600000075995922, -0.19200000911951065, 1.0400000493973494, 0.0, 0.0, 0.0, 0.0, 0.0, 1.7103879275336082E9, 0.0, 2024-03-13 20:45:27.533
66.0, -754.3471708125435, -702.8356587728485, -1011.0969126205891, -857.0018147462979, 0.01600000075995922, -0.19200000911951065, 1.0400000493973494, 0.0, 0.0, 0.0, 0.0, 0.0, 1.7103879275336082E9, 0.0, 2024-03-13 20:45:27.533
67.0, -526.0618075672537, -739.7559511354193, -1240.6033532014117, -906.0880016647279, 0.01600000075995922, -0.19200000911951065, 1.0400000493973494, 0.0, 0.0, 0.0, 0.0, 0.0, 1.7103879275341947E9, 0.0, 2024-03-13 20:45:27.534
67.0, -710.0611454872414, -823.4324727440253, -1434.0721178092062, -924.3499331483617, 0.01600000075995922, -0.19200000911951065, 1.0400000493973494, 0.0, 0.0, 0.0, 0.0, 0.0, 1.7103879275341947E9, 0.0, 2024-03-13 20:45:27.534
