%OpenBCI Raw EXG Data
%Number of channels = 4
%Sample Rate = 200 Hz
%Board = OpenBCI_GUI$BoardGanglionBLE
Sample Index, EXG Channel 0, EXG Channel 1, EXG Channel 2, EXG Channel 3, Accel Channel 0, Accel Channel 1, Accel Channel 2, Other, Other, Other, Other, Other, Timestamp, Other, Timestamp (Formatted)
2.0, 14.810003824532032, 15.752458613365889, 15.038137721829116, 24.402847210876644, 0.6400000303983688, 0.0, 0.0, 0.0, 0.0, 0.0, 0.0, 0.0, 1.7103955525127728E9, 0.0, 2024-03-13 22:52:32.512
2.0, 0.6918814918026328, 8.84112349525094, 17.72338589001447, 18.50876488070935, 0.6400000303983688, 0.0, 0.0, 0.0, 0.0, 0.0, 0.0, 0.0, 1.7103955525127728E9, 0.0, 2024-03-13 22:52:32.512
3.0, 30.65222003683448, 31.508657126687467, 34.97554438561201, 37.597214254550636, 0.6400000303983688, 0.0, 0.0, 0.0, 0.0, 0.0, 0.0, 0.0, 1.710395552527267E9, 0.0, 2024-03-13 22:52:32.527
3.0, 15.27749131899327, 16.317183506675065, 11.23839936684817, 22.59647553227842, 0.6400000303983688, 0.0, 0.0, 0.0, 0.0, 0.0, 0.0, 0.0, 1.710395552527267E9, 0.0, 2024-03-13 22:52:32.527
4.0, 34.66513268928975, 33.27015000581741, 43.700730982236564, 50.03612150717527, 0.6400000303983688, 0.0, 0.0, 0.0, 0.0, 0.0, 0.0, 0.0, 1.7103955525281932E9, 0.0, 2024-03-13 22:52:32.528
4.0, 1.1182300867512822, 10.396921876817942, 17.6373681910336, 22.697452831082046, 0.6400000303983688, 0.0, 0.0, 0.0, 0.0, 0.0, 0.0, 0.0, 1.7103955525281932E9, 0.0, 2024-03-13 22:52:32.528
5.0, 42.021515902131796, 48.20357052888721, 47.13769904151559, 54.516521654091775, 0.6400000303983688, 0.0, 0.0, 0.0, 0.0, 0.0, 0.0, 0.0, 1.7103955525416265E9, 0.0, 2024-03-13 22:52:32.541
5.0, 29.74716424755752, 44.916198467835784, 41.86070020403713, 49.53123501315713, 0.6400000303983688, 0.0, 0.0, 0.0, 0.0, 0.0, 0.0, 0.0, 1.7103955525416265E9, 0.0, 2024-03-13 22:52:32.541
6.0, -5.24707963783294, 5.7332666320726275, 14.813743724487722, 15.595382815226912, 0.6400000303983688, 0.0, 0.0, 0.0, 0.0, 0.0, 0.0, 0.0, 1.7103955525572276E9, 0.0, 2024-03-13 22:52:32.557
6.0, 9.465686787851155, 26.055882991291583, 26.12694109044969, 36.10499417223036, 0.6400000303983688, 0.0, 0.0, 0.0, 0.0, 0.0, 0.0, 0.0, 1.7103955525572276E9, 0.0, 2024-03-13 22:52:32.557
7.0, 14.357475929893553, 24.032597115263343, 24.425286610610783, 32.98217770922929, 0.6400000303983688, 0.0, 0.0, 0.0, 0.0, 0.0, 0.0, 0.0, 1.710395552557976E9, 0.0, 2024-03-13 22:52:32.557
7.0, 11.444093864411116, 16.10026930924505, 24.61602150835097, 26.1979991896078, 0.6400000303983688, 0.0, 0.0, 0.0, 0.0, 0.0, 0.0, 0.0, 1.710395552557976E9, 0.0, 2024-03-13 22:52:32.557
8.0, 17.899161187931895, 23.841862217523158, 31.01125043258071, 33.44592530373484, 0.6400000303983688, 0.0, 0.0, 0.0, 0.0, 0.0, 0.0, 0.0, 1.7103955525714545E9, 0.0, 2024-03-13 22:52:32.571
8.0, 10.43058097641915, 20.94717965181917, 31.04490953218192, 30.880353934131563, 0.6400000303983688, 0.0, 0.0, 0.0, 0.0, 0.0, 0.0, 0.0, 1.7103955525714545E9, 0.0, 2024-03-13 22:52:32.571
9.0, 20.775144253857434, 21.855975341051817, 26.433612886816263, 29.642447048798203, 0.6400000303983688, 0.0, 0.0, 0.0, 0.0, 0.0, 0.0, 0.0, 1.7103955525871897E9, 0.0, 2024-03-13 22:52:32.587
9.0, 16.56027700379491, 30.98133123293519, 38.60698724258691, 43.01258939038962, 0.6400000303983688, 0.0, 0.0, 0.0, 0.0, 0.0, 0.0, 0.0, 1.7103955525871897E9, 0.0, 2024-03-13 22:52:32.587
10.0, -15.240092319436371, 8.86356289498508, 17.233458995819092, 25.274243900552392, 0.6400000303983688, 0.0, 0.3840000182390213, 0.0, 0.0, 0.0, 0.0, 0.0, 1.7103955525879948E9, 0.0, 2024-03-13 22:52:32.587
10.0, -4.876829542219639, 2.3860561717301607, 4.054051551967859, 14.140561732463539, 0.6400000303983688, 0.0, 0.3840000182390213, 0.0, 0.0, 0.0, 0.0, 0.0, 1.7103955525879948E9, 0.0, 2024-03-13 22:52:32.587
11.0, 1.286525584757328, 14.86236242391169, 19.982285463251173, 26.721585183404386, 0.6400000303983688, 0.7360000349581242, 0.3840000182390213, 0.0, 0.0, 0.0, 0.0, 0.0, 1.7103955526014764E9, 0.0, 2024-03-13 22:52:32.601
11.0, -5.067564439959824, 14.364955729804933, 5.916521729901433, 17.65232779085636, 0.6400000303983688, 0.7360000349581242, 0.3840000182390213, 0.0, 0.0, 0.0, 0.0, 0.0, 1.7103955526014764E9, 0.0, 2024-03-13 22:52:32.601
12.0, 9.23007309064269, 27.155413578264415, 13.882508635520935, 28.729911459609866, 0.6400000303983688, 0.7360000349581242, 0.3840000182390213, 0.0, 0.0, 0.0, 0.0, 0.0, 1.7103955526172042E9, 0.0, 2024-03-13 22:52:32.617
12.0, 9.865856083109975, 33.38234700448811, 25.173266601748765, 30.824255434796214, 0.6400000303983688, 0.7360000349581242, 0.3840000182390213, 0.0, 0.0, 0.0, 0.0, 0.0, 1.7103955526172042E9, 0.0, 2024-03-13 22:52:32.617
13.0, 27.118014578707516, 51.91729118488729, 47.03298184275627, 48.03527503088117, 0.6400000303983688, 0.7360000349581242, 0.3840000182390213, 0.0, 0.0, 0.0, 0.0, 0.0, 1.7103955526179955E9, 0.0, 2024-03-13 22:52:32.617
13.0, 37.3503808574751, 52.58673327695578, 35.77214307617396, 50.77288179844618, 0.6400000303983688, 0.7360000349581242, 0.3840000182390213, 0.0, 0.0, 0.0, 0.0, 0.0, 1.7103955526179955E9, 0.0, 2024-03-13 22:52:32.617
14.0, 40.37595992162824, 44.79278176929802, 46.3934589503333, 43.04250859003514, 0.6400000303983688, 0.7360000349581242, 0.3840000182390213, 0.0, 0.0, 0.0, 0.0, 0.0, 1.7103955526314936E9, 0.0, 2024-03-13 22:52:32.631
14.0, 16.92304729949683, 34.033089596778154, 53.323493568226695, 46.67769134696573, 0.6400000303983688, 0.7360000349581242, 0.3840000182390213, 0.0, 0.0, 0.0, 0.0, 0.0, 1.7103955526314936E9, 0.0, 2024-03-13 22:52:32.631
15.0, -11.29075796622783, 9.63024238590151, 11.488972663879395, 22.420700234360993, 0.6400000303983688, 0.7360000349581242, 0.3840000182390213, 0.0, 0.0, 0.0, 0.0, 0.0, 1.7103955526478715E9, 0.0, 2024-03-13 22:52:32.647
15.0, 32.2753366176039, 46.7263100463897, 47.93429773207754, 58.45463630743325, 0.6400000303983688, 0.7360000349581242, 0.3840000182390213, 0.0, 0.0, 0.0, 0.0, 0.0, 1.7103955526478715E9, 0.0, 2024-03-13 22:52:32.647
16.0, 44.54220847226679, 52.75128887500614, 52.078106882981956, 53.49178906623274, 0.6400000303983688, 0.7360000349581242, 0.3840000182390213, 0.0, 0.0, 0.0, 0.0, 0.0, 1.710395552647954E9, 0.0, 2024-03-13 22:52:32.647
16.0, -5.763185831718147, 10.176267779432237, -5.542531734332442, 5.205940738320351, 0.6400000303983688, 0.7360000349581242, 0.3840000182390213, 0.0, 0.0, 0.0, 0.0, 0.0, 1.710395552647954E9, 0.0, 2024-03-13 22:52:32.647
17.0, 11.103762968443334, 24.847895305603743, 20.786363953724504, 26.785163482651114, 0.6400000303983688, 0.7360000349581242, 0.3840000182390213, 0.0, 0.0, 0.0, 0.0, 0.0, 1.710395552662014E9, 0.0, 2024-03-13 22:52:32.662
17.0, 10.8569295713678, 25.838968793861568, 38.008603249676526, 36.441585168242455, 0.6400000303983688, 0.7360000349581242, 0.3840000182390213, 0.0, 0.0, 0.0, 0.0, 0.0, 1.710395552662014E9, 0.0, 2024-03-13 22:52:32.662
18.0, -21.66898034326732, -3.6875413563102484, 0.9910734882578254, -0.9162754891440272, 0.6400000303983688, 0.7360000349581242, 0.3840000182390213, 0.0, 0.0, 0.0, 0.0, 0.0, 1.7103955526775796E9, 0.0, 2024-03-13 22:52:32.677
18.0, -21.953212739899755, -3.5940438574180007, -5.422854935750365, 1.8998691774904728, 0.6400000303983688, 0.7360000349581242, 0.3840000182390213, 0.0, 0.0, 0.0, 0.0, 0.0, 1.7103955526775796E9, 0.0, 2024-03-13 22:52:32.677
19.0, 3.829657554626465, 15.31489031855017, 26.033443591557443, 25.71929199527949, 0.6400000303983688, 0.7360000349581242, 0.3840000182390213, 0.0, 0.0, 0.0, 0.0, 0.0, 1.71039555269263E9, 0.0, 2024-03-13 22:52:32.692
19.0, -2.2289803735911846, 11.507672163657844, 33.87975369859487, 21.953212739899755, 0.6400000303983688, 0.7360000349581242, 0.3840000182390213, 0.0, 0.0, 0.0, 0.0, 0.0, 1.71039555269263E9, 0.0, 2024-03-13 22:52:32.692
20.0, 9.125355891883373, 16.807110400870442, 20.707826054655015, 27.862254669889808, 0.6400000303983688, 0.7360000349581242, 0.3840000182390213, 0.0, 0.0, 0.0, 0.0, 0.0, 1.710395552692978E9, 0.0, 2024-03-13 22:52:32.692
20.0, 12.394028453156352, 13.740392437204719, 15.228872619569302, 20.431073457933962, 0.6400000303983688, 0.7360000349581242, 0.3840000182390213, 0.0, 0.0, 0.0, 0.0, 0.0, 1.710395552692978E9, 0.0, 2024-03-13 22:52:32.692
21.0, -16.05165060982108, -4.469180447049439, 25.558476297184825, 13.530958039686084, 0.6400000303983688, 0.7360000349581242, 0.3840000182390213, 0.0, 0.0, 0.0, 0.0, 0.0, 1.7103955527072031E9, 0.0, 2024-03-13 22:52:32.707
21.0, -18.015098086558282, -2.3449172722175717, 5.460253935307264, 10.47919967584312, 0.6400000303983688, 0.7360000349581242, 0.3840000182390213, 0.0, 0.0, 0.0, 0.0, 0.0, 1.7103955527072031E9, 0.0, 2024-03-13 22:52:32.707
22.0, -13.766571736894548, -1.0359522877261043, 3.6912812562659383, 9.162754891440272, 0.6400000303983688, 0.7360000349581242, 0.3840000182390213, 0.0, 0.0, 0.0, 0.0, 0.0, 1.7103955527079391E9, 0.0, 2024-03-13 22:52:32.707
22.0, -24.731958406977355, -4.693574444390833, 9.211373590864241, 8.968280093744397, 0.6400000303983688, 0.7360000349581242, 0.3840000182390213, 0.0, 0.0, 0.0, 0.0, 0.0, 1.7103955527079391E9, 0.0, 2024-03-13 22:52:32.707
23.0, 19.181946872733533, 38.32275484595448, 42.32070789858699, 46.21020385250449, 0.6400000303983688, 0.7360000349581242, 0.3840000182390213, 0.0, 0.0, 0.0, 0.0, 0.0, 1.7103955527214677E9, 0.0, 2024-03-13 22:52:32.721
23.0, 14.024624833837152, 25.35278179962188, 31.183285830542445, 34.72871098853648, 0.6400000303983688, 0.7360000349581242, 0.3840000182390213, 0.0, 0.0, 0.0, 0.0, 0.0, 1.7103955527214677E9, 0.0, 2024-03-13 22:52:32.721
24.0, 7.281585213728249, 16.83328970056027, 33.37112730462104, 27.275090376846492, 0.6400000303983688, 0.7360000349581242, 0.3840000182390213, 0.0, 0.0, 0.0, 0.0, 0.0, 1.7103955527371864E9, 0.0, 2024-03-13 22:52:32.737
24.0, -17.824363188818097, 1.0583916874602437, 15.655221214517951, 9.585363586433232, 0.6400000303983688, 0.7360000349581242, 0.3840000182390213, 0.0, 0.0, 0.0, 0.0, 0.0, 1.7103955527371864E9, 0.0, 2024-03-13 22:52:32.737
25.0, -19.3801615703851, -4.8169911429286, -1.7988918786868453, 3.908195453695953, 0.6400000303983688, 0.7360000349581242, 0.3840000182390213, 0.0, 0.0, 0.0, 0.0, 0.0, 1.710395552737966E9, 0.0, 2024-03-13 22:52:32.737
25.0, 0.3739899955689907, 13.26916504278779, 22.850788729265332, 23.76706421840936, 0.6400000303983688, 0.7360000349581242, 0.3840000182390213, 0.0, 0.0, 0.0, 0.0, 0.0, 1.710395552737966E9, 0.0, 2024-03-13 22:52:32.737
26.0, -22.394520934671164, 1.0172527879476547, 27.626640972681344, 16.07782990951091, 0.6400000303983688, 0.7360000349581242, 0.3840000182390213, 0.0, 0.0, 0.0, 0.0, 0.0, 1.7103955527516308E9, 0.0, 2024-03-13 22:52:32.751
26.0, -15.520584816113114, 1.529619081877172, 23.34071562346071, 16.5266179041937, 0.6400000303983688, 0.7360000349581242, 0.3840000182390213, 0.0, 0.0, 0.0, 0.0, 0.0, 1.7103955527516308E9, 0.0, 2024-03-13 22:52:32.751
27.0, -25.221885301172733, -2.778745667077601, -3.9642939530313015, 6.133435927331448, 0.6400000303983688, 0.7360000349581242, 0.3840000182390213, 0.0, 0.0, 0.0, 0.0, 0.0, 1.710395552767536E9, 0.0, 2024-03-13 22:52:32.767
27.0, -41.11646011285484, -17.461592893116176, -12.438907252624631, -13.747872237116098, 0.6400000303983688, 0.7360000349581242, 0.3840000182390213, 0.0, 0.0, 0.0, 0.0, 0.0, 1.710395552767536E9, 0.0, 2024-03-13 22:52:32.767
28.0, -25.154567101970315, -11.503932263702154, -8.669088097289205, -9.461946887895465, 0.6400000303983688, 0.7360000349581242, 0.3840000182390213, 0.0, 0.0, 0.0, 0.0, 0.0, 1.7103955527682104E9, 0.0, 2024-03-13 22:52:32.768
28.0, -28.16892646625638, -8.145502103492618, -7.951027305796742, -4.226086949929595, 0.6400000303983688, 0.7360000349581242, 0.3840000182390213, 0.0, 0.0, 0.0, 0.0, 0.0, 1.7103955527682104E9, 0.0, 2024-03-13 22:52:32.768
29.0, -1.7614928791299462, 8.82616389542818, 10.740992672741413, 9.499345887452364, 0.6400000303983688, 0.7360000349581242, 0.3840000182390213, 0.0, 0.0, 0.0, 0.0, 0.0, 1.7103955527818587E9, 0.0, 2024-03-13 22:52:32.781
29.0, -21.455806045792997, 5.018945740535855, 18.232012283988297, 12.04621775727719, 0.6400000303983688, 0.7360000349581242, 0.3840000182390213, 0.0, 0.0, 0.0, 0.0, 0.0, 1.7103955527818587E9, 0.0, 2024-03-13 22:52:32.781
30.0, 6.174574826844037, 21.186533248983324, 25.614574796520174, 30.861654434353113, 0.6400000303983688, 0.7360000349581242, 0.3840000182390213, 0.0, 0.0, 0.0, 0.0, 0.0, 1.7103955527972713E9, 0.0, 2024-03-13 22:52:32.797
30.0, -54.553920653648674, -28.61397456098348, -24.623501308262348, -19.821469765156507, 0.6400000303983688, 0.7360000349581242, 0.3840000182390213, 0.0, 0.0, 0.0, 0.0, 0.0, 1.7103955527972713E9, 0.0, 2024-03-13 22:52:32.797
31.0, -48.61869942396879, -23.41177372261882, 0.9611542886123061, -8.186641003005207, 0.6400000303983688, 0.7360000349581242, 0.3840000182390213, 0.0, 0.0, 0.0, 0.0, 0.0, 1.7103955527980444E9, 0.0, 2024-03-13 22:52:32.798
31.0, -17.940300087444484, 8.758845696225762, 25.573435897007585, 30.326848740689456, 0.6400000303983688, 0.7360000349581242, 0.3840000182390213, 0.0, 0.0, 0.0, 0.0, 0.0, 1.7103955527980444E9, 0.0, 2024-03-13 22:52:32.798
32.0, -20.408634058199823, 6.081077327951789, 14.735205825418234, 15.524324716068804, 0.6400000303983688, 0.7360000349581242, 0.3840000182390213, 0.0, 0.0, 0.0, 0.0, 0.0, 1.7103955528120227E9, 0.0, 2024-03-13 22:52:32.812
32.0, 10.49789917562157, 25.31164290010929, 30.809295834973454, 31.112227731384337, 0.6400000303983688, 0.7360000349581242, 0.3840000182390213, 0.0, 0.0, 0.0, 0.0, 0.0, 1.7103955528120227E9, 0.0, 2024-03-13 22:52:32.812
33.0, -23.609988420270383, -5.026425540447235, 9.016898793168366, 6.8215775191783905, 0.6400000303983688, 0.7360000349581242, 0.3840000182390213, 0.0, 0.0, 0.0, 0.0, 0.0, 1.7103955528276517E9, 0.0, 2024-03-13 22:52:32.827
33.0, 19.181946872733533, 32.51095031481236, 38.004863349720836, 41.39321270957589, 0.6400000303983688, 0.7360000349581242, 0.3840000182390213, 0.0, 0.0, 0.0, 0.0, 0.0, 1.7103955528276517E9, 0.0, 2024-03-13 22:52:32.827
34.0, 19.208126172423363, 35.41685258038342, 50.03986140713096, 45.323847563005984, 0.6400000303983688, 0.7360000349581242, 0.3840000182390213, 0.0, 0.0, 0.0, 0.0, 0.0, 1.7103955528281462E9, 0.0, 2024-03-13 22:52:32.828
34.0, -23.845602117478848, -5.62854943331331, 7.135729115456343, 4.214867250062525, 0.6400000303983688, 0.7360000349581242, 0.3840000182390213, 0.0, 0.0, 0.0, 0.0, 0.0, 1.7103955528281462E9, 0.0, 2024-03-13 22:52:32.828
35.0, -53.304794068448246, -27.82485567033291, -13.6730742380023, -10.711073473095894, 0.6400000303983688, 0.7360000349581242, 0.3840000182390213, 0.0, 0.0, 0.0, 0.0, 0.0, 1.7103955528415463E9, 0.0, 2024-03-13 22:52:32.841
35.0, -29.152520154602826, -3.7698191553354263, 6.713120420463383, 7.008572516962886, 0.6400000303983688, 0.7360000349581242, 0.3840000182390213, 0.0, 0.0, 0.0, 0.0, 0.0, 1.7103955528415463E9, 0.0, 2024-03-13 22:52:32.841
36.0, -14.372435529716313, 6.731819920241833, 25.102208502590656, 18.695759878493845, 0.6400000303983688, 0.7360000349581242, 0.3840000182390213, 0.0, 0.0, 0.0, 0.0, 0.0, 1.7103955528572285E9, 0.0, 2024-03-13 22:52:32.857
36.0, -28.258684065192938, -9.226333190687, 10.05659098085016, 5.871642930433154, 0.6400000303983688, 0.7360000349581242, 0.3840000182390213, 0.0, 0.0, 0.0, 0.0, 0.0, 1.7103955528572285E9, 0.0, 2024-03-13 22:52:32.857
37.0, -18.404047681950033, -3.186394762247801, 11.062624068930745, 7.158168515190482, 0.6400000303983688, 0.7360000349581242, 0.3840000182390213, 0.0, 0.0, 0.0, 0.0, 0.0, 1.7103955528579772E9, 0.0, 2024-03-13 22:52:32.857
37.0, -32.13696031924337, -15.6739207142964, -0.8564370898529887, -1.9372681770473719, 0.6400000303983688, 0.7360000349581242, 0.3840000182390213, 0.0, 0.0, 0.0, 0.0, 0.0, 1.7103955528579772E9, 0.0, 2024-03-13 22:52:32.857
38.0, -39.14553283620626, -31.680692524649203, -26.13068099040538, -26.49719118606299, 0.6400000303983688, 0.7360000349581242, 0.3840000182390213, 0.0, 0.0, 0.0, 0.0, 0.0, 1.7103955528714683E9, 0.0, 2024-03-13 22:52:32.871
38.0, -46.086787153966725, -23.916660216636956, -21.29873024765402, -18.213312784209847, 0.6400000303983688, 0.7360000349581242, 0.3840000182390213, 0.0, 0.0, 0.0, 0.0, 0.0, 1.7103955528714683E9, 0.0, 2024-03-13 22:52:32.871
39.0, -25.77165059465915, -0.6918814918026328, 24.11487491428852, 15.509365116246045, 0.6400000303983688, 0.7360000349581242, 0.3840000182390213, 0.0, 0.0, 0.0, 0.0, 0.0, 1.7103955528871636E9, 0.0, 2024-03-13 22:52:32.887
39.0, -16.178807208314538, -4.383162748068571, 9.054297792725265, 4.962847241200507, 0.6400000303983688, 0.7360000349581242, 0.3840000182390213, 0.0, 0.0, 0.0, 0.0, 0.0, 1.7103955528871636E9, 0.0, 2024-03-13 22:52:32.887
40.0, 1.0995305869728327, 10.553997674956918, 23.254697924479842, 21.033197350800037, 0.6400000303983688, 0.7360000349581242, 0.3680000174790621, 0.0, 0.0, 0.0, 0.0, 0.0, 1.7103955528878777E9, 0.0, 2024-03-13 22:52:32.887
40.0, -19.840169264934957, 1.1032704869285226, 11.803124260157347, 9.323570589534938, 0.6400000303983688, 0.7360000349581242, 0.3680000174790621, 0.0, 0.0, 0.0, 0.0, 0.0, 1.7103955528878777E9, 0.0, 2024-03-13 22:52:32.887
41.0, -0.6170834926888347, 10.396921876817942, 12.09483645670116, 14.608049226924777, 0.6400000303983688, 0.7360000349581242, 0.3680000174790621, 0.0, 0.0, 0.0, 0.0, 0.0, 1.7103955529021149E9, 0.0, 2024-03-13 22:52:32.902
41.0, -8.246479402296245, 0.80407849047333, 6.092297027818859, 13.572096939198673, 0.6400000303983688, 0.7360000349581242, 0.3680000174790621, 0.0, 0.0, 0.0, 0.0, 0.0, 1.7103955529021149E9, 0.0, 2024-03-13 22:52:32.902
42.0, -27.140453978441656, -5.254559437744319, 9.005679093301296, 11.717106561176479, 0.6560000311583281, 0.7360000349581242, 0.3680000174790621, 0.0, 0.0, 0.0, 0.0, 0.0, 1.7103955529172633E9, 0.0, 2024-03-13 22:52:32.917
42.0, -15.647741414606571, 1.8250711783766747, 29.40683335158974, 22.20378603693098, 0.6560000311583281, 0.7360000349581242, 0.3680000174790621, 0.0, 0.0, 0.0, 0.0, 0.0, 1.7103955529172633E9, 0.0, 2024-03-13 22:52:32.917
43.0, -17.001585198566318, 3.777298955246806, 29.676106148399413, 25.259284300729632, 0.6560000311583281, 0.7360000349581242, 0.3680000174790621, 0.0, 0.0, 0.0, 0.0, 0.0, 1.7103955529180317E9, 0.0, 2024-03-13 22:52:32.918
43.0, 5.823024231009185, 10.277245078235865, 13.104609444737434, 21.34734894707799, 0.6560000311583281, 0.7360000349581242, 0.3680000174790621, 0.0, 0.0, 0.0, 0.0, 0.0, 1.7103955529180317E9, 0.0, 2024-03-13 22:52:32.918
44.0, -1.9036090774461627, 16.829549800604582, 23.36315502319485, 25.094728702679276, 0.6560000311583281, 0.7360000349581242, 0.3680000174790621, 0.0, 0.0, 0.0, 0.0, 0.0, 1.7103955529317863E9, 0.0, 2024-03-13 22:52:32.931
44.0, -6.795398219488561, 6.8627164186909795, 28.288603264838457, 16.204986508004367, 0.6560000311583281, 0.7360000349581242, 0.3680000174790621, 0.0, 0.0, 0.0, 0.0, 0.0, 1.7103955529317863E9, 0.0, 2024-03-13 22:52:32.931
45.0, -0.13463639840483665, 13.512258539907634, 35.630026877857745, 29.642447048798203, 0.6560000311583281, 0.7360000349581242, 0.3680000174790621, 0.0, 0.0, 0.0, 0.0, 0.0, 1.7103955529471383E9, 0.0, 2024-03-13 22:52:32.947
45.0, -27.061916079372168, -3.62022315710783, 4.02039245236665, 8.119322803802788, 0.6560000311583281, 0.7360000349581242, 0.3680000174790621, 0.0, 0.0, 0.0, 0.0, 0.0, 1.7103955529471383E9, 0.0, 2024-03-13 22:52:32.947
46.0, -17.7495651897043, 2.086864175274968, 18.246971883811057, 15.198953419923782, 0.6560000311583281, 0.7360000349581242, 0.3680000174790621, 0.0, 0.0, 0.0, 0.0, 0.0, 1.7103955529479332E9, 0.0, 2024-03-13 22:52:32.947
46.0, -24.15227391384542, -2.371096571907401, 15.094236221164465, 13.28038474265486, 0.6560000311583281, 0.7360000349581242, 0.3680000174790621, 0.0, 0.0, 0.0, 0.0, 0.0, 1.7103955529479332E9, 0.0, 2024-03-13 22:52:32.947
47.0, -9.951873782090843, 8.560630998574197, 16.42938050534576, 20.367495158687234, 0.6560000311583281, 0.7360000349581242, 0.3680000174790621, 0.0, 0.0, 0.0, 0.0, 0.0, 1.7103955529614878E9, 0.0, 2024-03-13 22:52:32.961
47.0, -10.643755273893476, 5.688387832604349, 21.481985345482826, 16.384501705877483, 0.6560000311583281, 0.7360000349581242, 0.3680000174790621, 0.0, 0.0, 0.0, 0.0, 0.0, 1.7103955529614878E9, 0.0, 2024-03-13 22:52:32.961
48.0, -25.69311269558966, -4.944147741422057, 0.923755289055407, 2.124263174831867, 0.6560000311583281, 0.7360000349581242, 0.3680000174790621, 0.0, 0.0, 0.0, 0.0, 0.0, 1.710395552977638E9, 0.0, 2024-03-13 22:52:32.977
48.0, -0.28049249667674303, 17.510211592540145, 22.660053831525147, 26.09328199084848, 0.6560000311583281, 0.7360000349581242, 0.3680000174790621, 0.0, 0.0, 0.0, 0.0, 0.0, 1.710395552977638E9, 0.0, 2024-03-13 22:52:32.977
49.0, 2.6366294687613845, 8.814944195561111, 17.839322788640857, 13.68055403791368, 0.6560000311583281, 0.7360000349581242, 0.3680000174790621, 0.0, 0.0, 0.0, 0.0, 0.0, 1.7103955529781058E9, 0.0, 2024-03-13 22:52:32.978
49.0, -35.54026927892119, -16.03669100999832, 15.419607517309487, 2.7600461672991514, 0.6560000311583281, 0.7360000349581242, 0.3680000174790621, 0.0, 0.0, 0.0, 0.0, 0.0, 1.7103955529781058E9, 0.0, 2024-03-13 22:52:32.978
50.0, -25.049849903210998, -5.920261629857123, -6.645802221260965, 0.4861869942396879, 0.6560000311583281, 0.7360000349581242, 0.3680000174790621, 0.0, 0.0, 0.0, 0.0, 0.0, 1.7103955529914594E9, 0.0, 2024-03-13 22:52:32.991
50.0, -9.357229689136147, 17.487772192806005, 22.671273531392217, 26.747764483094215, 0.6560000311583281, 0.7360000349581242, 0.3680000174790621, 0.0, 0.0, 0.0, 0.0, 0.0, 1.7103955529914594E9, 0.0, 2024-03-13 22:52:32.991
51.0, -0.8489572899416089, 20.401154258288443, 37.76550975255668, 35.06530198454857, 0.6560000311583281, 0.7360000349581242, 0.3680000174790621, 0.0, 0.0, 0.0, 0.0, 0.0, 1.710395553007138E9, 0.0, 2024-03-13 22:52:33.007
51.0, -14.87358212377876, 0.2505732970312238, -4.749672943726182, 1.7614928791299462, 0.6560000311583281, 0.7360000349581242, 0.3680000174790621, 0.0, 0.0, 0.0, 0.0, 0.0, 1.710395553007138E9, 0.0, 2024-03-13 22:52:33.007
52.0, -21.79613694176078, 0.45626779459416866, 8.362416300922632, 11.085063468664885, 0.6400000303983688, 0.7360000349581242, 0.3680000174790621, 0.0, 0.0, 0.0, 0.0, 0.0, 1.7103955530079372E9, 0.0, 2024-03-13 22:52:33.007
52.0, -33.154213107191026, -5.1311427392065525, 23.976498615927994, 21.126694849692285, 0.6400000303983688, 0.7360000349581242, 0.3680000174790621, 0.0, 0.0, 0.0, 0.0, 0.0, 1.7103955530079372E9, 0.0, 2024-03-13 22:52:33.007
53.0, 5.778145431540906, 21.594182344153523, 36.415405868552625, 38.15445934794843, 0.6400000303983688, 0.7360000349581242, 0.3680000174790621, 0.0, 0.0, 0.0, 0.0, 0.0, 1.710395553021758E9, 0.0, 2024-03-13 22:52:33.021
53.0, 4.229826849885285, 11.100023068487644, 4.82073104288429, 21.80361674167216, 0.6400000303983688, 0.7360000349581242, 0.3680000174790621, 0.0, 0.0, 0.0, 0.0, 0.0, 1.710395553021758E9, 0.0, 2024-03-13 22:52:33.021
54.0, -9.533004987053573, 8.287618301808834, 23.961539016105235, 23.550150020979345, 0.6400000303983688, 0.7360000349581242, 0.3680000174790621, 0.0, 0.0, 0.0, 0.0, 0.0, 1.7103955530369732E9, 0.0, 2024-03-13 22:52:33.036
54.0, -11.100023068487644, -3.186394762247801, 10.662454773671925, 10.04911118093878, 0.6400000303983688, 0.7360000349581242, 0.3680000174790621, 0.0, 0.0, 0.0, 0.0, 0.0, 1.7103955530369732E9, 0.0, 2024-03-13 22:52:33.036
55.0, -5.030165440402925, 7.831350507214665, 13.422500940971076, 18.430226981639862, 0.6400000303983688, 0.7360000349581242, 0.3680000174790621, 0.0, 0.0, 0.0, 0.0, 0.0, 1.7103955530521412E9, 0.0, 2024-03-13 22:52:33.052
55.0, 11.975159658119082, 23.879261217080057, 25.835228893905878, 30.96263173315674, 0.6400000303983688, 0.7360000349581242, 0.3680000174790621, 0.0, 0.0, 0.0, 0.0, 0.0, 1.7103955530521412E9, 0.0, 2024-03-13 22:52:33.052
56.0, 22.712412430904806, 30.027656744234264, 43.50999608449638, 40.54425541963428, 0.6400000303983688, 0.7360000349581242, 0.3680000174790621, 0.0, 0.0, 0.0, 0.0, 0.0, 1.710395553052918E9, 0.0, 2024-03-13 22:52:33.052
56.0, -21.822316241450608, 1.084570987150073, 1.2528664851561189, 12.341669853776693, 0.6400000303983688, 0.7360000349581242, 0.3680000174790621, 0.0, 0.0, 0.0, 0.0, 0.0, 1.710395553052918E9, 0.0, 2024-03-13 22:52:33.052
57.0, 0.6395228924229741, 22.55159673281014, 20.853682152926922, 31.250604029744864, 0.6400000303983688, 0.7360000349581242, 0.3680000174790621, 0.0, 0.0, 0.0, 0.0, 0.0, 1.710395553067576E9, 0.0, 2024-03-13 22:52:33.067
57.0, 40.54799531958997, 54.60627925302833, 60.33206608518958, 62.32169286161661, 0.6400000303983688, 0.7360000349581242, 0.3680000174790621, 0.0, 0.0, 0.0, 0.0, 0.0, 1.710395553067576E9, 0.0, 2024-03-13 22:52:33.067
58.0, 33.26267020590603, 58.46585600730032, 73.81814532540739, 75.24678710848093, 0.6400000303983688, 0.7360000349581242, 0.3680000174790621, 0.0, 0.0, 0.0, 0.0, 0.0, 1.710395553068173E9, 0.0, 2024-03-13 22:52:33.068
58.0, 17.442893393337727, 34.20886489469558, 31.572235425934196, 46.96192374359816, 0.6400000303983688, 0.7360000349581242, 0.3680000174790621, 0.0, 0.0, 0.0, 0.0, 0.0, 1.710395553068173E9, 0.0, 2024-03-13 22:52:33.068
59.0, 3.855836854316294, 24.058776414953172, 25.77913039457053, 39.32878793403506, 0.6400000303983688, 0.7360000349581242, 0.3680000174790621, 0.0, 0.0, 0.0, 0.0, 0.0, 1.7103955530980177E9, 0.0, 2024-03-13 22:52:33.098
59.0, -24.94887260440737, -4.3682031482458115, 3.9717737529426813, 11.406694864854217, 0.6400000303983688, 0.7360000349581242, 0.3680000174790621, 0.0, 0.0, 0.0, 0.0, 0.0, 1.7103955530980177E9, 0.0, 2024-03-13 22:52:33.098
60.0, -5.1722816387191415, 11.896621759049594, 0.19821469765156507, 17.203539796173573, 0.6400000303983688, 0.7360000349581242, 0.3680000174790621, 0.0, 0.0, 0.0, 0.0, 0.0, 1.710395553098576E9, 0.0, 2024-03-13 22:52:33.098
60.0, -1.1107502868399024, 14.409834529273212, 15.25879181921482, 19.2679645717144, 0.6400000303983688, 0.7360000349581242, 0.3680000174790621, 0.0, 0.0, 0.0, 0.0, 0.0, 1.710395553098576E9, 0.0, 2024-03-13 22:52:33.098
61.0, -10.632535574026406, 8.224040002562106, 19.514797968789935, 22.07288953848183, 0.6400000303983688, 0.7360000349581242, 0.3680000174790621, 0.0, 0.0, 0.0, 0.0, 0.0, 1.7103955530993235E9, 0.0, 2024-03-13 22:52:33.099
61.0, 25.266764100641012, 34.52675639092922, 41.628826406784356, 47.97543663159013, 0.6400000303983688, 0.7360000349581242, 0.3680000174790621, 0.0, 0.0, 0.0, 0.0, 0.0, 1.7103955530993235E9, 0.0, 2024-03-13 22:52:33.099
62.0, 8.411035000346601, 24.10739511437714, 12.169634455814958, 28.326002264395356, 0.6400000303983688, 0.7360000349581242, 0.3680000174790621, 0.0, 0.0, 0.0, 0.0, 0.0, 1.7103955531115222E9, 0.0, 2024-03-13 22:52:33.111
62.0, 14.91098112333566, 25.240584800951183, 25.34904189966619, 31.512397026643157, 0.6400000303983688, 0.7360000349581242, 0.3680000174790621, 0.0, 0.0, 0.0, 0.0, 0.0, 1.7103955531115222E9, 0.0, 2024-03-13 22:52:33.111
63.0, 20.318876459263265, 38.91365903895348, 41.72980370558798, 43.236983387731016, 0.6400000303983688, 0.7360000349581242, 0.3680000174790621, 0.0, 0.0, 0.0, 0.0, 0.0, 1.710395553127221E9, 0.0, 2024-03-13 22:52:33.127
63.0, -6.002539428882301, 23.142500925809145, 15.535544415935874, 28.59527506120503, 0.6400000303983688, 0.7360000349581242, 0.3680000174790621, 0.0, 0.0, 0.0, 0.0, 0.0, 1.710395553127221E9, 0.0, 2024-03-13 22:52:33.127
64.0, 5.512612534686923, 17.66728739067912, 11.761985360644758, 25.263024200685322, 0.6400000303983688, 0.7360000349581242, 0.3680000174790621, 0.0, 0.0, 0.0, 0.0, 0.0, 1.710395553128028E9, 0.0, 2024-03-13 22:52:33.128
64.0, 37.47005765605718, 36.766956464387476, 22.312243135645986, 26.99833778012544, 0.6400000303983688, 0.7360000349581242, 0.3680000174790621, 0.0, 0.0, 0.0, 0.0, 0.0, 1.710395553128028E9, 0.0, 2024-03-13 22:52:33.128
65.0, 42.96397069096565, 56.0274412361905, 39.76261632889509, 55.328079944476485, 0.6400000303983688, 0.7360000349581242, 0.3680000174790621, 0.0, 0.0, 0.0, 0.0, 0.0, 1.710395553141538E9, 0.0, 2024-03-13 22:52:33.141
65.0, 55.14482484664768, 70.02962667029351, 74.667102615349, 83.58302410971373, 0.6400000303983688, 0.7360000349581242, 0.3680000174790621, 0.0, 0.0, 0.0, 0.0, 0.0, 1.710395553141538E9, 0.0, 2024-03-13 22:52:33.141
66.0, 34.059268896467984, 40.409619021229446, 43.711950682103634, 47.88941893260926, 0.6400000303983688, 0.7360000349581242, 0.3680000174790621, 0.0, 0.0, 0.0, 0.0, 0.0, 1.7103955531572173E9, 0.0, 2024-03-13 22:52:33.157
66.0, -0.23935359716415405, 5.475213535130024, 5.351796836592257, 13.6730742380023, 0.6400000303983688, 0.7360000349581242, 0.3680000174790621, 0.0, 0.0, 0.0, 0.0, 0.0, 1.7103955531572173E9, 0.0, 2024-03-13 22:52:33.157
67.0, 44.58708727173507, 48.26714882813394, 29.885540545918047, 46.127926053479314, 0.6400000303983688, 0.7360000349581242, 0.3680000174790621, 0.0, 0.0, 0.0, 0.0, 0.0, 1.7103955531579778E9, 0.0, 2024-03-13 22:52:33.157
67.0, 30.102454743348062, 45.38368596229702, 45.282708663493395, 50.18197760544717, 0.6400000303983688, 0.7360000349581242, 0.3680000174790621, 0.0, 0.0, 0.0, 0.0, 0.0, 1.7103955531579778E9, 0.0, 2024-03-13 22:52:33.157
68.0, 15.075536721386015, 28.56161596160382, 38.405032644979656, 35.199938382953405, 0.6400000303983688, 0.7360000349581242, 0.3680000174790621, 0.0, 0.0, 0.0, 0.0, 0.0, 1.710395553171552E9, 0.0, 2024-03-13 22:52:33.171
68.0, 23.052743326872587, 34.47065789159387, 32.53712961450219, 35.35701418109238, 0.6400000303983688, 0.7360000349581242, 0.3680000174790621, 0.0, 0.0, 0.0, 0.0, 0.0, 1.710395553171552E9, 0.0, 2024-03-13 22:52:33.171
69.0, 42.58250089548528, 48.7645555222407, 35.229857582598925, 47.43689103797078, 0.6400000303983688, 0.7360000349581242, 0.3680000174790621, 0.0, 0.0, 0.0, 0.0, 0.0, 1.71039555318718E9, 0.0, 2024-03-13 22:52:33.187
69.0, 48.25966902822256, 47.62762593571097, 26.51589068584144, 36.29946896992624, 0.6400000303983688, 0.7360000349581242, 0.3680000174790621, 0.0, 0.0, 0.0, 0.0, 0.0, 1.71039555318718E9, 0.0, 2024-03-13 22:52:33.187
70.0, 34.051789096556604, 40.390919521450996, 31.546056126244366, 42.840553992427886, 0.6400000303983688, 0.7360000349581242, 0.3840000182390213, 0.0, 0.0, 0.0, 0.0, 0.0, 1.7103955531879408E9, 0.0, 2024-03-13 22:52:33.187
70.0, 37.271842958405614, 44.96481716725975, 42.892912591807544, 54.146271558478475, 0.6400000303983688, 0.7360000349581242, 0.3840000182390213, 0.0, 0.0, 0.0, 0.0, 0.0, 1.7103955531879408E9, 0.0, 2024-03-13 22:52:33.187
71.0, 14.832443224266171, 29.83318194653839, 48.97772981971502, 39.7962754284963, 0.6400000303983688, 0.7360000349581242, 0.3840000182390213, 0.0, 0.0, 0.0, 0.0, 0.0, 1.7103955532019355E9, 0.0, 2024-03-13 22:52:33.201
71.0, 28.655113460496068, 33.89471329841763, 30.779376635327935, 36.452804868109524, 0.6400000303983688, 0.7360000349581242, 0.3840000182390213, 0.0, 0.0, 0.0, 0.0, 0.0, 1.7103955532019355E9, 0.0, 2024-03-13 22:52:33.201
72.0, 33.07567520812154, 42.14493260066956, 48.6149595240131, 46.75996914599091, 0.6400000303983688, 0.7360000349581242, 0.3840000182390213, 0.0, 0.0, 0.0, 0.0, 0.0, 1.710395553217281E9, 0.0, 2024-03-13 22:52:33.217
72.0, 21.897114240564406, 34.26496339403093, 26.467271986417472, 36.22841087076813, 0.6400000303983688, 0.7360000349581242, 0.3840000182390213, 0.0, 0.0, 0.0, 0.0, 0.0, 1.710395553217281E9, 0.0, 2024-03-13 22:52:33.217
73.0, 69.03481328208, 62.82283945567906, 55.18222384620458, 57.98340891301632, 0.6400000303983688, 0.7360000349581242, 0.3840000182390213, 0.0, 0.0, 0.0, 0.0, 0.0, 1.7103955532183895E9, 0.0, 2024-03-13 22:52:33.218
73.0, 27.993151168338954, 41.56150820758194, 41.86444010399282, 49.695790611207485, 0.6400000303983688, 0.7360000349581242, 0.3840000182390213, 0.0, 0.0, 0.0, 0.0, 0.0, 1.7103955532183895E9, 0.0, 2024-03-13 22:52:33.218
74.0, -10.823270471766591, 4.43926124740392, 11.788164660334587, 14.600569427013397, 0.6400000303983688, 0.7360000349581242, 0.3840000182390213, 0.0, 0.0, 0.0, 0.0, 0.0, 1.7103955532481897E9, 0.0, 2024-03-13 22:52:33.248
74.0, 26.19051938969642, 28.023070367984474, 33.184132306836545, 34.92318578623235, 0.6400000303983688, 0.7360000349581242, 0.3840000182390213, 0.0, 0.0, 0.0, 0.0, 0.0, 1.7103955532481897E9, 0.0, 2024-03-13 22:52:33.248
75.0, 16.13018850889057, 20.96587915159762, 12.45386685244739, 23.093882226385176, 0.6400000303983688, 0.7360000349581242, 0.3840000182390213, 0.0, 0.0, 0.0, 0.0, 0.0, 1.7103955532487056E9, 0.0, 2024-03-13 22:52:33.248
75.0, 26.676706383936107, 23.27339742425829, 21.208972648717463, 26.14564059022814, 0.6400000303983688, 0.7360000349581242, 0.3840000182390213, 0.0, 0.0, 0.0, 0.0, 0.0, 1.7103955532487056E9, 0.0, 2024-03-13 22:52:33.248
76.0, 30.827995334751904, 34.22756439447403, 39.54570213146508, 39.287649034522474, 0.6400000303983688, 0.7360000349581242, 0.3840000182390213, 0.0, 0.0, 0.0, 0.0, 0.0, 1.7103955532493885E9, 0.0, 2024-03-13 22:52:33.249
76.0, 17.225979195907712, 31.957445121370256, 34.048049196600914, 43.50999608449638, 0.6400000303983688, 0.7360000349581242, 0.3840000182390213, 0.0, 0.0, 0.0, 0.0, 0.0, 1.7103955532493885E9, 0.0, 2024-03-13 22:52:33.249
77.0, 36.841754463501275, 47.96047703176737, 46.9469641437754, 53.43569056689739, 0.6400000303983688, 0.7360000349581242, 0.3840000182390213, 0.0, 0.0, 0.0, 0.0, 0.0, 1.7103955532619233E9, 0.0, 2024-03-13 22:52:33.261
77.0, 7.333943813107908, 14.312597130425274, 23.217298924922943, 19.832689465023577, 0.6400000303983688, 0.7360000349581242, 0.3840000182390213, 0.0, 0.0, 0.0, 0.0, 0.0, 1.7103955532619233E9, 0.0, 2024-03-13 22:52:33.261
78.0, 46.887125744484365, 41.01548281405121, 46.471996849402785, 44.35895337443799, 0.6400000303983688, 0.7360000349581242, 0.3840000182390213, 0.0, 0.0, 0.0, 0.0, 0.0, 1.710395553277178E9, 0.0, 2024-03-13 22:52:33.277
78.0, 38.15445934794843, 32.59322811383754, 23.209819125011563, 32.92233930993825, 0.6400000303983688, 0.7360000349581242, 0.3840000182390213, 0.0, 0.0, 0.0, 0.0, 0.0, 1.710395553277178E9, 0.0, 2024-03-13 22:52:33.277
79.0, 24.649680607952178, 23.69974601920694, 31.250604029744864, 32.09208151977509, 0.6400000303983688, 0.7360000349581242, 0.3840000182390213, 0.0, 0.0, 0.0, 0.0, 0.0, 1.7103955532778852E9, 0.0, 2024-03-13 22:52:33.277
79.0, 15.647741414606571, 21.205232748761773, 35.72352437674999, 30.12863404303789, 0.6400000303983688, 0.7360000349581242, 0.3840000182390213, 0.0, 0.0, 0.0, 0.0, 0.0, 1.7103955532778852E9, 0.0, 2024-03-13 22:52:33.277
80.0, 41.15759901236743, 43.32300108671188, 52.30250088032335, 49.42651781439781, 0.6400000303983688, 0.7360000349581242, 0.3840000182390213, 0.0, 0.0, 0.0, 0.0, 0.0, 1.7103955533078818E9, 0.0, 2024-03-13 22:52:33.307
80.0, 33.87601379863918, 40.435798320919275, 57.63185831718147, 55.96386293694377, 0.6400000303983688, 0.7360000349581242, 0.3840000182390213, 0.0, 0.0, 0.0, 0.0, 0.0, 1.7103955533078818E9, 0.0, 2024-03-13 22:52:33.307
81.0, 21.145394349470735, 26.10824159067124, 43.020069190301, 36.6098806662485, 0.6400000303983688, 0.7360000349581242, 0.3840000182390213, 0.0, 0.0, 0.0, 0.0, 0.0, 1.710395553308624E9, 0.0, 2024-03-13 22:52:33.308
81.0, 46.95070404373109, 52.26510188076645, 41.78216230496764, 45.278968763537705, 0.6400000303983688, 0.7360000349581242, 0.3840000182390213, 0.0, 0.0, 0.0, 0.0, 0.0, 1.710395553308624E9, 0.0, 2024-03-13 22:52:33.308
82.0, 28.082908767275512, 30.749457435682416, 31.81906882300973, 37.15216615982354, 0.6400000303983688, 0.7360000349581242, 0.3840000182390213, 0.0, 0.0, 0.0, 0.0, 0.0, 1.7103955533093643E9, 0.0, 2024-03-13 22:52:33.309
82.0, 37.93380525056273, 46.20272405259311, 68.57854548748583, 61.66721036937088, 0.6400000303983688, 0.7360000349581242, 0.3840000182390213, 0.0, 0.0, 0.0, 0.0, 0.0, 1.7103955533093643E9, 0.0, 2024-03-13 22:52:33.309
83.0, 11.100023068487644, 23.29583682399243, 27.069395879283547, 30.689619036391377, 0.6400000303983688, 0.7360000349581242, 0.3840000182390213, 0.0, 0.0, 0.0, 0.0, 0.0, 1.710395553321699E9, 0.0, 2024-03-13 22:52:33.321
83.0, 20.87986145261675, 32.417452815920115, 28.9767448566854, 38.14323964808136, 0.6400000303983688, 0.7360000349581242, 0.3840000182390213, 0.0, 0.0, 0.0, 0.0, 0.0, 1.710395553321699E9, 0.0, 2024-03-13 22:52:33.321
84.0, 39.631719830445945, 46.33362055104226, 60.40312418434769, 58.903424302116036, 0.6400000303983688, 0.7360000349581242, 0.3840000182390213, 0.0, 0.0, 0.0, 0.0, 0.0, 1.710395553337206E9, 0.0, 2024-03-13 22:52:33.337
84.0, 31.0149903325364, 38.046002249233425, 51.78265478648245, 44.38513267412782, 0.6400000303983688, 0.7360000349581242, 0.3840000182390213, 0.0, 0.0, 0.0, 0.0, 0.0, 1.710395553337206E9, 0.0, 2024-03-13 22:52:33.337
85.0, 39.06325503718108, 47.63136583566666, 48.59252012427896, 54.99896874837577, 0.6400000303983688, 0.7360000349581242, 0.3840000182390213, 0.0, 0.0, 0.0, 0.0, 0.0, 1.7103955533379726E9, 0.0, 2024-03-13 22:52:33.337
85.0, 35.211158082820475, 40.058068425394595, 50.907518196851015, 48.61869942396879, 0.6400000303983688, 0.7360000349581242, 0.3840000182390213, 0.0, 0.0, 0.0, 0.0, 0.0, 1.7103955533379726E9, 0.0, 2024-03-13 22:52:33.337
86.0, 63.16317035164684, 56.177037234418094, 62.44510956015438, 56.71932272799313, 0.6400000303983688, 0.7360000349581242, 0.3840000182390213, 0.0, 0.0, 0.0, 0.0, 0.0, 1.710395553351484E9, 0.0, 2024-03-13 22:52:33.351
86.0, 42.9826701907441, 50.69434389937669, 61.64103106968105, 58.47707570716739, 0.6400000303983688, 0.7360000349581242, 0.3840000182390213, 0.0, 0.0, 0.0, 0.0, 0.0, 1.710395553351484E9, 0.0, 2024-03-13 22:52:33.351
87.0, 11.754505560733378, 18.770557877607644, 22.17012693732977, 29.290896452963352, 0.6400000303983688, 0.7360000349581242, 0.3840000182390213, 0.0, 0.0, 0.0, 0.0, 0.0, 1.7103955533671908E9, 0.0, 2024-03-13 22:52:33.367
87.0, 21.156614049337804, 28.729911459609866, 44.3178144749254, 34.369680592790246, 0.6400000303983688, 0.7360000349581242, 0.3840000182390213, 0.0, 0.0, 0.0, 0.0, 0.0, 1.7103955533671908E9, 0.0, 2024-03-13 22:52:33.367
88.0, 48.74959592241794, 46.442077649757266, 47.54534813668579, 44.6880645705387, 0.6400000303983688, 0.7360000349581242, 0.3840000182390213, 0.0, 0.0, 0.0, 0.0, 0.0, 1.7103955533679388E9, 0.0, 2024-03-13 22:52:33.367
88.0, 41.00052321422845, 45.75393605791032, 50.907518196851015, 52.85974597372115, 0.6400000303983688, 0.7360000349581242, 0.3840000182390213, 0.0, 0.0, 0.0, 0.0, 0.0, 1.7103955533679388E9, 0.0, 2024-03-13 22:52:33.367
89.0, 39.36244703363627, 41.16133891232312, 51.0234550954774, 45.17425156477839, 0.6400000303983688, 0.7360000349581242, 0.3840000182390213, 0.0, 0.0, 0.0, 0.0, 0.0, 1.710395553382118E9, 0.0, 2024-03-13 22:52:33.382
89.0, 23.030303927138448, 30.61108113732189, 52.28754128050059, 42.73583679366857, 0.6400000303983688, 0.7360000349581242, 0.3840000182390213, 0.0, 0.0, 0.0, 0.0, 0.0, 1.710395553382118E9, 0.0, 2024-03-13 22:52:33.382
90.0, 2.5057329703122377, 24.735698306933045, 45.38368596229702, 41.247356611303985, 0.6400000303983688, 0.7360000349581242, 0.3840000182390213, 0.0, 0.0, 0.0, 0.0, 0.0, 1.7103955533971808E9, 0.0, 2024-03-13 22:52:33.397
90.0, 23.658607119694352, 35.08774138428271, 48.78699492197484, 45.48092336114496, 0.6400000303983688, 0.7360000349581242, 0.3840000182390213, 0.0, 0.0, 0.0, 0.0, 0.0, 1.7103955533971808E9, 0.0, 2024-03-13 22:52:33.397
91.0, 36.22093107085675, 40.420838721096516, 62.44510956015438, 51.692897187545896, 0.6400000303983688, 0.7360000349581242, 0.3840000182390213, 0.0, 0.0, 0.0, 0.0, 0.0, 1.71039555339792E9, 0.0, 2024-03-13 22:52:33.397
91.0, 7.218006914481521, 19.511058068834245, 30.087495143525302, 28.475598262622952, 0.6400000303983688, 0.7360000349581242, 0.3840000182390213, 0.0, 0.0, 0.0, 0.0, 0.0, 1.71039555339792E9, 0.0, 2024-03-13 22:52:33.397
92.0, 29.960338545031846, 33.647879901342094, 37.672012253664434, 36.96891106199473, 0.6560000311583281, 0.7360000349581242, 0.3840000182390213, 0.0, 0.0, 0.0, 0.0, 0.0, 1.7103955534117177E9, 0.0, 2024-03-13 22:52:33.411
92.0, 15.251312019303441, 27.521923773922026, 41.77094260510057, 33.01957670878619, 0.6560000311583281, 0.7360000349581242, 0.3840000182390213, 0.0, 0.0, 0.0, 0.0, 0.0, 1.7103955534117177E9, 0.0, 2024-03-13 22:52:33.411
93.0, 17.6373681910336, 34.26870329398662, 34.17520579509437, 35.962877973914146, 0.6560000311583281, 0.7360000349581242, 0.3840000182390213, 0.0, 0.0, 0.0, 0.0, 0.0, 1.7103955534271777E9, 0.0, 2024-03-13 22:52:33.427
93.0, 23.101362026296556, 44.26545587554574, 54.591319653205574, 53.746102263219655, 0.6560000311583281, 0.7360000349581242, 0.3840000182390213, 0.0, 0.0, 0.0, 0.0, 0.0, 1.7103955534271777E9, 0.0, 2024-03-13 22:52:33.427
94.0, 2.3561369720846415, 20.16928046103567, 25.281723700463772, 21.855975341051817, 0.6560000311583281, 0.7360000349581242, 0.3840000182390213, 0.0, 0.0, 0.0, 0.0, 0.0, 1.7103955534279325E9, 0.0, 2024-03-13 22:52:33.427
94.0, 19.462439369410276, 25.150827202014625, 38.68178524170071, 26.63182758446783, 0.6560000311583281, 0.7360000349581242, 0.3840000182390213, 0.0, 0.0, 0.0, 0.0, 0.0, 1.7103955534279325E9, 0.0, 2024-03-13 22:52:33.427
95.0, 21.496944945305586, 36.29198917001486, 43.91764517966658, 41.74476330541074, 0.6560000311583281, 0.7360000349581242, 0.3840000182390213, 0.0, 0.0, 0.0, 0.0, 0.0, 1.7103955534415517E9, 0.0, 2024-03-13 22:52:33.441
95.0, 14.383655229583383, 26.265317388810217, 21.231412048451602, 19.825209665112197, 0.6560000311583281, 0.7360000349581242, 0.3840000182390213, 0.0, 0.0, 0.0, 0.0, 0.0, 1.7103955534415517E9, 0.0, 2024-03-13 22:52:33.441
96.0, 3.0704578636214137, 11.522631763480604, 23.078922626562417, 19.178206972777843, 0.6560000311583281, 0.7360000349581242, 0.3840000182390213, 0.0, 0.0, 0.0, 0.0, 0.0, 1.7103955534572132E9, 0.0, 2024-03-13 22:52:33.457
96.0, -15.920754111371934, 7.2666256139054894, 21.051896850578487, 20.09822236187756, 0.6560000311583281, 0.7360000349581242, 0.3840000182390213, 0.0, 0.0, 0.0, 0.0, 0.0, 1.7103955534572132E9, 0.0, 2024-03-13 22:52:33.457
97.0, -12.229472855105996, 6.44010772369802, 17.29329739511013, 16.661254302598536, 0.6560000311583281, 0.7360000349581242, 0.3840000182390213, 0.0, 0.0, 0.0, 0.0, 0.0, 1.7103955534579537E9, 0.0, 2024-03-13 22:52:33.457
97.0, 16.46677950490266, 32.413712915964425, 49.718230010941625, 45.245309663936496, 0.6560000311583281, 0.7360000349581242, 0.3840000182390213, 0.0, 0.0, 0.0, 0.0, 0.0, 1.7103955534579537E9, 0.0, 2024-03-13 22:52:33.457
98.0, 13.70673333760351, 25.618314696475863, 33.50576370302588, 30.715798336081207, 0.6560000311583281, 0.7360000349581242, 0.3840000182390213, 0.0, 0.0, 0.0, 0.0, 0.0, 1.7103955534717925E9, 0.0, 2024-03-13 22:52:33.471
98.0, 32.028503220528364, 43.58853398356587, 36.26954977028072, 42.421685197390616, 0.6560000311583281, 0.7360000349581242, 0.3840000182390213, 0.0, 0.0, 0.0, 0.0, 0.0, 1.7103955534717925E9, 0.0, 2024-03-13 22:52:33.471
99.0, 6.062377828173339, 23.841862217523158, 43.92886487953365, 34.455698291771114, 0.6560000311583281, 0.7360000349581242, 0.3840000182390213, 0.0, 0.0, 0.0, 0.0, 0.0, 1.7103955534872053E9, 0.0, 2024-03-13 22:52:33.487
99.0, -7.098330115899444, 6.522385522723198, 15.939453611150384, 7.4237014120444655, 0.6560000311583281, 0.7360000349581242, 0.3840000182390213, 0.0, 0.0, 0.0, 0.0, 0.0, 1.7103955534872053E9, 0.0, 2024-03-13 22:52:33.487
100.0, -1.409942283295095, 15.053097321651876, 23.505271221511066, 20.326356259174645, 0.6560000311583281, 0.7360000349581242, 0.3840000182390213, 0.0, 0.0, 0.0, 0.0, 0.0, 1.710395553487978E9, 0.0, 2024-03-13 22:52:33.487
100.0, 18.209572884254158, 30.21839164197445, 37.3503808574751, 40.028149225749075, 0.6560000311583281, 0.7360000349581242, 0.3840000182390213, 0.0, 0.0, 0.0, 0.0, 0.0, 1.710395553487978E9, 0.0, 2024-03-13 22:52:33.487
0.0, -873.2797293034382, -546.4573519756086, -558.9467478776351, -563.2401530267671, 0.6560000311583281, 0.7360000349581242, 0.3840000182390213, 0.0, 0.0, 0.0, 0.0, 0.0, 1.7103955535022345E9, 0.0, 2024-03-13 22:52:33.502
1.0, -920.402468745131, -571.8512726747431, -575.94085327629, -578.7532580429688, 0.6560000311583281, 0.7360000349581242, 0.3840000182390213, 0.0, 0.0, 0.0, 0.0, 0.0, 1.7103955535029788E9, 0.0, 2024-03-13 22:52:33.502
1.0, -871.5593753238209, -534.7888641138561, -552.6225770525634, -549.8438313854858, 0.6560000311583281, 0.7360000349581242, 0.3840000182390213, 0.0, 0.0, 0.0, 0.0, 0.0, 1.7103955535029788E9, 0.0, 2024-03-13 22:52:33.502
2.0, -846.1991137242876, -519.5712111941539, -543.7178752580658, -543.6355974590406, 0.6400000303983688, 0.7360000349581242, 0.3840000182390213, 0.0, 0.0, 0.0, 0.0, 0.0, 1.7103955535165873E9, 0.0, 2024-03-13 22:52:33.516
2.0, -896.7363818255253, -559.3226078231819, -569.4745662529022, -568.7452857615426, 0.6400000303983688, 0.7360000349581242, 0.3840000182390213, 0.0, 0.0, 0.0, 0.0, 0.0, 1.7103955535165873E9, 0.0, 2024-03-13 22:52:33.516
3.0, -877.8162279496901, -537.1637005857192, -548.9051164966077, -546.0964516298845, 0.6400000303983688, 0.7360000349581242, 0.3840000182390213, 0.0, 0.0, 0.0, 0.0, 0.0, 1.7103955535325143E9, 0.0, 2024-03-13 22:52:33.532
3.0, -891.4294637884013, -554.0493488856591, -577.7846239544451, -573.734312302433, 0.6400000303983688, 0.7360000349581242, 0.3840000182390213, 0.0, 0.0, 0.0, 0.0, 0.0, 1.7103955535325143E9, 0.0, 2024-03-13 22:52:33.532
4.0, -876.1931113689207, -546.3862938764505, -567.0548509815708, -566.714520085603, 0.6400000303983688, 0.7360000349581242, 0.3840000182390213, 0.0, 0.0, 0.0, 0.0, 0.0, 1.710395553533466E9, 0.0, 2024-03-13 22:52:33.533
4.0, -898.1126650092192, -566.3797990395688, -591.8616073876619, -581.9546124050394, 0.6400000303983688, 0.7360000349581242, 0.3840000182390213, 0.0, 0.0, 0.0, 0.0, 0.0, 1.710395553533466E9, 0.0, 2024-03-13 22:52:33.533
5.0, -885.2025303621776, -549.419352740515, -569.5344046521932, -560.9999529533088, 0.6400000303983688, 0.7360000349581242, 0.3840000182390213, 0.0, 0.0, 0.0, 0.0, 0.0, 1.710395553546674E9, 0.0, 2024-03-13 22:52:33.546
5.0, -857.639467688743, -526.4937660121359, -543.437382761389, -545.5130272367969, 0.6400000303983688, 0.7360000349581242, 0.3840000182390213, 0.0, 0.0, 0.0, 0.0, 0.0, 1.710395553546674E9, 0.0, 2024-03-13 22:52:33.546
6.0, -891.3397061894648, -557.6882715425454, -570.8209302369505, -571.0378444343805, 0.6400000303983688, 0.7360000349581242, 0.3840000182390213, 0.0, 0.0, 0.0, 0.0, 0.0, 1.7103955535621543E9, 0.0, 2024-03-13 22:52:33.562
6.0, -870.8637539320625, -546.6443469733931, -568.8649625601247, -559.6498490693048, 0.6400000303983688, 0.7360000349581242, 0.3840000182390213, 0.0, 0.0, 0.0, 0.0, 0.0, 1.7103955535621543E9, 0.0, 2024-03-13 22:52:33.562
7.0, -883.9534037769772, -558.3315343349241, -569.6877405503765, -572.5674635162577, 0.6400000303983688, 0.7360000349581242, 0.3840000182390213, 0.0, 0.0, 0.0, 0.0, 0.0, 1.710395553562946E9, 0.0, 2024-03-13 22:52:33.562
7.0, -851.681807059329, -533.2929041315801, -541.7207686817273, -548.3590911030769, 0.6400000303983688, 0.7360000349581242, 0.3840000182390213, 0.0, 0.0, 0.0, 0.0, 0.0, 1.710395553562946E9, 0.0, 2024-03-13 22:52:33.562
8.0, -866.3309951857664, -552.1195605085231, -567.4662399766967, -567.2418459793553, 0.6400000303983688, 0.7360000349581242, 0.3840000182390213, 0.0, 0.0, 0.0, 0.0, 0.0, 1.7103955535766351E9, 0.0, 2024-03-13 22:52:33.576
8.0, -888.2842079256661, -570.4787293910049, -570.8882484361529, -579.691972931847, 0.6400000303983688, 0.7360000349581242, 0.3840000182390213, 0.0, 0.0, 0.0, 0.0, 0.0, 1.7103955535766351E9, 0.0, 2024-03-13 22:52:33.576
9.0, -894.6457777502947, -573.4631695556454, -568.3451164662838, -578.8467555418611, 0.6400000303983688, 0.7360000349581242, 0.3840000182390213, 0.0, 0.0, 0.0, 0.0, 0.0, 1.7103955535923944E9, 0.0, 2024-03-13 22:52:33.592
9.0, -883.8038077787496, -551.0985678206198, -567.354042978026, -562.7988448319957, 0.6400000303983688, 0.7360000349581242, 0.3840000182390213, 0.0, 0.0, 0.0, 0.0, 0.0, 1.7103955535923944E9, 0.0, 2024-03-13 22:52:33.592
10.0, -884.3460932723247, -565.7664554468356, -568.0234850700945, -576.4046008707955, 0.6400000303983688, 0.7360000349581242, 0.3840000182390213, 0.0, 0.0, 0.0, 0.0, 0.0, 1.7103955535929396E9, 0.0, 2024-03-13 22:52:33.592
10.0, -891.6837769853882, -569.1361053069122, -577.664947155863, -580.4025539234281, 0.6400000303983688, 0.7360000349581242, 0.3840000182390213, 0.0, 0.0, 0.0, 0.0, 0.0, 1.7103955535929396E9, 0.0, 2024-03-13 22:52:33.592
11.0, -902.1966357608326, -568.5788602135144, -571.2024000324309, -577.2049394613132, 0.6400000303983688, 0.7360000349581242, 0.3840000182390213, 0.0, 0.0, 0.0, 0.0, 0.0, 1.7103955536064951E9, 0.0, 2024-03-13 22:52:33.606
11.0, -907.2604603008367, -584.5332734244876, -592.8639005757868, -596.2559898355976, 0.6400000303983688, 0.7360000349581242, 0.3840000182390213, 0.0, 0.0, 0.0, 0.0, 0.0, 1.7103955536064951E9, 0.0, 2024-03-13 22:52:33.606
12.0, -884.61910596909, -566.2376828412525, -567.2605454791337, -582.3398221004754, 0.6400000303983688, 0.7360000349581242, 0.3840000182390213, 0.0, 0.0, 0.0, 0.0, 0.0, 1.7103955536221697E9, 0.0, 2024-03-13 22:52:33.622
12.0, -910.8844233579002, -586.7024153987877, -600.448417685926, -605.9460706207901, 0.6400000303983688, 0.7360000349581242, 0.3840000182390213, 0.0, 0.0, 0.0, 0.0, 0.0, 1.7103955536221697E9, 0.0, 2024-03-13 22:52:33.622
13.0, -878.7661625384353, -554.8309879763983, -563.2663323264569, -566.9837928824127, 0.6400000303983688, 0.7360000349581242, 0.3840000182390213, 0.0, 0.0, 0.0, 0.0, 0.0, 1.7103955536229658E9, 0.0, 2024-03-13 22:52:33.622
13.0, -900.5847388799302, -578.2913803984411, -590.1188140083104, -591.2482637949288, 0.6400000303983688, 0.7360000349581242, 0.3840000182390213, 0.0, 0.0, 0.0, 0.0, 0.0, 1.7103955536229658E9, 0.0, 2024-03-13 22:52:33.622
14.0, -897.1253314209171, -576.9375366144814, -589.666286113672, -596.0390756381676, 0.6400000303983688, 0.7360000349581242, 0.3840000182390213, 0.0, 0.0, 0.0, 0.0, 0.0, 1.7103955536365623E9, 0.0, 2024-03-13 22:52:33.636
14.0, -910.2598600653, -581.006547766272, -594.875966751948, -597.2059244243428, 0.6400000303983688, 0.7360000349581242, 0.3840000182390213, 0.0, 0.0, 0.0, 0.0, 0.0, 1.7103955536365623E9, 0.0, 2024-03-13 22:52:33.636
15.0, -878.9531575362198, -562.6324192839675, -567.4998990762979, -569.7027001501992, 0.6400000303983688, 0.7360000349581242, 0.3840000182390213, 0.0, 0.0, 0.0, 0.0, 0.0, 1.7103955536524487E9, 0.0, 2024-03-13 22:52:33.652
15.0, -914.7926188115962, -593.9428617130034, -589.0417228210717, -599.8238543933257, 0.6400000303983688, 0.7360000349581242, 0.3840000182390213, 0.0, 0.0, 0.0, 0.0, 0.0, 1.7103955536524487E9, 0.0, 2024-03-13 22:52:33.652
16.0, -884.1403987747617, -561.3645931989886, -561.7853319440037, -572.769418113865, 0.6400000303983688, 0.7360000349581242, 0.3840000182390213, 0.0, 0.0, 0.0, 0.0, 0.0, 1.7103955536532235E9, 0.0, 2024-03-13 22:52:33.653
16.0, -886.9640232413076, -566.2115035415627, -564.2835851144046, -570.6750741386786, 0.6400000303983688, 0.7360000349581242, 0.3840000182390213, 0.0, 0.0, 0.0, 0.0, 0.0, 1.7103955536532235E9, 0.0, 2024-03-13 22:52:33.653
17.0, -908.3637307877652, -585.2550741159357, -588.5293565271422, -595.5715881437063, 0.6400000303983688, 0.7360000349581242, 0.3840000182390213, 0.0, 0.0, 0.0, 0.0, 0.0, 1.7103955536665368E9, 0.0, 2024-03-13 22:52:33.666
17.0, -868.6123341587372, -555.148879472632, -549.7428540866822, -562.7988448319957, 0.6400000303983688, 0.7360000349581242, 0.3840000182390213, 0.0, 0.0, 0.0, 0.0, 0.0, 1.7103955536665368E9, 0.0, 2024-03-13 22:52:33.666
18.0, -899.466508793179, -578.3661783975549, -609.4503568792716, -595.3958128457889, 0.6400000303983688, 0.7360000349581242, 0.3840000182390213, 0.0, 0.0, 0.0, 0.0, 0.0, 1.7103955536821716E9, 0.0, 2024-03-13 22:52:33.682
18.0, -870.8861933317967, -555.7958821649663, -577.9043007530272, -575.3723884830251, 0.6400000303983688, 0.7360000349581242, 0.3840000182390213, 0.0, 0.0, 0.0, 0.0, 0.0, 1.7103955536821716E9, 0.0, 2024-03-13 22:52:33.682
19.0, -876.0958739700727, -553.9932503863238, -551.3098721681163, -560.9999529533088, 0.6400000303983688, 0.7360000349581242, 0.3840000182390213, 0.0, 0.0, 0.0, 0.0, 0.0, 1.7103955536829467E9, 0.0, 2024-03-13 22:52:33.682
19.0, -896.9158970233984, -567.0679406314157, -577.605108756572, -576.7598913665861, 0.6400000303983688, 0.7360000349581242, 0.3840000182390213, 0.0, 0.0, 0.0, 0.0, 0.0, 1.7103955536829467E9, 0.0, 2024-03-13 22:52:33.682
20.0, -866.7124649812467, -547.321268865373, -563.7525193206966, -559.2833388736472, 0.6400000303983688, 0.7360000349581242, 0.3840000182390213, 0.0, 0.0, 0.0, 0.0, 0.0, 1.7103955536965487E9, 0.0, 2024-03-13 22:52:33.696
20.0, -877.9209451484494, -555.8220614646561, -560.2893719617277, -568.0496643697843, 0.6400000303983688, 0.7360000349581242, 0.3840000182390213, 0.0, 0.0, 0.0, 0.0, 0.0, 1.7103955536965487E9, 0.0, 2024-03-13 22:52:33.696
21.0, -897.4656623168848, -571.4249240797944, -585.443939063698, -582.6352741969749, 0.6400000303983688, 0.7360000349581242, 0.3840000182390213, 0.0, 0.0, 0.0, 0.0, 0.0, 1.7103955537122245E9, 0.0, 2024-03-13 22:52:33.712
21.0, -873.7546965978108, -549.3856936409138, -578.5587832452729, -566.6808609860018, 0.6400000303983688, 0.7360000349581242, 0.3840000182390213, 0.0, 0.0, 0.0, 0.0, 0.0, 1.7103955537122245E9, 0.0, 2024-03-13 22:52:33.712
22.0, -864.8986135027371, -541.3972673355602, -552.2224077573046, -553.4042161433026, 0.6400000303983688, 0.7360000349581242, 0.3840000182390213, 0.0, 0.0, 0.0, 0.0, 0.0, 1.7103955537129638E9, 0.0, 2024-03-13 22:52:33.712
22.0, -856.506278002169, -537.4254935826175, -551.8371980618685, -555.5284793181345, 0.6400000303983688, 0.7360000349581242, 0.3840000182390213, 0.0, 0.0, 0.0, 0.0, 0.0, 1.7103955537129638E9, 0.0, 2024-03-13 22:52:33.712
23.0, -874.742030186113, -547.0931349680759, -555.5696182176471, -555.7229541158304, 0.6400000303983688, 0.7360000349581242, 0.3840000182390213, 0.0, 0.0, 0.0, 0.0, 0.0, 1.710395553726794E9, 0.0, 2024-03-13 22:52:33.726
23.0, -858.2041925820522, -537.5115112815984, -526.1366055663675, -538.721368917264, 0.6400000303983688, 0.7360000349581242, 0.3840000182390213, 0.0, 0.0, 0.0, 0.0, 0.0, 1.710395553726794E9, 0.0, 2024-03-13 22:52:33.726
24.0, -870.5720417355187, -547.5942815621383, -558.5428386824206, -560.4389679599553, 0.6400000303983688, 0.7360000349581242, 0.3840000182390213, 0.0, 0.0, 0.0, 0.0, 0.0, 1.7103955537421455E9, 0.0, 2024-03-13 22:52:33.742
24.0, -890.3336731013842, -564.1844777655788, -593.3313880702481, -578.412927147001, 0.6400000303983688, 0.7360000349581242, 0.3840000182390213, 0.0, 0.0, 0.0, 0.0, 0.0, 1.7103955537421455E9, 0.0, 2024-03-13 22:52:33.742
25.0, -876.8924726606347, -553.0059167980216, -571.8830618243665, -573.0087717110291, 0.6400000303983688, 0.7360000349581242, 0.3840000182390213, 0.0, 0.0, 0.0, 0.0, 0.0, 1.7103955537432203E9, 0.0, 2024-03-13 22:52:33.743
25.0, -878.2799755441956, -554.7487101773731, -565.9328809948638, -569.3474096544087, 0.6400000303983688, 0.7360000349581242, 0.3840000182390213, 0.0, 0.0, 0.0, 0.0, 0.0, 1.7103955537432203E9, 0.0, 2024-03-13 22:52:33.743
26.0, -871.8922264198773, -552.4150126050226, -568.9173211595044, -570.4282407416031, 0.6400000303983688, 0.7360000349581242, 0.3840000182390213, 0.0, 0.0, 0.0, 0.0, 0.0, 1.7103955537564943E9, 0.0, 2024-03-13 22:52:33.756
26.0, -880.6473322161473, -560.1379060135223, -577.0104646636173, -571.4267940297723, 0.6400000303983688, 0.7360000349581242, 0.3840000182390213, 0.0, 0.0, 0.0, 0.0, 0.0, 1.7103955537564943E9, 0.0, 2024-03-13 22:52:33.756
27.0, -921.1915876357816, -590.3974365550093, -586.1470402553678, -594.6814919542521, 0.6400000303983688, 0.7360000349581242, 0.3840000182390213, 0.0, 0.0, 0.0, 0.0, 0.0, 1.7103955537721677E9, 0.0, 2024-03-13 22:52:33.772
27.0, -870.1905719400384, -542.7772904192097, -565.484093000181, -568.0833234693855, 0.6400000303983688, 0.7360000349581242, 0.3840000182390213, 0.0, 0.0, 0.0, 0.0, 0.0, 1.7103955537721677E9, 0.0, 2024-03-13 22:52:33.772
28.0, -890.2326958025806, -561.4468709980138, -579.703192631714, -577.6948663555086, 0.6400000303983688, 0.7360000349581242, 0.3840000182390213, 0.0, 0.0, 0.0, 0.0, 0.0, 1.710395553772944E9, 0.0, 2024-03-13 22:52:33.772
28.0, -882.315327596385, -553.4808840923943, -569.2987909549847, -568.6817074622959, 0.6400000303983688, 0.7360000349581242, 0.3840000182390213, 0.0, 0.0, 0.0, 0.0, 0.0, 1.710395553772944E9, 0.0, 2024-03-13 22:52:33.772
29.0, -889.3388597131707, -563.9226847686805, -572.2907109195367, -577.1787601616234, 0.6400000303983688, 0.7360000349581242, 0.3840000182390213, 0.0, 0.0, 0.0, 0.0, 0.0, 1.7103955537865405E9, 0.0, 2024-03-13 22:52:33.786
29.0, -876.51474276511, -548.5741353505291, -568.0758436694741, -562.4996528355405, 0.6400000303983688, 0.7360000349581242, 0.3840000182390213, 0.0, 0.0, 0.0, 0.0, 0.0, 1.7103955537865405E9, 0.0, 2024-03-13 22:52:33.786
30.0, -873.511603100691, -545.6270941854455, -558.1239698873833, -555.8762900140136, 0.6400000303983688, 0.7360000349581242, 0.3840000182390213, 0.0, 0.0, 0.0, 0.0, 0.0, 1.710395553802178E9, 0.0, 2024-03-13 22:52:33.802
30.0, -879.5066627296619, -557.8341276408173, -571.4828925291076, -570.3646624423563, 0.6400000303983688, 0.7360000349581242, 0.3840000182390213, 0.0, 0.0, 0.0, 0.0, 0.0, 1.710395553802178E9, 0.0, 2024-03-13 22:52:33.802
31.0, -878.9718570359983, -551.4052396169864, -561.4225616483018, -558.7111341804266, 0.6400000303983688, 0.7360000349581242, 0.3840000182390213, 0.0, 0.0, 0.0, 0.0, 0.0, 1.7103955538029337E9, 0.0, 2024-03-13 22:52:33.802
31.0, -870.9460317310877, -545.8851472823881, -556.474674006924, -556.5906109055504, 0.6400000303983688, 0.7360000349581242, 0.3840000182390213, 0.0, 0.0, 0.0, 0.0, 0.0, 1.7103955538029337E9, 0.0, 2024-03-13 22:52:33.802
32.0, -845.3314569345675, -524.7883716323413, -530.0410611201078, -535.766847952269, 0.6400000303983688, 0.7360000349581242, 0.3840000182390213, 0.0, 0.0, 0.0, 0.0, 0.0, 1.7103955538169436E9, 0.0, 2024-03-13 22:52:33.816
32.0, -880.265862420667, -557.7069710423239, -564.1863477155566, -567.7803915729746, 0.6400000303983688, 0.7360000349581242, 0.3840000182390213, 0.0, 0.0, 0.0, 0.0, 0.0, 1.7103955538169436E9, 0.0, 2024-03-13 22:52:33.816
33.0, -888.7292560203932, -557.8715266403742, -567.0211918819696, -564.9081484070048, 0.6400000303983688, 0.7360000349581242, 0.3840000182390213, 0.0, 0.0, 0.0, 0.0, 0.0, 1.7103955538322058E9, 0.0, 2024-03-13 22:52:33.832
33.0, -882.147032098379, -555.4480714690872, -564.7435928089544, -565.7945046965033, 0.6400000303983688, 0.7360000349581242, 0.3840000182390213, 0.0, 0.0, 0.0, 0.0, 0.0, 1.7103955538322058E9, 0.0, 2024-03-13 22:52:33.832
34.0, -902.9109566523694, -576.073619724717, -589.30351581797, -590.0888948086649, 0.6400000303983688, 0.7360000349581242, 0.3840000182390213, 0.0, 0.0, 0.0, 0.0, 0.0, 1.710395553832976E9, 0.0, 2024-03-13 22:52:33.832
34.0, -899.1560970968567, -562.071434290614, -570.8732888363302, -571.9952588230371, 0.6400000303983688, 0.7360000349581242, 0.3840000182390213, 0.0, 0.0, 0.0, 0.0, 0.0, 1.710395553832976E9, 0.0, 2024-03-13 22:52:33.832
35.0, -889.0658470164053, -561.4992295973934, -562.8661630311981, -569.4596066530794, 0.6400000303983688, 0.7360000349581242, 0.3840000182390213, 0.0, 0.0, 0.0, 0.0, 0.0, 1.7103955538468432E9, 0.0, 2024-03-13 22:52:33.846
35.0, -887.7606219318695, -554.7561899772845, -547.7158283106983, -559.900422366336, 0.6400000303983688, 0.7360000349581242, 0.3840000182390213, 0.0, 0.0, 0.0, 0.0, 0.0, 1.7103955538468432E9, 0.0, 2024-03-13 22:52:33.846
36.0, -878.3211144437082, -545.9562053815462, -562.3276174375787, -562.372496237047, 0.6400000303983688, 0.7360000349581242, 0.3840000182390213, 0.0, 0.0, 0.0, 0.0, 0.0, 1.7103955538624969E9, 0.0, 2024-03-13 22:52:33.862
36.0, -889.4173976122402, -556.9889102508314, -571.3183369310573, -570.3459629425779, 0.6400000303983688, 0.7360000349581242, 0.3840000182390213, 0.0, 0.0, 0.0, 0.0, 0.0, 1.7103955538624969E9, 0.0, 2024-03-13 22:52:33.862
37.0, -884.1067396751605, -554.0530887856148, -569.3474096544087, -575.5893026804551, 0.6400000303983688, 0.7360000349581242, 0.3840000182390213, 0.0, 0.0, 0.0, 0.0, 0.0, 1.710395553863201E9, 0.0, 2024-03-13 22:52:33.863
37.0, -890.6814837972634, -565.4111649510451, -583.2897566892207, -586.2031387547031, 0.6400000303983688, 0.7360000349581242, 0.3840000182390213, 0.0, 0.0, 0.0, 0.0, 0.0, 1.710395553863201E9, 0.0, 2024-03-13 22:52:33.863
38.0, -873.6238000993617, -545.0848086918704, -553.8417844381183, -555.3302646204829, 0.6400000303983688, 0.7360000349581242, 0.3840000182390213, 0.0, 0.0, 0.0, 0.0, 0.0, 1.7103955538768644E9, 0.0, 2024-03-13 22:52:33.876
38.0, -887.9924957291223, -553.0844546970911, -561.8750895429403, -567.5634773755446, 0.6400000303983688, 0.7360000349581242, 0.3840000182390213, 0.0, 0.0, 0.0, 0.0, 0.0, 1.7103955538768644E9, 0.0, 2024-03-13 22:52:33.876
39.0, -866.491810883861, -544.2508110017516, -551.3510110676289, -564.350903313607, 0.6400000303983688, 0.7360000349581242, 0.3840000182390213, 0.0, 0.0, 0.0, 0.0, 0.0, 1.710395553892168E9, 0.0, 2024-03-13 22:52:33.892
39.0, -877.3524803551845, -556.4167055576108, -568.5882099634036, -567.6270556747913, 0.6400000303983688, 0.7360000349581242, 0.3840000182390213, 0.0, 0.0, 0.0, 0.0, 0.0, 1.710395553892168E9, 0.0, 2024-03-13 22:52:33.892
40.0, -895.7191290375777, -565.0932734548114, -575.8959744768217, -576.8010302660987, 0.6400000303983688, 0.7360000349581242, 0.3840000182390213, 0.0, 0.0, 0.0, 0.0, 0.0, 1.7103955538929415E9, 0.0, 2024-03-13 22:52:33.892
40.0, -899.1448773969896, -570.7442622878589, -573.6034158039838, -581.0458167158067, 0.6400000303983688, 0.7360000349581242, 0.3840000182390213, 0.0, 0.0, 0.0, 0.0, 0.0, 1.7103955538929415E9, 0.0, 2024-03-13 22:52:33.892
41.0, -872.2138578160666, -547.9907109574415, -560.8802761547267, -563.7899183202535, 0.6400000303983688, 0.7360000349581242, 0.3840000182390213, 0.0, 0.0, 0.0, 0.0, 0.0, 1.7103955539066274E9, 0.0, 2024-03-13 22:52:33.906
41.0, -862.7107720286585, -535.4022077065893, -548.0112804071978, -550.08318498265, 0.6400000303983688, 0.7360000349581242, 0.3840000182390213, 0.0, 0.0, 0.0, 0.0, 0.0, 1.7103955539066274E9, 0.0, 2024-03-13 22:52:33.906
42.0, -863.3465550211258, -542.7885101190768, -552.7833927506581, -564.0629310170189, 0.6400000303983688, 0.7360000349581242, 0.3840000182390213, 0.0, 0.0, 0.0, 0.0, 0.0, 1.7103955539222076E9, 0.0, 2024-03-13 22:52:33.922
42.0, -885.2212298619561, -559.2926886235364, -571.912981024012, -578.4316266467795, 0.6400000303983688, 0.7360000349581242, 0.3840000182390213, 0.0, 0.0, 0.0, 0.0, 0.0, 1.7103955539222076E9, 0.0, 2024-03-13 22:52:33.922
43.0, -856.1098486068659, -534.1418614215218, -550.9433619724587, -555.7678329152986, 0.6400000303983688, 0.7360000349581242, 0.3840000182390213, 0.0, 0.0, 0.0, 0.0, 0.0, 1.7103955539229782E9, 0.0, 2024-03-13 22:52:33.922
43.0, -881.5187289058231, -549.8008225359954, -554.8478175261989, -562.4472942361608, 0.6400000303983688, 0.7360000349581242, 0.3840000182390213, 0.0, 0.0, 0.0, 0.0, 0.0, 1.7103955539229782E9, 0.0, 2024-03-13 22:52:33.922
44.0, -886.7620686437003, -554.026909485925, -566.6621614862233, -573.3453627070412, 0.6400000303983688, 0.7360000349581242, 0.3840000182390213, 0.0, 0.0, 0.0, 0.0, 0.0, 1.7103955539365761E9, 0.0, 2024-03-13 22:52:33.936
44.0, -869.6183672468178, -540.1705801500939, -563.3486101254821, -561.1084100520238, 0.6400000303983688, 0.7360000349581242, 0.3840000182390213, 0.0, 0.0, 0.0, 0.0, 0.0, 1.7103955539365761E9, 0.0, 2024-03-13 22:52:33.936
45.0, -864.6293407059275, -532.6720807389356, -558.3895027842373, -554.0100799361244, 0.6400000303983688, 0.7360000349581242, 0.3840000182390213, 0.0, 0.0, 0.0, 0.0, 0.0, 1.7103955539522233E9, 0.0, 2024-03-13 22:52:33.952
45.0, -865.141706999857, -536.008071499411, -551.8110187621787, -554.1409764345735, 0.6400000303983688, 0.7360000349581242, 0.3840000182390213, 0.0, 0.0, 0.0, 0.0, 0.0, 1.7103955539522233E9, 0.0, 2024-03-13 22:52:33.952
46.0, -849.703399982769, -525.166101527866, -542.5547663718462, -536.0249010492116, 0.6400000303983688, 0.7360000349581242, 0.3840000182390213, 0.0, 0.0, 0.0, 0.0, 0.0, 1.7103955539529963E9, 0.0, 2024-03-13 22:52:33.952
46.0, -861.3756277444772, -528.3188371905126, -534.2895874697715, -530.6244855131954, 0.6400000303983688, 0.7360000349581242, 0.3840000182390213, 0.0, 0.0, 0.0, 0.0, 0.0, 1.7103955539529963E9, 0.0, 2024-03-13 22:52:33.952
47.0, -900.756774277892, -559.1879714247771, -561.2019075509161, -557.3348509967327, 0.6400000303983688, 0.7360000349581242, 0.3840000182390213, 0.0, 0.0, 0.0, 0.0, 0.0, 1.7103955539664989E9, 0.0, 2024-03-13 22:52:33.966
47.0, -891.4070243886672, -552.3888333053328, -554.8665170259774, -552.9442084487528, 0.6400000303983688, 0.7360000349581242, 0.3840000182390213, 0.0, 0.0, 0.0, 0.0, 0.0, 1.7103955539664989E9, 0.0, 2024-03-13 22:52:33.966
48.0, -880.6884711156599, -543.039083416108, -562.469733635895, -555.2479868214577, 0.6400000303983688, 0.7360000349581242, 0.3840000182390213, 0.0, 0.0, 0.0, 0.0, 0.0, 1.7103955539827287E9, 0.0, 2024-03-13 22:52:33.982
48.0, -872.7561433096416, -535.9183139004745, -556.5419922061265, -553.4378752429038, 0.6400000303983688, 0.7360000349581242, 0.3840000182390213, 0.0, 0.0, 0.0, 0.0, 0.0, 1.7103955539827287E9, 0.0, 2024-03-13 22:52:33.982
49.0, -858.5819224775769, -525.5064324238338, -541.7880868809298, -544.6640699468553, 0.6400000303983688, 0.7360000349581242, 0.3840000182390213, 0.0, 0.0, 0.0, 0.0, 0.0, 1.710395553983039E9, 0.0, 2024-03-13 22:52:33.983
49.0, -871.1330267288722, -538.2856705724262, -555.7491334155202, -552.4281022548676, 0.6400000303983688, 0.7360000349581242, 0.3840000182390213, 0.0, 0.0, 0.0, 0.0, 0.0, 1.710395553983039E9, 0.0, 2024-03-13 22:52:33.983
50.0, -859.5019378666766, -534.4709726176225, -553.4154358431697, -551.3023923682049, 0.6400000303983688, 0.7360000349581242, 0.3840000182390213, 0.0, 0.0, 0.0, 0.0, 0.0, 1.7103955539965043E9, 0.0, 2024-03-13 22:52:33.996
50.0, -865.7064318931662, -538.1024154745974, -554.7879791269079, -553.8156051384285, 0.6400000303983688, 0.7360000349581242, 0.3840000182390213, 0.0, 0.0, 0.0, 0.0, 0.0, 1.7103955539965043E9, 0.0, 2024-03-13 22:52:33.996
51.0, -888.4001448242925, -549.950418534223, -562.589410434477, -562.7090872330591, 0.6400000303983688, 0.7360000349581242, 0.3840000182390213, 0.0, 0.0, 0.0, 0.0, 0.0, 1.710395554012563E9, 0.0, 2024-03-13 22:52:34.012
51.0, -868.1336269644089, -530.3009841670282, -537.6667171297595, -542.2705339752138, 0.6400000303983688, 0.7360000349581242, 0.3840000182390213, 0.0, 0.0, 0.0, 0.0, 0.0, 1.710395554012563E9, 0.0, 2024-03-13 22:52:34.012
52.0, -887.3006142373197, -556.3643469582312, -554.7767594270408, -566.9837928824127, 0.6400000303983688, 0.7360000349581242, 0.3840000182390213, 0.0, 0.0, 0.0, 0.0, 0.0, 1.7103955540131836E9, 0.0, 2024-03-13 22:52:34.013
52.0, -868.204685063567, -538.6933196675964, -562.5819306345657, -560.2669325619936, 0.6400000303983688, 0.7360000349581242, 0.3840000182390213, 0.0, 0.0, 0.0, 0.0, 0.0, 1.7103955540131836E9, 0.0, 2024-03-13 22:52:34.013
53.0, -865.2277246988378, -529.6203223750927, -543.8973904559389, -540.5950587950647, 0.6400000303983688, 0.7360000349581242, 0.3840000182390213, 0.0, 0.0, 0.0, 0.0, 0.0, 1.7103955540268824E9, 0.0, 2024-03-13 22:52:34.026
53.0, -892.3419993775897, -552.7665632008575, -562.2528194384649, -561.396382348612, 0.6400000303983688, 0.7360000349581242, 0.3840000182390213, 0.0, 0.0, 0.0, 0.0, 0.0, 1.7103955540268824E9, 0.0, 2024-03-13 22:52:34.026
54.0, -889.6268320097588, -555.4779906687327, -560.285632061772, -559.9228617660701, 0.6400000303983688, 0.7360000349581242, 0.3840000182390213, 0.0, 0.0, 0.0, 0.0, 0.0, 1.7103955540425215E9, 0.0, 2024-03-13 22:52:34.042
54.0, -886.2945811492391, -542.2537044254132, -550.5244931774214, -550.2552203806117, 0.6400000303983688, 0.7360000349581242, 0.3840000182390213, 0.0, 0.0, 0.0, 0.0, 0.0, 1.7103955540425215E9, 0.0, 2024-03-13 22:52:34.042
55.0, -864.3787674088962, -531.063923757989, -544.1816228525713, -541.3355589862913, 0.6400000303983688, 0.7360000349581242, 0.3840000182390213, 0.0, 0.0, 0.0, 0.0, 0.0, 1.710395554043269E9, 0.0, 2024-03-13 22:52:34.043
55.0, -876.5184826650657, -536.8383292895742, -534.7645547641441, -546.2423077281564, 0.6400000303983688, 0.7360000349581242, 0.3840000182390213, 0.0, 0.0, 0.0, 0.0, 0.0, 1.710395554043269E9, 0.0, 2024-03-13 22:52:34.043
56.0, -883.9870628765784, -547.1492334674112, -565.1774212038144, -561.2654858501628, 0.6400000303983688, 0.7360000349581242, 0.3840000182390213, 0.0, 0.0, 0.0, 0.0, 0.0, 1.710395554056486E9, 0.0, 2024-03-13 22:52:34.056
56.0, -889.1668243152089, -548.2487640543841, -562.3500568373129, -559.0626847762614, 0.6400000303983688, 0.7360000349581242, 0.3840000182390213, 0.0, 0.0, 0.0, 0.0, 0.0, 1.710395554056486E9, 0.0, 2024-03-13 22:52:34.056
57.0, -866.9892175779678, -525.4465940245427, -539.8171596042812, -544.7126886462793, 0.6400000303983688, 0.7360000349581242, 0.3840000182390213, 0.0, 0.0, 0.0, 0.0, 0.0, 1.7103955540721986E9, 0.0, 2024-03-13 22:52:34.072
57.0, -866.6638462818228, -534.2054397207685, -551.5492257652804, -552.0054935598746, 0.6400000303983688, 0.7360000349581242, 0.3840000182390213, 0.0, 0.0, 0.0, 0.0, 0.0, 1.7103955540721986E9, 0.0, 2024-03-13 22:52:34.072
58.0, -881.0101025118493, -552.3102954062633, -574.0634234985337, -568.2067401679233, 0.6400000303983688, 0.7360000349581242, 0.3840000182390213, 0.0, 0.0, 0.0, 0.0, 0.0, 1.7103955540729845E9, 0.0, 2024-03-13 22:52:34.072
58.0, -861.3718878445216, -541.5244239340536, -552.5814381530508, -556.788825603202, 0.6400000303983688, 0.7360000349581242, 0.3840000182390213, 0.0, 0.0, 0.0, 0.0, 0.0, 1.7103955540729845E9, 0.0, 2024-03-13 22:52:34.072
59.0, -903.2325880485587, -566.1367055424489, -575.398567782715, -580.9261399172246, 0.6400000303983688, 0.7360000349581242, 0.3840000182390213, 0.0, 0.0, 0.0, 0.0, 0.0, 1.71039555408649E9, 0.0, 2024-03-13 22:52:34.086
59.0, -883.3101409845985, -547.9420922580175, -567.3877020776272, -564.8707494074479, 0.6400000303983688, 0.7360000349581242, 0.3840000182390213, 0.0, 0.0, 0.0, 0.0, 0.0, 1.71039555408649E9, 0.0, 2024-03-13 22:52:34.086
60.0, -871.4658778249286, -542.4257398233749, -549.611957588233, -555.2966055208817, 0.6400000303983688, 0.7360000349581242, 0.3840000182390213, 0.0, 0.0, 0.0, 0.0, 0.0, 1.710395554102426E9, 0.0, 2024-03-13 22:52:34.102
60.0, -904.7883864301257, -563.3766593751498, -571.6399683272466, -574.4411533940583, 0.6400000303983688, 0.7360000349581242, 0.3840000182390213, 0.0, 0.0, 0.0, 0.0, 0.0, 1.710395554102426E9, 0.0, 2024-03-13 22:52:34.102
61.0, -906.9051698050462, -560.141645913478, -570.3908417420462, -569.4109879536554, 0.6400000303983688, 0.7360000349581242, 0.3840000182390213, 0.0, 0.0, 0.0, 0.0, 0.0, 1.7103955541029985E9, 0.0, 2024-03-13 22:52:34.102
61.0, -877.9172052484937, -542.545416621957, -554.0175597360358, -551.4071095669642, 0.6400000303983688, 0.7360000349581242, 0.3840000182390213, 0.0, 0.0, 0.0, 0.0, 0.0, 1.7103955541029985E9, 0.0, 2024-03-13 22:52:34.102
62.0, -877.7115107509308, -547.598021462094, -545.4419691376388, -553.8754435377195, 0.6400000303983688, 0.7360000349581242, 0.3840000182390213, 0.0, 0.0, 0.0, 0.0, 0.0, 1.7103955541168406E9, 0.0, 2024-03-13 22:52:34.116
62.0, -881.4962895060889, -555.3209148705937, -560.7493796562776, -565.2148202033713, 0.6400000303983688, 0.7360000349581242, 0.3840000182390213, 0.0, 0.0, 0.0, 0.0, 0.0, 1.7103955541168406E9, 0.0, 2024-03-13 22:52:34.116
63.0, -897.54794011591, -562.6847778833471, -571.0341045344248, -565.6149894986302, 0.6400000303983688, 0.7360000349581242, 0.3840000182390213, 0.0, 0.0, 0.0, 0.0, 0.0, 1.710395554132222E9, 0.0, 2024-03-13 22:52:34.132
63.0, -904.3844772349112, -553.4285254930146, -559.634889469482, -559.0178059767932, 0.6400000303983688, 0.7360000349581242, 0.3840000182390213, 0.0, 0.0, 0.0, 0.0, 0.0, 1.710395554132222E9, 0.0, 2024-03-13 22:52:34.132
64.0, -904.9641617280431, -564.2817151644267, -565.5252318996936, -566.665901386179, 0.6400000303983688, 0.7360000349581242, 0.3840000182390213, 0.0, 0.0, 0.0, 0.0, 0.0, 1.7103955541329296E9, 0.0, 2024-03-13 22:52:34.132
64.0, -874.6560124871321, -534.2241392205469, -554.159675934352, -547.5213535130024, 0.6400000303983688, 0.7360000349581242, 0.3840000182390213, 0.0, 0.0, 0.0, 0.0, 0.0, 1.7103955541329296E9, 0.0, 2024-03-13 22:52:34.132
65.0, -889.9559432058595, -553.821214988362, -564.3546432135627, -565.6598682980984, 0.6400000303983688, 0.7360000349581242, 0.3840000182390213, 0.0, 0.0, 0.0, 0.0, 0.0, 1.7103955541468525E9, 0.0, 2024-03-13 22:52:34.146
65.0, -896.4297100291587, -570.9424769855104, -575.6379213798791, -579.9425462288782, 0.6400000303983688, 0.7360000349581242, 0.3840000182390213, 0.0, 0.0, 0.0, 0.0, 0.0, 1.7103955541468525E9, 0.0, 2024-03-13 22:52:34.146
66.0, -919.0224456614815, -583.8077328330837, -597.3630002224818, -595.8221614407375, 0.6400000303983688, 0.7360000349581242, 0.3840000182390213, 0.0, 0.0, 0.0, 0.0, 0.0, 1.7103955541625228E9, 0.0, 2024-03-13 22:52:34.162
66.0, -891.0704333926551, -562.2546893884428, -572.2458321200684, -567.0436312817037, 0.6400000303983688, 0.7360000349581242, 0.3840000182390213, 0.0, 0.0, 0.0, 0.0, 0.0, 1.7103955541625228E9, 0.0, 2024-03-13 22:52:34.162
67.0, -909.9120493694209, -574.5739198424853, -583.9105800818652, -585.0886485679075, 0.6400000303983688, 0.7360000349581242, 0.3840000182390213, 0.0, 0.0, 0.0, 0.0, 0.0, 1.7103955541632388E9, 0.0, 2024-03-13 22:52:34.163
67.0, -888.7217762204818, -559.9434312158264, -567.305424278602, -567.8738890718669, 0.6400000303983688, 0.7360000349581242, 0.3840000182390213, 0.0, 0.0, 0.0, 0.0, 0.0, 1.7103955541632388E9, 0.0, 2024-03-13 22:52:34.163
68.0, -873.945431495551, -545.6308340854011, -563.602923322469, -558.2099875863642, 0.6400000303983688, 0.7360000349581242, 0.3840000182390213, 0.0, 0.0, 0.0, 0.0, 0.0, 1.7103955541765556E9, 0.0, 2024-03-13 22:52:34.176
68.0, -884.9631767650135, -552.2841161065735, -565.4803531002253, -565.2484793029726, 0.6400000303983688, 0.7360000349581242, 0.3840000182390213, 0.0, 0.0, 0.0, 0.0, 0.0, 1.7103955541765556E9, 0.0, 2024-03-13 22:52:34.176
69.0, -897.5591598157771, -563.421538174618, -569.1716343564913, -573.7118729026988, 0.6400000303983688, 0.7360000349581242, 0.3840000182390213, 0.0, 0.0, 0.0, 0.0, 0.0, 1.7103955541921759E9, 0.0, 2024-03-13 22:52:34.192
69.0, -897.8770513120107, -557.3591603464447, -574.699206491001, -571.7484254259616, 0.6400000303983688, 0.7360000349581242, 0.3840000182390213, 0.0, 0.0, 0.0, 0.0, 0.0, 1.7103955541921759E9, 0.0, 2024-03-13 22:52:34.192
70.0, -876.5708412644453, -545.7205916843377, -553.3144585443661, -561.25052625034, 0.6400000303983688, 0.7360000349581242, 0.3840000182390213, 0.0, 0.0, 0.0, 0.0, 0.0, 1.7103955541931498E9, 0.0, 2024-03-13 22:52:34.193
70.0, -897.054273321759, -565.1867709537037, -568.547071063891, -572.9040545122698, 0.6400000303983688, 0.7360000349581242, 0.3840000182390213, 0.0, 0.0, 0.0, 0.0, 0.0, 1.7103955541931498E9, 0.0, 2024-03-13 22:52:34.193
71.0, -906.4563818103634, -577.7116959053092, -596.2036312362179, -593.1705723721534, 0.6400000303983688, 0.7360000349581242, 0.3840000182390213, 0.0, 0.0, 0.0, 0.0, 0.0, 1.710395554206627E9, 0.0, 2024-03-13 22:52:34.206
71.0, -879.3196677318774, -546.573288874235, -552.7198144514114, -558.1613688869402, 0.6400000303983688, 0.7360000349581242, 0.3840000182390213, 0.0, 0.0, 0.0, 0.0, 0.0, 1.710395554206627E9, 0.0, 2024-03-13 22:52:34.206
72.0, -876.671818563249, -550.3655474293046, -560.4875866593793, -559.3057782733813, 0.6400000303983688, 0.7360000349581242, 0.3840000182390213, 0.0, 0.0, 0.0, 0.0, 0.0, 1.710395554222173E9, 0.0, 2024-03-13 22:52:34.222
72.0, -876.525962464977, -557.1198067492805, -566.8042776845396, -567.9486870709807, 0.6400000303983688, 0.7360000349581242, 0.3840000182390213, 0.0, 0.0, 0.0, 0.0, 0.0, 1.710395554222173E9, 0.0, 2024-03-13 22:52:34.222
73.0, -888.2206296264194, -565.9497105446644, -584.1162745794281, -579.9537659287453, 0.6400000303983688, 0.7360000349581242, 0.3840000182390213, 0.0, 0.0, 0.0, 0.0, 0.0, 1.71039555422294E9, 0.0, 2024-03-13 22:52:34.222
73.0, -870.8375746323727, -548.5591757507063, -559.9527809657156, -566.3442699899897, 0.6400000303983688, 0.7360000349581242, 0.3840000182390213, 0.0, 0.0, 0.0, 0.0, 0.0, 1.71039555422294E9, 0.0, 2024-03-13 22:52:34.222
74.0, -900.0013144868426, -569.9439236973412, -560.6558821573853, -567.0174519820139, 0.6400000303983688, 0.7360000349581242, 0.3840000182390213, 0.0, 0.0, 0.0, 0.0, 0.0, 1.7103955542365184E9, 0.0, 2024-03-13 22:52:34.236
74.0, -906.8640309055336, -563.3168209758587, -579.643354232423, -575.5855627804995, 0.6400000303983688, 0.7360000349581242, 0.3840000182390213, 0.0, 0.0, 0.0, 0.0, 0.0, 1.7103955542365184E9, 0.0, 2024-03-13 22:52:34.236
75.0, -912.9899870329536, -570.7966208872385, -587.5345431389287, -580.6269479207695, 0.6400000303983688, 0.7360000349581242, 0.3840000182390213, 0.0, 0.0, 0.0, 0.0, 0.0, 1.71039555425255E9, 0.0, 2024-03-13 22:52:34.252
75.0, -896.4783287285827, -561.7385831945576, -585.0624692682177, -575.1479944856837, 0.6400000303983688, 0.7360000349581242, 0.3840000182390213, 0.0, 0.0, 0.0, 0.0, 0.0, 1.71039555425255E9, 0.0, 2024-03-13 22:52:34.252
76.0, -881.5449082055129, -547.8710341588594, -575.7501183785498, -564.7473327089101, 0.6400000303983688, 0.7360000349581242, 0.3840000182390213, 0.0, 0.0, 0.0, 0.0, 0.0, 1.7103955542533965E9, 0.0, 2024-03-13 22:52:34.253
76.0, -878.7549428385682, -549.2435774425976, -565.3008379023522, -559.1674019750208, 0.6400000303983688, 0.7360000349581242, 0.3840000182390213, 0.0, 0.0, 0.0, 0.0, 0.0, 1.7103955542533965E9, 0.0, 2024-03-13 22:52:34.253
77.0, -888.9985288172029, -560.0257090148516, -559.4404146717861, -567.5634773755446, 0.6400000303983688, 0.7360000349581242, 0.3840000182390213, 0.0, 0.0, 0.0, 0.0, 0.0, 1.7103955542667642E9, 0.0, 2024-03-13 22:52:34.266
77.0, -899.7619608896784, -567.9842161205597, -583.1626000907272, -577.2498182607815, 0.6400000303983688, 0.7360000349581242, 0.3840000182390213, 0.0, 0.0, 0.0, 0.0, 0.0, 1.7103955542667642E9, 0.0, 2024-03-13 22:52:34.266
78.0, -895.3675784417428, -568.4816228146665, -584.5351433744654, -571.4230541298166, 0.6400000303983688, 0.7360000349581242, 0.3840000182390213, 0.0, 0.0, 0.0, 0.0, 0.0, 1.7103955542825973E9, 0.0, 2024-03-13 22:52:34.282
78.0, -896.9645157228224, -567.3708725278266, -578.629841344431, -575.6005223803222, 0.6400000303983688, 0.7360000349581242, 0.3840000182390213, 0.0, 0.0, 0.0, 0.0, 0.0, 1.7103955542825973E9, 0.0, 2024-03-13 22:52:34.282
79.0, -895.2254622434266, -568.0141353202052, -567.728032973595, -572.8741353126243, 0.6400000303983688, 0.7360000349581242, 0.3840000182390213, 0.0, 0.0, 0.0, 0.0, 0.0, 1.7103955542831059E9, 0.0, 2024-03-13 22:52:34.283
79.0, -894.7729343487881, -559.8574135168456, -571.3183369310573, -565.1213227044791, 0.6400000303983688, 0.7360000349581242, 0.3840000182390213, 0.0, 0.0, 0.0, 0.0, 0.0, 1.7103955542831059E9, 0.0, 2024-03-13 22:52:34.283
80.0, -883.8299870784394, -558.3053550352342, -560.876536254771, -562.4585139360279, 0.6400000303983688, 0.7360000349581242, 0.3840000182390213, 0.0, 0.0, 0.0, 0.0, 0.0, 1.7103955542965991E9, 0.0, 2024-03-13 22:52:34.296
80.0, -904.7435076306574, -571.8250933750533, -580.6531272204593, -578.0015381518751, 0.6400000303983688, 0.7360000349581242, 0.3840000182390213, 0.0, 0.0, 0.0, 0.0, 0.0, 1.7103955542965991E9, 0.0, 2024-03-13 22:52:34.296
81.0, -917.4703871798702, -579.7873403807171, -603.1336658541113, -591.3791602933779, 0.6400000303983688, 0.7360000349581242, 0.3840000182390213, 0.0, 0.0, 0.0, 0.0, 0.0, 1.7103955543123963E9, 0.0, 2024-03-13 22:52:34.312
81.0, -903.6177977439947, -572.5842930660583, -580.5708494214341, -576.9356666645035, 0.6400000303983688, 0.7360000349581242, 0.3840000182390213, 0.0, 0.0, 0.0, 0.0, 0.0, 1.7103955543123963E9, 0.0, 2024-03-13 22:52:34.312
82.0, -899.3917107940651, -578.4671556963585, -575.7127193789929, -584.3892872761935, 0.6400000303983688, 0.7360000349581242, 0.3840000182390213, 0.0, 0.0, 0.0, 0.0, 0.0, 1.7103955543129642E9, 0.0, 2024-03-13 22:52:34.312
82.0, -886.7845080434345, -573.2499952581711, -577.7659244546667, -579.7331118313596, 0.6400000303983688, 0.7360000349581242, 0.3840000182390213, 0.0, 0.0, 0.0, 0.0, 0.0, 1.7103955543129642E9, 0.0, 2024-03-13 22:52:34.312
83.0, -884.9220378655009, -558.5634081321768, -566.400368489325, -570.1814073445275, 0.6400000303983688, 0.7360000349581242, 0.3840000182390213, 0.0, 0.0, 0.0, 0.0, 0.0, 1.7103955543265238E9, 0.0, 2024-03-13 22:52:34.326
83.0, -899.2421147958376, -572.1616843710653, -585.7917497595772, -585.6533734612167, 0.6400000303983688, 0.7360000349581242, 0.3840000182390213, 0.0, 0.0, 0.0, 0.0, 0.0, 1.7103955543265238E9, 0.0, 2024-03-13 22:52:34.326
84.0, -906.5498793092556, -581.9377828552388, -592.7479636771604, -598.5971672078595, 0.6400000303983688, 0.7360000349581242, 0.3840000182390213, 0.0, 0.0, 0.0, 0.0, 0.0, 1.7103955543419893E9, 0.0, 2024-03-13 22:52:34.341
84.0, -931.1172821181826, -592.5104800299741, -609.4391371794045, -596.7496566297486, 0.6400000303983688, 0.7360000349581242, 0.3840000182390213, 0.0, 0.0, 0.0, 0.0, 0.0, 1.7103955543419893E9, 0.0, 2024-03-13 22:52:34.341
85.0, -899.6572436909191, -557.5835543437861, -574.8525423891842, -566.546224587597, 0.6400000303983688, 0.7360000349581242, 0.3840000182390213, 0.0, 0.0, 0.0, 0.0, 0.0, 1.7103955543571808E9, 0.0, 2024-03-13 22:52:34.357
85.0, -895.9884018343873, -566.6154127367772, -576.3485023714602, -579.3853011354804, 0.6400000303983688, 0.7360000349581242, 0.3840000182390213, 0.0, 0.0, 0.0, 0.0, 0.0, 1.7103955543571808E9, 0.0, 2024-03-13 22:52:34.357
86.0, -906.3554045115598, -571.7278559762053, -583.82830228284, -582.1752665024251, 0.6400000303983688, 0.7360000349581242, 0.3840000182390213, 0.0, 0.0, 0.0, 0.0, 0.0, 1.710395554357928E9, 0.0, 2024-03-13 22:52:34.357
86.0, -910.9741809568368, -577.3264862098731, -580.608248420991, -577.4255935586989, 0.6400000303983688, 0.7360000349581242, 0.3840000182390213, 0.0, 0.0, 0.0, 0.0, 0.0, 1.710395554357928E9, 0.0, 2024-03-13 22:52:34.357
87.0, -915.0918108080514, -583.321545838844, -591.6372133903205, -589.6700260136276, 0.6400000303983688, 0.7360000349581242, 0.3840000182390213, 0.0, 0.0, 0.0, 0.0, 0.0, 1.7103955543721936E9, 0.0, 2024-03-13 22:52:34.372
87.0, -920.0920570488088, -592.1813688338734, -605.8787524215877, -605.8376135220751, 0.6400000303983688, 0.7360000349581242, 0.3840000182390213, 0.0, 0.0, 0.0, 0.0, 0.0, 1.7103955543721936E9, 0.0, 2024-03-13 22:52:34.372
88.0, -884.6004064693116, -567.004362332169, -594.6627924544737, -584.8567747706547, 0.6400000303983688, 0.7360000349581242, 0.3840000182390213, 0.0, 0.0, 0.0, 0.0, 0.0, 1.7103955543729434E9, 0.0, 2024-03-13 22:52:34.372
88.0, -865.1117878002115, -542.1153281270526, -567.5971364751458, -569.5718036517501, 0.6400000303983688, 0.7360000349581242, 0.3840000182390213, 0.0, 0.0, 0.0, 0.0, 0.0, 1.7103955543729434E9, 0.0, 2024-03-13 22:52:34.372
89.0, -894.0735730570741, -568.1786909182556, -575.0806762864813, -582.2089256020263, 0.6400000303983688, 0.7360000349581242, 0.3840000182390213, 0.0, 0.0, 0.0, 0.0, 0.0, 1.7103955543864934E9, 0.0, 2024-03-13 22:52:34.386
89.0, -900.1509104850702, -568.0851934193633, -585.5823153620586, -579.800430030562, 0.6400000303983688, 0.7360000349581242, 0.3840000182390213, 0.0, 0.0, 0.0, 0.0, 0.0, 1.7103955543864934E9, 0.0, 2024-03-13 22:52:34.386
90.0, -890.6403448977508, -564.2517959647812, -570.8807686362416, -572.8591757128015, 0.6400000303983688, 0.7360000349581242, 0.3840000182390213, 0.0, 0.0, 0.0, 0.0, 0.0, 1.7103955544025407E9, 0.0, 2024-03-13 22:52:34.402
90.0, -896.3960509295575, -573.0891795600764, -584.841815170832, -587.2503107422963, 0.6400000303983688, 0.7360000349581242, 0.3840000182390213, 0.0, 0.0, 0.0, 0.0, 0.0, 1.7103955544025407E9, 0.0, 2024-03-13 22:52:34.402
91.0, -890.1204988039099, -557.6583523428999, -587.9234927343205, -572.9190141120926, 0.6400000303983688, 0.7360000349581242, 0.3840000182390213, 0.0, 0.0, 0.0, 0.0, 0.0, 1.710395554402974E9, 0.0, 2024-03-13 22:52:34.402
91.0, -871.6042541232891, -537.3132965839468, -536.791580540128, -539.301053410396, 0.6400000303983688, 0.7360000349581242, 0.3840000182390213, 0.0, 0.0, 0.0, 0.0, 0.0, 1.710395554402974E9, 0.0, 2024-03-13 22:52:34.402
92.0, -903.1054314500652, -582.3416920504533, -584.0863553797826, -587.3699875408784, 0.6400000303983688, 0.7360000349581242, 0.3840000182390213, 0.0, 0.0, 0.0, 0.0, 0.0, 1.710395554416587E9, 0.0, 2024-03-13 22:52:34.416
92.0, -909.3174052764662, -588.6247239760123, -594.8797066519037, -598.2306570122018, 0.6400000303983688, 0.7360000349581242, 0.3840000182390213, 0.0, 0.0, 0.0, 0.0, 0.0, 1.710395554416587E9, 0.0, 2024-03-13 22:52:34.416
93.0, -891.216289490927, -570.9088178859092, -592.6021075788885, -586.0647624563426, 0.6400000303983688, 0.7360000349581242, 0.3840000182390213, 0.0, 0.0, 0.0, 0.0, 0.0, 1.7103955544322553E9, 0.0, 2024-03-13 22:52:34.432
93.0, -878.455750842113, -554.8983061756007, -549.0621922947466, -561.6319960458204, 0.6400000303983688, 0.7360000349581242, 0.3840000182390213, 0.0, 0.0, 0.0, 0.0, 0.0, 1.7103955544322553E9, 0.0, 2024-03-13 22:52:34.432
94.0, -920.8175976402126, -589.3914034669288, -583.2747970893979, -589.411972916685, 0.6400000303983688, 0.7360000349581242, 0.3840000182390213, 0.0, 0.0, 0.0, 0.0, 0.0, 1.710395554432952E9, 0.0, 2024-03-13 22:52:34.432
94.0, -888.1420917273499, -558.9448779276572, -586.7080252487212, -573.6445547034964, 0.6400000303983688, 0.7360000349581242, 0.3840000182390213, 0.0, 0.0, 0.0, 0.0, 0.0, 1.710395554432952E9, 0.0, 2024-03-13 22:52:34.432
95.0, -881.4252314069308, -550.5001838277094, -572.7619383139536, -564.5304185114801, 0.6400000303983688, 0.7360000349581242, 0.3840000182390213, 0.0, 0.0, 0.0, 0.0, 0.0, 1.710395554446724E9, 0.0, 2024-03-13 22:52:34.446
95.0, -861.5551429423504, -545.9861245811917, -559.4890333712101, -556.1754820104688, 0.6400000303983688, 0.7360000349581242, 0.3840000182390213, 0.0, 0.0, 0.0, 0.0, 0.0, 1.710395554446724E9, 0.0, 2024-03-13 22:52:34.446
96.0, -894.9935884461738, -564.277975264471, -582.8260090947151, -572.4253473179415, 0.6400000303983688, 0.7360000349581242, 0.3840000182390213, 0.0, 0.0, 0.0, 0.0, 0.0, 1.7103955544624867E9, 0.0, 2024-03-13 22:52:34.462
96.0, -895.027247545775, -556.5363823561929, -564.4144816128537, -560.0948971640319, 0.6400000303983688, 0.7360000349581242, 0.3840000182390213, 0.0, 0.0, 0.0, 0.0, 0.0, 1.7103955544624867E9, 0.0, 2024-03-13 22:52:34.462
97.0, -882.2891482966952, -557.3928194460459, -551.2388140689582, -551.3397913677618, 0.6400000303983688, 0.7360000349581242, 0.3840000182390213, 0.0, 0.0, 0.0, 0.0, 0.0, 1.7103955544630651E9, 0.0, 2024-03-13 22:52:34.463
97.0, -902.3537115589716, -583.7217151341029, -590.1674327077344, -579.0187909398228, 0.6400000303983688, 0.7360000349581242, 0.3840000182390213, 0.0, 0.0, 0.0, 0.0, 0.0, 1.7103955544630651E9, 0.0, 2024-03-13 22:52:34.463
98.0, -894.9487096467055, -569.0987063073553, -585.1036081677303, -575.6192218801007, 0.6400000303983688, 0.7360000349581242, 0.3840000182390213, 0.0, 0.0, 0.0, 0.0, 0.0, 1.710395554476915E9, 0.0, 2024-03-13 22:52:34.476
98.0, -896.6092252270319, -578.0819460009225, -578.0202376516536, -581.2028925139457, 0.6400000303983688, 0.7360000349581242, 0.3840000182390213, 0.0, 0.0, 0.0, 0.0, 0.0, 1.710395554476915E9, 0.0, 2024-03-13 22:52:34.476
99.0, -890.3635923010297, -571.9447701736353, -568.9061014596373, -574.3027770956978, 0.6400000303983688, 0.7360000349581242, 0.3840000182390213, 0.0, 0.0, 0.0, 0.0, 0.0, 1.7103955544926171E9, 0.0, 2024-03-13 22:52:34.492
99.0, -871.3536808262579, -545.7392911841162, -551.6576828639954, -550.9022230729461, 0.6400000303983688, 0.7360000349581242, 0.3840000182390213, 0.0, 0.0, 0.0, 0.0, 0.0, 1.7103955544926171E9, 0.0, 2024-03-13 22:52:34.492
100.0, -874.0464087943546, -555.8071018648334, -559.3169979732484, -564.6687948098406, 0.6400000303983688, 0.7360000349581242, 0.3840000182390213, 0.0, 0.0, 0.0, 0.0, 0.0, 1.7103955545079472E9, 0.0, 2024-03-13 22:52:34.507
100.0, -893.8603987595998, -573.5192680549808, -582.006971004419, -585.2569440659136, 0.6400000303983688, 0.7360000349581242, 0.3840000182390213, 0.0, 0.0, 0.0, 0.0, 0.0, 1.7103955545079472E9, 0.0, 2024-03-13 22:52:34.507
0.0, -871.4415684752166, -548.4451088020578, -570.5348278903402, -566.8641160838306, 0.6400000303983688, 0.7360000349581242, 0.3840000182390213, 0.0, 0.0, 0.0, 0.0, 0.0, 1.7103955545086E9, 0.0, 2024-03-13 22:52:34.508
1.0, -879.228040182963, -547.5288333129138, -558.4736505332403, -557.0132196005434, 0.6400000303983688, 0.7360000349581242, 0.3840000182390213, 0.0, 0.0, 0.0, 0.0, 0.0, 1.7103955545094168E9, 0.0, 2024-03-13 22:52:34.509
1.0, -893.4770590141416, -570.5404377402738, -571.3202068810351, -577.3694950593635, 0.6400000303983688, 0.7360000349581242, 0.3840000182390213, 0.0, 0.0, 0.0, 0.0, 0.0, 1.7103955545094168E9, 0.0, 2024-03-13 22:52:34.509
2.0, -905.4709181720391, -584.6174211734906, -601.1085100281052, -589.3109956178814, 0.6400000303983688, 0.7360000349581242, 0.3840000182390213, 0.0, 0.0, 0.0, 0.0, 0.0, 1.7103955545214849E9, 0.0, 2024-03-13 22:52:34.521
2.0, -869.4968204982579, -544.3199991509318, -562.1985908891074, -558.3109648851678, 0.6400000303983688, 0.7360000349581242, 0.3840000182390213, 0.0, 0.0, 0.0, 0.0, 0.0, 1.7103955545214849E9, 0.0, 2024-03-13 22:52:34.521
3.0, -877.5114261033013, -554.5112265301868, -555.8220614646561, -559.1823615748435, 0.6400000303983688, 0.7360000349581242, 0.3840000182390213, 0.0, 0.0, 0.0, 0.0, 0.0, 1.7103955545371644E9, 0.0, 2024-03-13 22:52:34.537
3.0, -891.3340963395312, -570.9032080359757, -566.3124808403663, -572.0962361218408, 0.6400000303983688, 0.7360000349581242, 0.3840000182390213, 0.0, 0.0, 0.0, 0.0, 0.0, 1.7103955545371644E9, 0.0, 2024-03-13 22:52:34.537
4.0, -881.1653083600104, -557.2376135978848, -558.7466632300057, -555.7341738156974, 0.6400000303983688, 0.7360000349581242, 0.3840000182390213, 0.0, 0.0, 0.0, 0.0, 0.0, 1.7103955545379164E9, 0.0, 2024-03-13 22:52:34.537
4.0, -871.2283941777423, -552.6188371526077, -570.0037620966323, -561.2430464504287, 0.6400000303983688, 0.7360000349581242, 0.3840000182390213, 0.0, 0.0, 0.0, 0.0, 0.0, 1.7103955545379164E9, 0.0, 2024-03-13 22:52:34.537
5.0, -879.3140578819439, -561.03361205291, -568.2834081170149, -570.4880791408941, 0.6400000303983688, 0.7360000349581242, 0.3840000182390213, 0.0, 0.0, 0.0, 0.0, 0.0, 1.710395554551503E9, 0.0, 2024-03-13 22:52:34.551
5.0, -902.8567281030118, -577.4854319579899, -589.7915727621876, -580.7428848193958, 0.6400000303983688, 0.7360000349581242, 0.3840000182390213, 0.0, 0.0, 0.0, 0.0, 0.0, 1.710395554551503E9, 0.0, 2024-03-13 22:52:34.551
6.0, -880.3649697694927, -557.5442853942513, -562.4229848864488, -559.152442375198, 0.6400000303983688, 0.7360000349581242, 0.3840000182390213, 0.0, 0.0, 0.0, 0.0, 0.0, 1.7103955545672083E9, 0.0, 2024-03-13 22:52:34.567
6.0, -863.9617685638368, -548.901376596652, -538.8129964661784, -548.1122577060014, 0.6400000303983688, 0.7360000349581242, 0.3840000182390213, 0.0, 0.0, 0.0, 0.0, 0.0, 1.7103955545672083E9, 0.0, 2024-03-13 22:52:34.567
7.0, -878.4725803919137, -562.4659937359393, -577.9323500026949, -574.759044890292, 0.6400000303983688, 0.7360000349581242, 0.3840000182390213, 0.0, 0.0, 0.0, 0.0, 0.0, 1.7103955545679836E9, 0.0, 2024-03-13 22:52:34.567
7.0, -852.4092176007107, -541.1448240885511, -565.7402761471458, -559.6872480688617, 0.6400000303983688, 0.7360000349581242, 0.3840000182390213, 0.0, 0.0, 0.0, 0.0, 0.0, 1.7103955545679836E9, 0.0, 2024-03-13 22:52:34.567
8.0, -877.4515877040103, -559.6648086691275, -562.6511187837459, -563.7151203211397, 0.6400000303983688, 0.7360000349581242, 0.3840000182390213, 0.0, 0.0, 0.0, 0.0, 0.0, 1.7103955545815182E9, 0.0, 2024-03-13 22:52:34.581
8.0, -895.1637538941577, -566.0488178934902, -554.3148817825131, -567.6532349744812, 0.6400000303983688, 0.7360000349581242, 0.3840000182390213, 0.0, 0.0, 0.0, 0.0, 0.0, 1.7103955545815182E9, 0.0, 2024-03-13 22:52:34.581
9.0, -873.6817685486749, -550.0869248826057, -562.939091080334, -563.7637390205637, 0.6400000303983688, 0.7360000349581242, 0.3840000182390213, 0.0, 0.0, 0.0, 0.0, 0.0, 1.710395554597504E9, 0.0, 2024-03-13 22:52:34.597
9.0, -848.4711029473692, -543.7477944577113, -563.3504800754599, -566.497605888173, 0.6400000303983688, 0.7360000349581242, 0.3840000182390213, 0.0, 0.0, 0.0, 0.0, 0.0, 1.710395554597504E9, 0.0, 2024-03-13 22:52:34.597
10.0, -882.2461394472048, -565.4766132002696, -567.1950972299092, -575.1105954861268, 0.6400000303983688, 0.7360000349581242, 0.3840000182390213, 0.0, 0.0, 0.0, 0.0, 0.0, 1.710395554598237E9, 0.0, 2024-03-13 22:52:34.598
10.0, -907.2436307510361, -580.0846624271944, -599.2834388497286, -593.6044007670134, 0.6400000303983688, 0.7360000349581242, 0.3840000182390213, 0.0, 0.0, 0.0, 0.0, 0.0, 1.710395554598237E9, 0.0, 2024-03-13 22:52:34.598
11.0, -894.3334961039945, -564.2274866150692, -569.9214842976071, -572.6871403148398, 0.6400000303983688, 0.7360000349581242, 0.3840000182390213, 0.0, 0.0, 0.0, 0.0, 0.0, 1.7103955546114976E9, 0.0, 2024-03-13 22:52:34.611
11.0, -876.6923880130053, -558.6400760812685, -566.5069556380622, -570.4805993409827, 0.6400000303983688, 0.7360000349581242, 0.3840000182390213, 0.0, 0.0, 0.0, 0.0, 0.0, 1.7103955546114976E9, 0.0, 2024-03-13 22:52:34.611
12.0, -853.0300409933552, -534.8243931634352, -549.6213073381223, -549.2978059919551, 0.6400000303983688, 0.7360000349581242, 0.3840000182390213, 0.0, 0.0, 0.0, 0.0, 0.0, 1.7103955546275663E9, 0.0, 2024-03-13 22:52:34.627
12.0, -871.8866165699437, -550.1056243823841, -568.9977290085517, -557.5181060945615, 0.6400000303983688, 0.7360000349581242, 0.3840000182390213, 0.0, 0.0, 0.0, 0.0, 0.0, 1.7103955546275663E9, 0.0, 2024-03-13 22:52:34.627
13.0, -880.9745734622702, -562.0770441405475, -576.3541122213937, -573.4949587052688, 0.6400000303983688, 0.7360000349581242, 0.3840000182390213, 0.0, 0.0, 0.0, 0.0, 0.0, 1.7103955546282303E9, 0.0, 2024-03-13 22:52:34.628
13.0, -880.3724495694041, -569.1903338562697, -577.5060014077462, -576.8384292656556, 0.6400000303983688, 0.7360000349581242, 0.3840000182390213, 0.0, 0.0, 0.0, 0.0, 0.0, 1.7103955546282303E9, 0.0, 2024-03-13 22:52:34.628
14.0, -881.9020686512813, -559.4291949719191, -574.8132734396495, -566.9538736827672, 0.6400000303983688, 0.7360000349581242, 0.3840000182390213, 0.0, 0.0, 0.0, 0.0, 0.0, 1.7103955546414957E9, 0.0, 2024-03-13 22:52:34.641
14.0, -865.0912183504552, -548.8639775970951, -556.2110110600479, -558.0155127886683, 0.6400000303983688, 0.7360000349581242, 0.3840000182390213, 0.0, 0.0, 0.0, 0.0, 0.0, 1.7103955546414957E9, 0.0, 2024-03-13 22:52:34.641
15.0, -883.9702333267778, -564.2835851144046, -560.2650626120158, -566.5499644875526, 0.6400000303983688, 0.7360000349581242, 0.3840000182390213, 0.0, 0.0, 0.0, 0.0, 0.0, 1.7103955546573007E9, 0.0, 2024-03-13 22:52:34.657
15.0, -884.751872417517, -560.5249856589362, -560.2463631122373, -561.5684177465737, 0.6400000303983688, 0.7360000349581242, 0.3840000182390213, 0.0, 0.0, 0.0, 0.0, 0.0, 1.7103955546573007E9, 0.0, 2024-03-13 22:52:34.657
16.0, -857.6301179388538, -536.8813381390646, -548.177705955226, -544.8660245444626, 0.6400000303983688, 0.7360000349581242, 0.3840000182390213, 0.0, 0.0, 0.0, 0.0, 0.0, 1.710395554657987E9, 0.0, 2024-03-13 22:52:34.657
16.0, -865.1323572499678, -550.1579829817638, -559.9060322162695, -560.0874173641205, 0.6400000303983688, 0.7360000349581242, 0.3840000182390213, 0.0, 0.0, 0.0, 0.0, 0.0, 1.710395554657987E9, 0.0, 2024-03-13 22:52:34.657
17.0, -890.2308258526027, -563.1877944273874, -567.1689179302193, -566.9052549833432, 0.6400000303983688, 0.7360000349581242, 0.3840000182390213, 0.0, 0.0, 0.0, 0.0, 0.0, 1.7103955546715047E9, 0.0, 2024-03-13 22:52:34.671
17.0, -866.5011606337503, -540.1126117007807, -559.7339968183078, -552.6898952517658, 0.6400000303983688, 0.7360000349581242, 0.3840000182390213, 0.0, 0.0, 0.0, 0.0, 0.0, 1.7103955546715047E9, 0.0, 2024-03-13 22:52:34.671
18.0, -876.2884788177907, -545.69254243467, -552.7815228006802, -552.2859860565513, 0.6400000303983688, 0.7360000349581242, 0.3840000182390213, 0.0, 0.0, 0.0, 0.0, 0.0, 1.710395554687252E9, 0.0, 2024-03-13 22:52:34.687
18.0, -881.6776746539399, -557.4769671950489, -559.6217998196371, -560.1846547629684, 0.6400000303983688, 0.7360000349581242, 0.3840000182390213, 0.0, 0.0, 0.0, 0.0, 0.0, 1.710395554687252E9, 0.0, 2024-03-13 22:52:34.687
19.0, -863.2736269719899, -535.7518883524463, -555.9417382632382, -546.1936890287325, 0.6400000303983688, 0.7360000349581242, 0.3840000182390213, 0.0, 0.0, 0.0, 0.0, 0.0, 1.7103955546879556E9, 0.0, 2024-03-13 22:52:34.687
19.0, -866.2244080370292, -539.0093412138522, -563.7656089705415, -558.8345508789644, 0.6400000303983688, 0.7360000349581242, 0.3840000182390213, 0.0, 0.0, 0.0, 0.0, 0.0, 1.7103955546879556E9, 0.0, 2024-03-13 22:52:34.687
20.0, -883.2933114347979, -560.1846547629684, -570.007501996588, -569.5044854525477, 0.6400000303983688, 0.7360000349581242, 0.3840000182390213, 0.0, 0.0, 0.0, 0.0, 0.0, 1.7103955547016761E9, 0.0, 2024-03-13 22:52:34.701
20.0, -896.2483248813078, -558.2249471861869, -570.7330425879918, -562.0022461414337, 0.6400000303983688, 0.7360000349581242, 0.3840000182390213, 0.0, 0.0, 0.0, 0.0, 0.0, 1.7103955547016761E9, 0.0, 2024-03-13 22:52:34.701
21.0, -868.9694946045056, -545.8159591332078, -556.7233773539774, -552.7946124505252, 0.6400000303983688, 0.7360000349581242, 0.3840000182390213, 0.0, 0.0, 0.0, 0.0, 0.0, 1.7103955547172508E9, 0.0, 2024-03-13 22:52:34.717
21.0, -835.400152602233, -520.0143893389031, -522.0582446646877, -529.8839853219688, 0.6400000303983688, 0.7360000349581242, 0.3840000182390213, 0.0, 0.0, 0.0, 0.0, 0.0, 1.7103955547172508E9, 0.0, 2024-03-13 22:52:34.717
22.0, -866.9275092286989, -542.8389987684786, -562.9428309802897, -559.2908186735585, 0.6400000303983688, 0.7360000349581242, 0.3840000182390213, 0.0, 0.0, 0.0, 0.0, 0.0, 1.710395554717953E9, 0.0, 2024-03-13 22:52:34.717
22.0, -884.7855315171182, -553.3406378440559, -565.3176674521528, -561.1495489515364, 0.6400000303983688, 0.7360000349581242, 0.3840000182390213, 0.0, 0.0, 0.0, 0.0, 0.0, 1.710395554717953E9, 0.0, 2024-03-13 22:52:34.717
23.0, -904.1021147882566, -563.1877944273874, -576.2194758229889, -569.7887178491801, 0.6400000303983688, 0.7360000349581242, 0.3840000182390213, 0.0, 0.0, 0.0, 0.0, 0.0, 1.7103955547315352E9, 0.0, 2024-03-13 22:52:34.731
23.0, -900.2126188343391, -576.9992449637502, -583.2355281398632, -584.6735196728259, 0.6400000303983688, 0.7360000349581242, 0.3840000182390213, 0.0, 0.0, 0.0, 0.0, 0.0, 1.7103955547315352E9, 0.0, 2024-03-13 22:52:34.731
24.0, -883.5850236313418, -562.36127653718, -587.2185215926729, -572.2046932205558, 0.6400000303983688, 0.7360000349581242, 0.3840000182390213, 0.0, 0.0, 0.0, 0.0, 0.0, 1.7103955547483196E9, 0.0, 2024-03-13 22:52:34.748
24.0, -878.1098100962117, -552.4019229551777, -570.8414996867068, -569.5044854525477, 0.6400000303983688, 0.7360000349581242, 0.3840000182390213, 0.0, 0.0, 0.0, 0.0, 0.0, 1.7103955547483196E9, 0.0, 2024-03-13 22:52:34.748
25.0, -861.7103487905115, -540.9877482904121, -550.4216459286399, -548.7069017989561, 0.6400000303983688, 0.7360000349581242, 0.3840000182390213, 0.0, 0.0, 0.0, 0.0, 0.0, 1.710395554748618E9, 0.0, 2024-03-13 22:52:34.748
25.0, -895.7957969866693, -565.4766132002696, -576.8515189155005, -573.154627809301, 0.6400000303983688, 0.7360000349581242, 0.3840000182390213, 0.0, 0.0, 0.0, 0.0, 0.0, 1.710395554748618E9, 0.0, 2024-03-13 22:52:34.748
26.0, -849.4359971359372, -527.2436159532517, -539.0149510637857, -536.3278329456225, 0.6400000303983688, 0.7360000349581242, 0.3840000182390213, 0.0, 0.0, 0.0, 0.0, 0.0, 1.7103955547617505E9, 0.0, 2024-03-13 22:52:34.761
26.0, -898.6306411530823, -578.0576366512105, -596.7253472800367, -593.0770748732612, 0.6400000303983688, 0.7360000349581242, 0.3840000182390213, 0.0, 0.0, 0.0, 0.0, 0.0, 1.7103955547617505E9, 0.0, 2024-03-13 22:52:34.761
27.0, -897.8303025625646, -562.3163977377117, -577.4199837087654, -576.206386173144, 0.6400000303983688, 0.7360000349581242, 0.3840000182390213, 0.0, 0.0, 0.0, 0.0, 0.0, 1.7103955547775853E9, 0.0, 2024-03-13 22:52:34.777
27.0, -870.4093560874462, -544.993181142956, -569.7756281993352, -559.7358667682856, 0.6400000303983688, 0.7360000349581242, 0.3840000182390213, 0.0, 0.0, 0.0, 0.0, 0.0, 1.7103955547775853E9, 0.0, 2024-03-13 22:52:34.777
28.0, -883.8804757278413, -557.1665554987267, -573.0966593599878, -571.5763900279999, 0.6400000303983688, 0.7360000349581242, 0.3840000182390213, 0.0, 0.0, 0.0, 0.0, 0.0, 1.7103955547780287E9, 0.0, 2024-03-13 22:52:34.778
28.0, -868.5244465097785, -555.135789822787, -567.6962438239716, -576.2624846724793, 0.6400000303983688, 0.7360000349581242, 0.3840000182390213, 0.0, 0.0, 0.0, 0.0, 0.0, 1.7103955547780287E9, 0.0, 2024-03-13 22:52:34.778
29.0, -877.0476785087958, -547.6896490110084, -561.3608532990329, -565.906701695174, 0.6400000303983688, 0.7360000349581242, 0.3840000182390213, 0.0, 0.0, 0.0, 0.0, 0.0, 1.7103955547915485E9, 0.0, 2024-03-13 22:52:34.791
29.0, -874.6391829373315, -546.3545047268271, -569.4988756026141, -564.2125270152465, 0.6400000303983688, 0.7360000349581242, 0.3840000182390213, 0.0, 0.0, 0.0, 0.0, 0.0, 1.7103955547915485E9, 0.0, 2024-03-13 22:52:34.791
30.0, -891.6482479358092, -561.7180137448013, -577.4835620080121, -578.7569979429245, 0.6400000303983688, 0.7360000349581242, 0.3680000174790621, 0.0, 0.0, 0.0, 0.0, 0.0, 1.7103955548072813E9, 0.0, 2024-03-13 22:52:34.807
30.0, -875.1440694313496, -551.8147586621344, -569.1211457070895, -569.3661091541871, 0.6400000303983688, 0.7360000349581242, 0.3680000174790621, 0.0, 0.0, 0.0, 0.0, 0.0, 1.7103955548072813E9, 0.0, 2024-03-13 22:52:34.807
31.0, -884.3330036224797, -552.0615920592099, -573.8147201514803, -569.2127732560039, 0.6400000303983688, 0.7360000349581242, 0.3680000174790621, 0.0, 0.0, 0.0, 0.0, 0.0, 1.7103955548080237E9, 0.0, 2024-03-13 22:52:34.808
31.0, -899.3300024447963, -574.9609994878992, -588.8865169729106, -590.8518343996257, 0.6400000303983688, 0.7360000349581242, 0.3680000174790621, 0.0, 0.0, 0.0, 0.0, 0.0, 1.7103955548080237E9, 0.0, 2024-03-13 22:52:34.808
32.0, -902.0975284120068, -569.6428617509082, -583.9049702319317, -586.0647624563426, 0.6400000303983688, 0.7360000349581242, 0.3680000174790621, 0.0, 0.0, 0.0, 0.0, 0.0, 1.710395554821533E9, 0.0, 2024-03-13 22:52:34.821
32.0, -888.7460855701938, -556.7140276040882, -562.7595758824609, -559.9565208656713, 0.6400000303983688, 0.7360000349581242, 0.3680000174790621, 0.0, 0.0, 0.0, 0.0, 0.0, 1.710395554821533E9, 0.0, 2024-03-13 22:52:34.821
33.0, -879.5646311789751, -549.226747892797, -559.2702492238022, -562.79510493204, 0.6400000303983688, 0.7360000349581242, 0.3680000174790621, 0.0, 0.0, 0.0, 0.0, 0.0, 1.7103955548372948E9, 0.0, 2024-03-13 22:52:34.837
33.0, -887.0631305901334, -562.7577059324831, -556.3456474584527, -569.5082253525034, 0.6400000303983688, 0.7360000349581242, 0.3680000174790621, 0.0, 0.0, 0.0, 0.0, 0.0, 1.7103955548372948E9, 0.0, 2024-03-13 22:52:34.837
34.0, -869.0181133039296, -543.8786909561604, -551.9624847103842, -549.769033386372, 0.6400000303983688, 0.7360000349581242, 0.3680000174790621, 0.0, 0.0, 0.0, 0.0, 0.0, 1.7103955548379607E9, 0.0, 2024-03-13 22:52:34.837
34.0, -862.8285788772628, -537.2590680345893, -557.4601376452483, -553.5538121415302, 0.6400000303983688, 0.7360000349581242, 0.3680000174790621, 0.0, 0.0, 0.0, 0.0, 0.0, 1.7103955548379607E9, 0.0, 2024-03-13 22:52:34.837
35.0, -871.8641771702096, -549.1968286931515, -552.0260630096309, -557.0169595004991, 0.6400000303983688, 0.7360000349581242, 0.3680000174790621, 0.0, 0.0, 0.0, 0.0, 0.0, 1.710395554851502E9, 0.0, 2024-03-13 22:52:34.851
35.0, -905.5831151707098, -574.7066862909123, -591.0967978467233, -585.6608532611281, 0.6400000303983688, 0.7360000349581242, 0.3680000174790621, 0.0, 0.0, 0.0, 0.0, 0.0, 1.710395554851502E9, 0.0, 2024-03-13 22:52:34.851
36.0, -883.0427381377667, -548.6321037998423, -566.9594835327007, -560.274412361905, 0.6400000303983688, 0.7360000349581242, 0.3680000174790621, 0.0, 0.0, 0.0, 0.0, 0.0, 1.7103955548673406E9, 0.0, 2024-03-13 22:52:34.867
36.0, -886.9434537915513, -556.6280099051073, -569.2782215052284, -570.1178290452808, 0.6400000303983688, 0.7360000349581242, 0.3680000174790621, 0.0, 0.0, 0.0, 0.0, 0.0, 1.7103955548673406E9, 0.0, 2024-03-13 22:52:34.867
37.0, -892.8150967219844, -561.3365439493209, -571.1294719832949, -568.1431618686765, 0.6400000303983688, 0.7360000349581242, 0.3680000174790621, 0.0, 0.0, 0.0, 0.0, 0.0, 1.7103955548680348E9, 0.0, 2024-03-13 22:52:34.868
37.0, -857.8993907356635, -529.4725963268429, -549.2772365421988, -539.9218768030405, 0.6400000303983688, 0.7360000349581242, 0.3680000174790621, 0.0, 0.0, 0.0, 0.0, 0.0, 1.7103955548680348E9, 0.0, 2024-03-13 22:52:34.868
38.0, -853.153457691893, -527.4979291502386, -555.8856397639029, -551.5492257652804, 0.6400000303983688, 0.7360000349581242, 0.3680000174790621, 0.0, 0.0, 0.0, 0.0, 0.0, 1.710395554881496E9, 0.0, 2024-03-13 22:52:34.881
38.0, -875.9631075216457, -553.9726809365675, -566.6864708359353, -570.0729502458125, 0.6400000303983688, 0.7360000349581242, 0.3680000174790621, 0.0, 0.0, 0.0, 0.0, 0.0, 1.710395554881496E9, 0.0, 2024-03-13 22:52:34.881
39.0, -893.5032383138314, -572.4477867176756, -570.3066939930432, -575.664100679569, 0.6400000303983688, 0.7360000349581242, 0.3680000174790621, 0.0, 0.0, 0.0, 0.0, 0.0, 1.7103955548977077E9, 0.0, 2024-03-13 22:52:34.897
39.0, -871.0937577793375, -551.8596374616027, -548.9443854461424, -556.0595451118425, 0.6400000303983688, 0.7360000349581242, 0.3680000174790621, 0.0, 0.0, 0.0, 0.0, 0.0, 1.7103955548977077E9, 0.0, 2024-03-13 22:52:34.897
40.0, -854.8812914714217, -532.3747586924583, -531.3705955543555, -544.5892719477415, 0.6400000303983688, 0.7360000349581242, 0.3680000174790621, 0.0, 0.0, 0.0, 0.0, 0.0, 1.7103955548983705E9, 0.0, 2024-03-13 22:52:34.898
40.0, -879.5384518792853, -552.1775289578363, -589.0847316705622, -580.6456474205479, 0.6400000303983688, 0.7360000349581242, 0.3680000174790621, 0.0, 0.0, 0.0, 0.0, 0.0, 1.7103955548983705E9, 0.0, 2024-03-13 22:52:34.898
41.0, -881.8983287513256, -554.2793527329341, -578.7214688933454, -572.2757513197139, 0.6400000303983688, 0.7360000349581242, 0.3680000174790621, 0.0, 0.0, 0.0, 0.0, 0.0, 1.7103955549118528E9, 0.0, 2024-03-13 22:52:34.911
41.0, -870.4317954871804, -536.6045855423436, -536.1838467973284, -543.9160899557173, 0.6400000303983688, 0.7360000349581242, 0.3680000174790621, 0.0, 0.0, 0.0, 0.0, 0.0, 1.7103955549118528E9, 0.0, 2024-03-13 22:52:34.911
42.0, -873.4087558519095, -536.7766209403053, -550.5525424270891, -550.1505031818524, 0.6400000303983688, 0.7360000349581242, 0.3680000174790621, 0.0, 0.0, 0.0, 0.0, 0.0, 1.710395554927668E9, 0.0, 2024-03-13 22:52:34.927
42.0, -888.2898177755997, -547.4577752137557, -566.798667834606, -555.764093015343, 0.6400000303983688, 0.7360000349581242, 0.3680000174790621, 0.0, 0.0, 0.0, 0.0, 0.0, 1.710395554927668E9, 0.0, 2024-03-13 22:52:34.927
43.0, -847.3379132607952, -515.9229387873784, -534.923500512261, -529.48381602671, 0.6400000303983688, 0.7360000349581242, 0.3680000174790621, 0.0, 0.0, 0.0, 0.0, 0.0, 1.7103955549281735E9, 0.0, 2024-03-13 22:52:34.928
43.0, -863.2474476723, -530.557167313993, -541.9507725290023, -537.0122346375138, 0.6400000303983688, 0.7360000349581242, 0.3680000174790621, 0.0, 0.0, 0.0, 0.0, 0.0, 1.7103955549281735E9, 0.0, 2024-03-13 22:52:34.928
44.0, -895.2834306927398, -559.9565208656713, -569.1136659071781, -565.8468632958829, 0.6400000303983688, 0.7360000349581242, 0.3680000174790621, 0.0, 0.0, 0.0, 0.0, 0.0, 1.7103955549415321E9, 0.0, 2024-03-13 22:52:34.941
44.0, -870.8843233818188, -538.4221769208089, -554.7561899772845, -553.4229156430811, 0.6400000303983688, 0.7360000349581242, 0.3680000174790621, 0.0, 0.0, 0.0, 0.0, 0.0, 1.7103955549415321E9, 0.0, 2024-03-13 22:52:34.941
45.0, -848.486062547192, -529.966263120994, -539.6918729557656, -549.9410687843338, 0.6400000303983688, 0.7360000349581242, 0.3680000174790621, 0.0, 0.0, 0.0, 0.0, 0.0, 1.7103955549572449E9, 0.0, 2024-03-13 22:52:34.957
45.0, -851.8070937078446, -525.8860322693363, -545.3802607883699, -540.0452935015783, 0.6400000303983688, 0.7360000349581242, 0.3680000174790621, 0.0, 0.0, 0.0, 0.0, 0.0, 1.7103955549572449E9, 0.0, 2024-03-13 22:52:34.957
46.0, -862.6303641796112, -527.9541969448328, -538.6783600677736, -530.2878945171833, 0.6400000303983688, 0.7360000349581242, 0.3680000174790621, 0.0, 0.0, 0.0, 0.0, 0.0, 1.7103955549580233E9, 0.0, 2024-03-13 22:52:34.958
46.0, -882.8632229398936, -558.9579675775021, -571.6044392776676, -567.0772903813049, 0.6400000303983688, 0.7360000349581242, 0.3680000174790621, 0.0, 0.0, 0.0, 0.0, 0.0, 1.7103955549580233E9, 0.0, 2024-03-13 22:52:34.958
47.0, -870.581391485408, -542.5323269721121, -557.4975366448052, -554.6982215279713, 0.6400000303983688, 0.7360000349581242, 0.3680000174790621, 0.0, 0.0, 0.0, 0.0, 0.0, 1.7103955549715474E9, 0.0, 2024-03-13 22:52:34.971
47.0, -869.9792675925419, -540.9204300912097, -558.5821076319553, -552.3757436554879, 0.6400000303983688, 0.7360000349581242, 0.3680000174790621, 0.0, 0.0, 0.0, 0.0, 0.0, 1.7103955549715474E9, 0.0, 2024-03-13 22:52:34.971
48.0, -882.062884349376, -538.5829926189035, -543.8992604059167, -547.6634697113186, 0.6400000303983688, 0.7360000349581242, 0.3680000174790621, 0.0, 0.0, 0.0, 0.0, 0.0, 1.7103955550035856E9, 0.0, 2024-03-13 22:52:35.003
48.0, -873.1544426549226, -537.6667171297595, -554.2026847838424, -551.0667786709964, 0.6400000303983688, 0.7360000349581242, 0.3680000174790621, 0.0, 0.0, 0.0, 0.0, 0.0, 1.7103955550035856E9, 0.0, 2024-03-13 22:52:35.003
49.0, -864.6162510560825, -541.97882177867, -566.207763641607, -552.760953350924, 0.6400000303983688, 0.7360000349581242, 0.3680000174790621, 0.0, 0.0, 0.0, 0.0, 0.0, 1.7103955550047092E9, 0.0, 2024-03-13 22:52:35.004
49.0, -853.3815915891901, -535.8229464516044, -547.2389910663478, -546.1301107294858, 0.6400000303983688, 0.7360000349581242, 0.3680000174790621, 0.0, 0.0, 0.0, 0.0, 0.0, 1.7103955550047092E9, 0.0, 2024-03-13 22:52:35.004
50.0, -879.9012221749872, -554.2456936333328, -564.8352203578688, -563.2102338271216, 0.6400000303983688, 0.7360000349581242, 0.3840000182390213, 0.0, 0.0, 0.0, 0.0, 0.0, 1.7103955550051196E9, 0.0, 2024-03-13 22:52:35.005
50.0, -868.2140348134562, -536.0473404489458, -550.3917267289944, -541.1934427879751, 0.6400000303983688, 0.7360000349581242, 0.3840000182390213, 0.0, 0.0, 0.0, 0.0, 0.0, 1.7103955550051196E9, 0.0, 2024-03-13 22:52:35.005
51.0, -885.4250544095412, -551.9680945603177, -560.4782369094901, -557.9481945894659, 0.6400000303983688, 0.7360000349581242, 0.3840000182390213, 0.0, 0.0, 0.0, 0.0, 0.0, 1.7103955550058892E9, 0.0, 2024-03-13 22:52:35.005
51.0, -888.0429843785241, -561.1271095518023, -570.4936889908276, -572.3580291187391, 0.6400000303983688, 0.7360000349581242, 0.3840000182390213, 0.0, 0.0, 0.0, 0.0, 0.0, 1.7103955550058892E9, 0.0, 2024-03-13 22:52:35.005
52.0, -883.1923341359943, -559.586270770058, -579.3235927862115, -573.4089410062879, 0.6400000303983688, 0.7360000349581242, 0.3840000182390213, 0.0, 0.0, 0.0, 0.0, 0.0, 1.7103955550165436E9, 0.0, 2024-03-13 22:52:35.016
52.0, -861.0296869985759, -539.3234928101301, -556.656059154775, -548.0898183062673, 0.6400000303983688, 0.7360000349581242, 0.3840000182390213, 0.0, 0.0, 0.0, 0.0, 0.0, 1.7103955550165436E9, 0.0, 2024-03-13 22:52:35.016
53.0, -864.7396677546203, -535.3442392572761, -542.8371288185008, -541.8067863807082, 0.6400000303983688, 0.7360000349581242, 0.3840000182390213, 0.0, 0.0, 0.0, 0.0, 0.0, 1.7103955550481117E9, 0.0, 2024-03-13 22:52:35.048
53.0, -864.1936423610896, -541.1074250889942, -556.3232080587186, -554.7468402273953, 0.6400000303983688, 0.7360000349581242, 0.3840000182390213, 0.0, 0.0, 0.0, 0.0, 0.0, 1.7103955550481117E9, 0.0, 2024-03-13 22:52:35.048
54.0, -871.1274168789387, -551.6315035643056, -571.6306185773574, -558.1464092871174, 0.6400000303983688, 0.7360000349581242, 0.3840000182390213, 0.0, 0.0, 0.0, 0.0, 0.0, 1.7103955550486157E9, 0.0, 2024-03-13 22:52:35.048
54.0, -892.856235621497, -570.3908417420462, -580.0379136777483, -569.1641545565799, 0.6400000303983688, 0.7360000349581242, 0.3840000182390213, 0.0, 0.0, 0.0, 0.0, 0.0, 1.7103955550486157E9, 0.0, 2024-03-13 22:52:35.048
55.0, -860.9100101999938, -554.5748048294336, -560.4782369094901, -561.5459783468395, 0.6400000303983688, 0.7360000349581242, 0.3840000182390213, 0.0, 0.0, 0.0, 0.0, 0.0, 1.710395555049403E9, 0.0, 2024-03-13 22:52:35.049
55.0, -879.710487277247, -557.0393989002332, -567.1763977301307, -564.0442315172404, 0.6400000303983688, 0.7360000349581242, 0.3840000182390213, 0.0, 0.0, 0.0, 0.0, 0.0, 1.710395555049403E9, 0.0, 2024-03-13 22:52:35.049
56.0, -893.6416146121919, -563.1167363282293, -562.7371364827268, -564.8483100077137, 0.6400000303983688, 0.7360000349581242, 0.3840000182390213, 0.0, 0.0, 0.0, 0.0, 0.0, 1.710395555061798E9, 0.0, 2024-03-13 22:52:35.061
56.0, -879.6805680776015, -561.1981676509604, -562.2958282879554, -566.3779290895909, 0.6400000303983688, 0.7360000349581242, 0.3840000182390213, 0.0, 0.0, 0.0, 0.0, 0.0, 1.710395555061798E9, 0.0, 2024-03-13 22:52:35.061
57.0, -833.5863011237234, -522.8043547058478, -547.972011457663, -541.9264631792903, 0.6400000303983688, 0.7360000349581242, 0.3840000182390213, 0.0, 0.0, 0.0, 0.0, 0.0, 1.7103955550775423E9, 0.0, 2024-03-13 22:52:35.077
57.0, -873.7715261476114, -550.5544123770669, -570.3141737929545, -565.5663707992062, 0.6400000303983688, 0.7360000349581242, 0.3840000182390213, 0.0, 0.0, 0.0, 0.0, 0.0, 1.7103955550775423E9, 0.0, 2024-03-13 22:52:35.077
58.0, -913.3995060781017, -581.0271172160283, -590.2179213571362, -591.9027462871745, 0.6400000303983688, 0.7360000349581242, 0.3840000182390213, 0.0, 0.0, 0.0, 0.0, 0.0, 1.7103955550781667E9, 0.0, 2024-03-13 22:52:35.078
58.0, -904.0497561888769, -578.6560206441209, -587.4204761902802, -587.8898336347193, 0.6400000303983688, 0.7360000349581242, 0.3840000182390213, 0.0, 0.0, 0.0, 0.0, 0.0, 1.7103955550781667E9, 0.0, 2024-03-13 22:52:35.078
59.0, -888.8956815684214, -562.7128271330148, -578.0856859008782, -570.4618998412043, 0.6400000303983688, 0.7360000349581242, 0.3840000182390213, 0.0, 0.0, 0.0, 0.0, 0.0, 1.710395555091552E9, 0.0, 2024-03-13 22:52:35.091
59.0, -858.4080171296373, -540.3968440974131, -551.0088102216832, -552.9404685487971, 0.6400000303983688, 0.7360000349581242, 0.3840000182390213, 0.0, 0.0, 0.0, 0.0, 0.0, 1.710395555091552E9, 0.0, 2024-03-13 22:52:35.091
60.0, -874.8673168346286, -559.3656166726723, -563.3243007757701, -567.6345354747027, 0.6400000303983688, 0.7360000349581242, 0.3680000174790621, 0.0, 0.0, 0.0, 0.0, 0.0, 1.7103955551072662E9, 0.0, 2024-03-13 22:52:35.107
60.0, -875.2899255296215, -552.4804608542472, -560.8522269050591, -560.2519729621708, 0.6400000303983688, 0.7360000349581242, 0.3680000174790621, 0.0, 0.0, 0.0, 0.0, 0.0, 1.7103955551072662E9, 0.0, 2024-03-13 22:52:35.107
61.0, -866.9312491286546, -548.9537351960316, -558.1781984367408, -552.132650158368, 0.6400000303983688, 0.7360000349581242, 0.3680000174790621, 0.0, 0.0, 0.0, 0.0, 0.0, 1.7103955551080377E9, 0.0, 2024-03-13 22:52:35.108
61.0, -884.2806450231001, -553.9352819370106, -555.6762053663842, -557.8210379909724, 0.6400000303983688, 0.7360000349581242, 0.3680000174790621, 0.0, 0.0, 0.0, 0.0, 0.0, 1.7103955551080377E9, 0.0, 2024-03-13 22:52:35.108
62.0, -878.2706257943064, -549.8251318857074, -570.7592218876816, -564.2349664149806, 0.6400000303983688, 0.7360000349581242, 0.3680000174790621, 0.0, 0.0, 0.0, 0.0, 0.0, 1.7103955551215196E9, 0.0, 2024-03-13 22:52:35.121
62.0, -855.3525188658386, -528.844293134287, -563.2382830767892, -547.0987448180094, 0.6400000303983688, 0.7360000349581242, 0.3680000174790621, 0.0, 0.0, 0.0, 0.0, 0.0, 1.7103955551215196E9, 0.0, 2024-03-13 22:52:35.121
63.0, -861.9497023876756, -525.7962746703997, -541.9432927290909, -536.9187371386215, 0.6400000303983688, 0.7360000349581242, 0.3680000174790621, 0.0, 0.0, 0.0, 0.0, 0.0, 1.7103955551372619E9, 0.0, 2024-03-13 22:52:35.137
63.0, -885.8775823041797, -554.5972442291677, -571.828833275009, -566.1647547921166, 0.6400000303983688, 0.7360000349581242, 0.3680000174790621, 0.0, 0.0, 0.0, 0.0, 0.0, 1.7103955551372619E9, 0.0, 2024-03-13 22:52:35.137
64.0, -870.5252929860726, -543.6916959583759, -567.3372134282254, -553.0713650472462, 0.6400000303983688, 0.7360000349581242, 0.3680000174790621, 0.0, 0.0, 0.0, 0.0, 0.0, 1.7103955551379912E9, 0.0, 2024-03-13 22:52:35.137
64.0, -874.3138116411865, -536.9224770385772, -549.2061784430407, -540.6062784949318, 0.6400000303983688, 0.7360000349581242, 0.3680000174790621, 0.0, 0.0, 0.0, 0.0, 0.0, 1.7103955551379912E9, 0.0, 2024-03-13 22:52:35.137
65.0, -895.8032767865807, -562.8362438315526, -569.9551433972083, -568.6143892630935, 0.6400000303983688, 0.7360000349581242, 0.3680000174790621, 0.0, 0.0, 0.0, 0.0, 0.0, 1.7103955551515157E9, 0.0, 2024-03-13 22:52:35.151
65.0, -868.1467166142538, -537.5096413316205, -543.7085255081765, -548.3403916032985, 0.6400000303983688, 0.7360000349581242, 0.3680000174790621, 0.0, 0.0, 0.0, 0.0, 0.0, 1.7103955551515157E9, 0.0, 2024-03-13 22:52:35.151
66.0, -889.5987827600911, -556.3587371082976, -561.0616613025777, -560.4053088603541, 0.6400000303983688, 0.7360000349581242, 0.3680000174790621, 0.0, 0.0, 0.0, 0.0, 0.0, 1.7103955551672907E9, 0.0, 2024-03-13 22:52:35.167
66.0, -880.4322879686952, -550.831164973788, -566.0245085437782, -563.337390425615, 0.6400000303983688, 0.7360000349581242, 0.3680000174790621, 0.0, 0.0, 0.0, 0.0, 0.0, 1.7103955551672907E9, 0.0, 2024-03-13 22:52:35.167
67.0, -877.6797216013074, -543.5682792598382, -551.6558129140176, -549.985947583802, 0.6400000303983688, 0.7360000349581242, 0.3680000174790621, 0.0, 0.0, 0.0, 0.0, 0.0, 1.7103955551680253E9, 0.0, 2024-03-13 22:52:35.168
67.0, -881.4046619571745, -551.5454858653247, -576.9599760142155, -564.4481407124549, 0.6400000303983688, 0.7360000349581242, 0.3680000174790621, 0.0, 0.0, 0.0, 0.0, 0.0, 1.7103955551680253E9, 0.0, 2024-03-13 22:52:35.168
68.0, -883.19607403595, -556.7215074039996, -582.4800683488138, -572.1111957216635, 0.6400000303983688, 0.7360000349581242, 0.3680000174790621, 0.0, 0.0, 0.0, 0.0, 0.0, 1.7103955551817691E9, 0.0, 2024-03-13 22:52:35.181
68.0, -900.2462779339403, -568.8313034605235, -574.674897141289, -581.9209533054382, 0.6400000303983688, 0.7360000349581242, 0.3680000174790621, 0.0, 0.0, 0.0, 0.0, 0.0, 1.7103955551817691E9, 0.0, 2024-03-13 22:52:35.181
69.0, -902.1237077116966, -572.9564131116495, -606.5725038633682, -594.827348052524, 0.6400000303983688, 0.7360000349581242, 0.3680000174790621, 0.0, 0.0, 0.0, 0.0, 0.0, 1.7103955551976602E9, 0.0, 2024-03-13 22:52:35.197
69.0, -885.4138347096741, -560.8690564548597, -579.3011533864774, -577.4704723581672, 0.6400000303983688, 0.7360000349581242, 0.3680000174790621, 0.0, 0.0, 0.0, 0.0, 0.0, 1.7103955551976602E9, 0.0, 2024-03-13 22:52:35.197
70.0, -865.865377641283, -536.3839314449579, -537.3806147831492, -554.3391911322251, 0.6400000303983688, 0.7360000349581242, 0.3680000174790621, 0.0, 0.0, 0.0, 0.0, 0.0, 1.7103955551982148E9, 0.0, 2024-03-13 22:52:35.198
70.0, -874.3549505406991, -552.7759129507467, -586.6762360990979, -576.2699644723907, 0.6400000303983688, 0.7360000349581242, 0.3680000174790621, 0.0, 0.0, 0.0, 0.0, 0.0, 1.7103955551982148E9, 0.0, 2024-03-13 22:52:35.198
71.0, -901.334588821046, -569.8934350479394, -588.8528578733094, -584.1312341792509, 0.6400000303983688, 0.7360000349581242, 0.3680000174790621, 0.0, 0.0, 0.0, 0.0, 0.0, 1.7103955552114909E9, 0.0, 2024-03-13 22:52:35.211
71.0, -867.8213453181088, -539.8134197043255, -549.0565824448131, -550.9471018724144, 0.6400000303983688, 0.7360000349581242, 0.3680000174790621, 0.0, 0.0, 0.0, 0.0, 0.0, 1.7103955552114909E9, 0.0, 2024-03-13 22:52:35.211
