%OpenBCI Raw EXG Data
%Number of channels = 4
%Sample Rate = 200 Hz
%Board = OpenBCI_GUI$BoardGanglionBLE
Sample Index, EXG Channel 0, EXG Channel 1, EXG Channel 2, EXG Channel 3, Accel Channel 0, Accel Channel 1, Accel Channel 2, Other, Other, Other, Other, Other, Timestamp, Other, Timestamp (Formatted)
2.0, 69.98848777078092, -200.94295466924086, 21.7512581422925, -157.4254787848331, 0.01600000075995922, 0.0, 0.0, 0.0, 0.0, 0.0, 0.0, 0.0, 1.7103879689528832E9, 0.0, 2024-03-13 20:46:08.952
2.0, 105.65591364819556, -354.61544384853914, 113.74905715230852, -375.9104341962375, 0.01600000075995922, 0.0, 0.0, 0.0, 0.0, 0.0, 0.0, 0.0, 1.7103879689528832E9, 0.0, 2024-03-13 20:46:08.952
3.0, -42.892912591807544, -412.5913729616441, -78.26488637272269, -371.8975215437822, 0.01600000075995922, 0.0, 0.0, 0.0, 0.0, 0.0, 0.0, 0.0, 1.710387968967373E9, 0.0, 2024-03-13 20:46:08.967
3.0, -147.24921100540087, -319.7595762615092, -199.68260838417336, -317.0257093938999, 0.01600000075995922, 0.0, 0.0, 0.0, 0.0, 0.0, 0.0, 0.0, 1.710387968967373E9, 0.0, 2024-03-13 20:46:08.967
4.0, -236.00825665378943, -139.64412444550544, -250.08524008700624, -173.1611078483984, 0.01600000075995922, 0.0, 0.0, 0.0, 0.0, 0.0, 0.0, 0.0, 1.7103879689680903E9, 0.0, 2024-03-13 20:46:08.968
4.0, -64.98076173011214, -32.995267359074205, -91.65372821409255, -18.31242013303563, 0.01600000075995922, 0.0, 0.0, 0.0, 0.0, 0.0, 0.0, 0.0, 1.7103879689680903E9, 0.0, 2024-03-13 20:46:08.968
5.0, -280.02687913225964, 17.766394739504904, -334.41250428790227, 40.669542068149894, 0.01600000075995922, 0.0, 0.0, 0.0, 0.0, 0.0, 0.0, 0.0, 1.7103879689818625E9, 0.0, 2024-03-13 20:46:08.981
5.0, -135.81633684085682, 47.67811458511278, -154.725271016825, 20.193589810747653, 0.01600000075995922, 0.0, 0.0, 0.0, 0.0, 0.0, 0.0, 0.0, 1.7103879689818625E9, 0.0, 2024-03-13 20:46:08.981
6.0, -11.799384360201657, -17.815013438928872, -6.110996527597308, -13.929257384967059, 0.01600000075995922, 0.0, 0.0, 0.0, 0.0, 0.0, 0.0, 0.0, 1.7103879689973407E9, 0.0, 2024-03-13 20:46:08.997
6.0, 68.06243929360062, -212.77412817906588, 5.62480953335762, -171.6015695668757, 0.01600000075995922, 0.0, 0.0, 0.0, 0.0, 0.0, 0.0, 0.0, 1.7103879689973407E9, 0.0, 2024-03-13 20:46:08.997
7.0, -121.23820681357756, -335.5456939744763, -154.2802229220979, -345.7818001531996, 0.01600000075995922, 0.0, 0.0, 0.0, 0.0, 0.0, 0.0, 0.0, 1.7103879690123332E9, 0.0, 2024-03-13 20:46:09.012
7.0, 113.6443399535492, -360.3374907807447, -379.55309675307944, -377.6158285760321, 0.01600000075995922, 0.0, 0.0, 0.0, 0.0, 0.0, 0.0, 0.0, 1.7103879690123332E9, 0.0, 2024-03-13 20:46:09.012
8.0, -52.45957667846233, -424.39075732184574, -571.3725654804148, -380.9443395365961, 0.01600000075995922, 0.0, 0.0, 0.0, 0.0, 0.0, 0.0, 0.0, 1.710387969013192E9, 0.0, 2024-03-13 20:46:09.013
8.0, -162.7623160216026, -340.4786220160313, -696.4591293483973, -328.0696339630522, 0.01600000075995922, 0.0, 0.0, 0.0, 0.0, 0.0, 0.0, 0.0, 1.710387969013192E9, 0.0, 2024-03-13 20:46:09.013
9.0, -248.03577491128817, -150.20934182032943, -743.8137425873429, -180.37163496296853, 0.01600000075995922, 0.0, 0.0, 0.0, 0.0, 0.0, 0.0, 0.0, 1.7103879690272884E9, 0.0, 2024-03-13 20:46:09.027
9.0, -83.20529421418905, -44.91432851785794, -579.5442468835972, -21.311819897498935, 0.01600000075995922, 0.0, 0.0, 0.0, 0.0, 0.0, 0.0, 0.0, 1.7103879690272884E9, 0.0, 2024-03-13 20:46:09.027
10.0, -276.8965828693472, 13.330873392056674, -819.9917647847906, 47.446240787860006, 0.01600000075995922, 0.0, 1.0400000493973494, 0.0, 0.0, 0.0, 0.0, 0.0, 1.7103879690282316E9, 0.0, 2024-03-13 20:46:09.028
10.0, -147.60076160123572, 36.77256631432101, -663.1478404430673, 11.8386533097364, 0.01600000075995922, 0.0, 1.0400000493973494, 0.0, 0.0, 0.0, 0.0, 0.0, 1.7103879690282316E9, 0.0, 2024-03-13 20:46:09.028
11.0, -18.340469382703304, -25.57156594702974, -513.9763208604418, -26.42800303688273, 0.01600000075995922, -0.19200000911951065, 1.0400000493973494, 0.0, 0.0, 0.0, 0.0, 0.0, 1.7103879690416138E9, 0.0, 2024-03-13 20:46:09.041
11.0, 66.60013841092587, -212.6170523809269, -476.22203080775216, -169.80267768818885, 0.01600000075995922, -0.19200000911951065, 1.0400000493973494, 0.0, 0.0, 0.0, 0.0, 0.0, 1.7103879690416138E9, 0.0, 2024-03-13 20:46:09.041
12.0, -112.67009601509199, -329.44591714674607, -643.9845930701122, -341.7838471005671, 0.01600000075995922, -0.19200000911951065, 1.0400000493973494, 0.0, 0.0, 0.0, 0.0, 0.0, 1.7103879690573566E9, 0.0, 2024-03-13 20:46:09.057
12.0, 96.39966125786304, -375.0165981068276, -884.3479632223025, -394.78196937264875, 0.01600000075995922, -0.19200000911951065, 1.0400000493973494, 0.0, 0.0, 0.0, 0.0, 0.0, 1.7103879690573566E9, 0.0, 2024-03-13 20:46:09.057
13.0, -49.41529811453074, -433.179522217717, -1078.407632023096, -397.8412075364031, 0.01600000075995922, -0.19200000911951065, 1.0400000493973494, 0.0, 0.0, 0.0, 0.0, 0.0, 1.7103879690581882E9, 0.0, 2024-03-13 20:46:09.058
13.0, -171.37530561955646, -347.09076513769105, -1197.8993055573665, -338.9639625339769, 0.01600000075995922, -0.19200000911951065, 1.0400000493973494, 0.0, 0.0, 0.0, 0.0, 0.0, 1.7103879690581882E9, 0.0, 2024-03-13 20:46:09.058
14.0, -248.55188110517338, -154.97771426383406, -1235.6648153099231, -186.1273409947753, 0.01600000075995922, -0.19200000911951065, 1.0400000493973494, 0.0, 0.0, 0.0, 0.0, 0.0, 1.7103879690716271E9, 0.0, 2024-03-13 20:46:09.071
14.0, -89.22279324289411, -65.9026470691897, -1085.5583207383752, -48.86366287106648, 0.01600000075995922, -0.19200000911951065, 1.0400000493973494, 0.0, 0.0, 0.0, 0.0, 0.0, 1.7103879690716271E9, 0.0, 2024-03-13 20:46:09.071
15.0, -301.381707879249, -9.269342040177435, -844.5030690943822, 18.203963034320623, 0.01600000075995922, -0.19200000911951065, 1.0400000493973494, 0.0, 0.0, 0.0, 0.0, 0.0, 1.7103879690874848E9, 0.0, 2024-03-13 20:46:09.087
15.0, -157.06644838908687, 37.7412004028447, -662.0819689556956, 4.328934198711067, 0.01600000075995922, -0.19200000911951065, 1.0400000493973494, 0.0, 0.0, 0.0, 0.0, 0.0, 1.7103879690874848E9, 0.0, 2024-03-13 20:46:09.087
16.0, -16.51913810428232, -25.234974951017648, -512.5701184771024, -31.749880673829466, 0.01600000075995922, -0.19200000911951065, 1.0400000493973494, 0.0, 0.0, 0.0, 0.0, 0.0, 1.7103879690880313E9, 0.0, 2024-03-13 20:46:09.088
16.0, 52.904624773189425, -218.94496310595423, -489.9212843454443, -186.53872998990119, 0.01600000075995922, -0.19200000911951065, 1.0400000493973494, 0.0, 0.0, 0.0, 0.0, 0.0, 1.7103879690880313E9, 0.0, 2024-03-13 20:46:09.088
17.0, -111.05445923423395, -324.60648660408333, -645.1103029567748, -344.5438932678662, 0.01600000075995922, -0.19200000911951065, 1.0400000493973494, 0.0, 0.0, 0.0, 0.0, 0.0, 1.7103879691016638E9, 0.0, 2024-03-13 20:46:09.101
17.0, 108.61791441310197, -359.25291979359463, -877.4441079040989, -387.8631544546224, 0.01600000075995922, -0.19200000911951065, 1.0400000493973494, 0.0, 0.0, 0.0, 0.0, 0.0, 1.7103879691016638E9, 0.0, 2024-03-13 20:46:09.101
18.0, -50.72426309902221, -429.4471020619385, -1076.07019455079, -396.4013460534625, 0.01600000075995922, -0.19200000911951065, 1.0400000493973494, 0.0, 0.0, 0.0, 0.0, 0.0, 1.7103879691173413E9, 0.0, 2024-03-13 20:46:09.117
18.0, -169.53153494140133, -345.76310065342113, -1204.862999274861, -341.3724581054412, 0.01600000075995922, -0.19200000911951065, 1.0400000493973494, 0.0, 0.0, 0.0, 0.0, 0.0, 1.7103879691173413E9, 0.0, 2024-03-13 20:46:09.117
19.0, -255.96810271730646, -146.32358576636761, -1240.1152962571941, -184.73235831130296, 0.01600000075995922, -0.19200000911951065, 1.0400000493973494, 0.0, 0.0, 0.0, 0.0, 0.0, 1.7103879691180382E9, 0.0, 2024-03-13 20:46:09.118
19.0, -72.11275094561279, -42.4085955475457, -1076.829394241795, -29.820092296693474, 0.01600000075995922, -0.19200000911951065, 1.0400000493973494, 0.0, 0.0, 0.0, 0.0, 0.0, 1.7103879691180382E9, 0.0, 2024-03-13 20:46:09.118
20.0, -283.50498609105125, 3.177045012358576, -834.7269706102088, 30.575552087742835, 0.01600000075995922, -0.19200000911951065, 1.0400000493973494, 0.0, 0.0, 0.0, 0.0, 0.0, 1.7103879691317716E9, 0.0, 2024-03-13 20:46:09.131
20.0, -144.7958366344683, 51.44793374044821, -652.803277165629, 14.939030373003334, 0.01600000075995922, -0.19200000911951065, 1.0400000493973494, 0.0, 0.0, 0.0, 0.0, 0.0, 1.7103879691317716E9, 0.0, 2024-03-13 20:46:09.131
21.0, -14.682847226038575, -20.242208510171622, -516.4745740308426, -28.941215807106346, 0.01600000075995922, -0.19200000911951065, 1.0400000493973494, 0.0, 0.0, 0.0, 0.0, 0.0, 1.7103879691472533E9, 0.0, 2024-03-13 20:46:09.147
21.0, 64.66661013383418, -216.79078073147684, -492.9954821090214, -185.77579039894044, 0.01600000075995922, -0.19200000911951065, 1.0400000493973494, 0.0, 0.0, 0.0, 0.0, 0.0, 1.7103879691472533E9, 0.0, 2024-03-13 20:46:09.147
22.0, -98.05082708830014, -316.3226082022302, -637.7950586434454, -338.23468204261735, 0.01600000075995922, -0.19200000911951065, 1.0400000493973494, 0.0, 0.0, 0.0, 0.0, 0.0, 1.710387969148204E9, 0.0, 2024-03-13 20:46:09.148
22.0, 103.49051157385111, -369.68724066996947, -882.2835384467617, -394.92408557096496, 0.01600000075995922, -0.19200000911951065, 1.0400000493973494, 0.0, 0.0, 0.0, 0.0, 0.0, 1.710387969148204E9, 0.0, 2024-03-13 20:46:09.148
23.0, -49.01512881927192, -428.7739200699143, -1067.408586253412, -398.1067404332571, 0.01600000075995922, -0.19200000911951065, 1.0400000493973494, 0.0, 0.0, 0.0, 0.0, 0.0, 1.7103879691617513E9, 0.0, 2024-03-13 20:46:09.161
23.0, -173.07322019943967, -348.72136151837185, -1196.5155425737612, -341.83246579999104, 0.01600000075995922, -0.19200000911951065, 1.0400000493973494, 0.0, 0.0, 0.0, 0.0, 0.0, 1.7103879691617513E9, 0.0, 2024-03-13 20:46:09.161
24.0, -253.31277374876663, -163.42614826373756, -1242.1011831336655, -195.74262378085405, 0.01600000075995922, -0.19200000911951065, 1.0400000493973494, 0.0, 0.0, 0.0, 0.0, 0.0, 1.7103879691772766E9, 0.0, 2024-03-13 20:46:09.177
24.0, -78.23870707303286, -59.615875243674964, -1078.0037228278816, -40.4077490712516, 0.01600000075995922, -0.19200000911951065, 1.0400000493973494, 0.0, 0.0, 0.0, 0.0, 0.0, 1.7103879691772766E9, 0.0, 2024-03-13 20:46:09.177
25.0, -287.6637548417784, 6.157745277043432, -1317.7705789371394, 39.34187758387998, 0.01600000075995922, -0.19200000911951065, 1.0400000493973494, 0.0, 0.0, 0.0, 0.0, 0.0, 1.710387969178003E9, 0.0, 2024-03-13 20:46:09.178
25.0, -127.59229683829471, 65.99614456808195, -1132.1817835359834, 33.10372445778921, 0.01600000075995922, -0.19200000911951065, 1.0400000493973494, 0.0, 0.0, 0.0, 0.0, 0.0, 1.710387969178003E9, 0.0, 2024-03-13 20:46:09.178
26.0, 5.950180829502642, -0.9592843386344612, -981.405846872367, -8.846733345184475, 0.01600000075995922, -0.19200000911951065, 1.0400000493973494, 0.0, 0.0, 0.0, 0.0, 0.0, 1.7103879691916213E9, 0.0, 2024-03-13 20:46:09.191
26.0, 63.765294244512916, -211.9476102888584, -971.1286017941311, -175.57708321977407, 0.01600000075995922, -0.19200000911951065, 1.0400000493973494, 0.0, 0.0, 0.0, 0.0, 0.0, 1.7103879691916213E9, 0.0, 2024-03-13 20:46:09.191
27.0, -107.45667547686026, -316.240330403205, -1116.676158319693, -332.42287751147524, 0.01600000075995922, -0.19200000911951065, 1.0400000493973494, 0.0, 0.0, 0.0, 0.0, 0.0, 1.7103879692072852E9, 0.0, 2024-03-13 20:46:09.207
27.0, 107.21919182967395, -358.2655862052925, -1355.9923564842902, -385.26018408546224, 0.01600000075995922, -0.19200000911951065, 1.0400000493973494, 0.0, 0.0, 0.0, 0.0, 0.0, 1.7103879692072852E9, 0.0, 2024-03-13 20:46:09.207
28.0, -61.16606377530843, -440.9360747258179, -1569.0133180604316, -407.538768121507, 0.01600000075995922, -0.19200000911951065, 1.0400000493973494, 0.0, 0.0, 0.0, 0.0, 0.0, 1.7103879692080216E9, 0.0, 2024-03-13 20:46:09.208
28.0, -180.85221210727468, -354.94081514468417, -1701.2954494431615, -348.16785632492974, 0.01600000075995922, -0.19200000911951065, 1.0400000493973494, 0.0, 0.0, 0.0, 0.0, 0.0, 1.7103879692080216E9, 0.0, 2024-03-13 20:46:09.208
29.0, -240.6158133991994, -143.67199669778347, -1724.060220473446, -183.20647912938148, 0.01600000075995922, -0.19200000911951065, 1.0400000493973494, 0.0, 0.0, 0.0, 0.0, 0.0, 1.710387969221607E9, 0.0, 2024-03-13 20:46:09.221
29.0, -74.27441312000155, -47.19192759087309, -1569.189093358349, -34.91009613638744, 0.01600000075995922, -0.19200000911951065, 1.0400000493973494, 0.0, 0.0, 0.0, 0.0, 0.0, 1.710387969221607E9, 0.0, 2024-03-13 20:46:09.221
30.0, -290.6407152065076, 1.164978836197406, -1339.0580894849263, 22.6955828811042, 0.01600000075995922, -0.19200000911951065, 1.0400000493973494, 0.0, 0.0, 0.0, 0.0, 0.0, 1.7103879692373464E9, 0.0, 2024-03-13 20:46:09.237
30.0, -146.8340821103193, 50.273605154361576, -1150.5521721183322, 14.737075775396079, 0.01600000075995922, -0.19200000911951065, 1.0400000493973494, 0.0, 0.0, 0.0, 0.0, 0.0, 1.7103879692373464E9, 0.0, 2024-03-13 20:46:09.237
31.0, -12.943793746642768, -17.676637140568346, -1006.2948810774833, -30.310019190888852, 0.01600000075995922, -0.19200000911951065, 1.0400000493973494, 0.0, 0.0, 0.0, 0.0, 0.0, 1.7103879692380772E9, 0.0, 2024-03-13 20:46:09.238
31.0, 53.342193068005145, -219.18805660307407, -976.6449542287737, -183.3074564281851, 0.01600000075995922, -0.19200000911951065, 1.0400000493973494, 0.0, 0.0, 0.0, 0.0, 0.0, 1.7103879692380772E9, 0.0, 2024-03-13 20:46:09.238
32.0, -101.66731034545228, -313.4728044359945, -1120.5581744736992, -327.53108836943284, 0.01600000075995922, -0.19200000911951065, 1.0400000493973494, 0.0, 0.0, 0.0, 0.0, 0.0, 1.7103879692516448E9, 0.0, 2024-03-13 20:46:09.251
32.0, 131.99976893607527, -336.19269666681066, -1330.7779509830289, -358.86771009815857, 0.01600000075995922, -0.19200000911951065, 1.0400000493973494, 0.0, 0.0, 0.0, 0.0, 0.0, 1.7103879692516448E9, 0.0, 2024-03-13 20:46:09.251
33.0, -38.55088874325156, -422.24031484732404, -1553.316957946401, -386.7673637676053, 0.01600000075995922, -0.19200000911951065, 1.0400000493973494, 0.0, 0.0, 0.0, 0.0, 0.0, 1.7103879692674422E9, 0.0, 2024-03-13 20:46:09.267
33.0, -150.1588531709276, -321.4724504412152, -1666.2002282589674, -314.8303881199099, 0.01600000075995922, -0.19200000911951065, 1.0400000493973494, 0.0, 0.0, 0.0, 0.0, 0.0, 1.7103879692674422E9, 0.0, 2024-03-13 20:46:09.267
34.0, -232.11502079991624, -126.00096940714866, -1700.9326791474596, -154.58128486853093, 0.01600000075995922, -0.19200000911951065, 1.0400000493973494, 0.0, 0.0, 0.0, 0.0, 0.0, 1.7103879692680955E9, 0.0, 2024-03-13 20:46:09.268
34.0, -64.4384762365371, -35.426202330272645, -1550.5382122793235, -17.197929946240038, 0.01600000075995922, -0.19200000911951065, 1.0400000493973494, 0.0, 0.0, 0.0, 0.0, 0.0, 1.7103879692680955E9, 0.0, 2024-03-13 20:46:09.268
35.0, -279.83240433456376, 19.288534021470696, -1317.2582126432098, 45.901662106160074, 0.01600000075995922, -0.19200000911951065, 1.0400000493973494, 0.0, 0.0, 0.0, 0.0, 0.0, 1.7103879692819111E9, 0.0, 2024-03-13 20:46:09.281
35.0, -123.77385898353532, 78.91375901503488, -1120.8685861700214, 47.39388218848035, 0.01600000075995922, -0.19200000911951065, 1.0400000493973494, 0.0, 0.0, 0.0, 0.0, 0.0, 1.7103879692819111E9, 0.0, 2024-03-13 20:46:09.281
36.0, 10.636275473982096, 4.179338200483471, -979.8650080906227, 3.0386687139980495, 0.01600000075995922, -0.19200000911951065, 1.0400000493973494, 0.0, 0.0, 0.0, 0.0, 0.0, 1.710387969297522E9, 0.0, 2024-03-13 20:46:09.297
36.0, 60.01417458895594, -209.12772572226822, -968.3274167273194, -172.24109245929867, 0.01600000075995922, -0.19200000911951065, 1.0400000493973494, 0.0, 0.0, 0.0, 0.0, 0.0, 1.710387969297522E9, 0.0, 2024-03-13 20:46:09.297
37.0, -93.89953813748434, -301.40788717893884, -1112.599667367991, -313.15491293976083, 0.01600000075995922, -0.19200000911951065, 1.0400000493973494, 0.0, 0.0, 0.0, 0.0, 0.0, 1.710387969298122E9, 0.0, 2024-03-13 20:46:09.298
37.0, 130.99747574795038, -330.85585943004116, -1346.6500863949768, -360.9358747736551, 0.01600000075995922, -0.19200000911951065, 1.0400000493973494, 0.0, 0.0, 0.0, 0.0, 0.0, 1.710387969298122E9, 0.0, 2024-03-13 20:46:09.298
38.0, -44.19065787643194, -417.7000763011165, -1560.131055665668, -383.33413560828194, 0.01600000075995922, -0.19200000911951065, 1.0400000493973494, 0.0, 0.0, 0.0, 0.0, 0.0, 1.7103879693118813E9, 0.0, 2024-03-13 20:46:09.311
38.0, -140.6071486840956, -315.5372292115353, -1680.606322888285, -313.22223113896325, 0.01600000075995922, -0.19200000911951065, 1.0400000493973494, 0.0, 0.0, 0.0, 0.0, 0.0, 1.7103879693118813E9, 0.0, 2024-03-13 20:46:09.311
39.0, -245.6197995399125, -138.30524026136845, -1718.6261458378285, -172.3046707585454, 0.01600000075995922, -0.19200000911951065, 1.0400000493973494, 0.0, 0.0, 0.0, 0.0, 0.0, 1.7103879693273082E9, 0.0, 2024-03-13 20:46:09.327
39.0, -68.73188138566911, -39.472774082329124, -1552.8494704519399, -17.605579041410238, 0.01600000075995922, -0.19200000911951065, 1.0400000493973494, 0.0, 0.0, 0.0, 0.0, 0.0, 1.7103879693273082E9, 0.0, 2024-03-13 20:46:09.327
40.0, -277.8240780583583, 14.31072718044743, -1319.4198748175986, 42.90226234169677, 0.01600000075995922, -0.19200000911951065, 1.0400000493973494, 0.0, 0.0, 0.0, 0.0, 0.0, 1.710387969328028E9, 0.0, 2024-03-13 20:46:09.328
40.0, -121.57479780958965, 81.99543657852337, -1119.5334418858401, 52.06127733318135, 0.01600000075995922, -0.19200000911951065, 1.0400000493973494, 0.0, 0.0, 0.0, 0.0, 0.0, 1.710387969328028E9, 0.0, 2024-03-13 20:46:09.328
41.0, -1.4249018831178546, -0.282362446654588, -974.7525648511946, -3.177045012358576, 0.01600000075995922, -0.19200000911951065, 1.0400000493973494, 0.0, 0.0, 0.0, 0.0, 0.0, 1.710387969341665E9, 0.0, 2024-03-13 20:46:09.341
41.0, 54.81197375059128, -218.1408846154809, -967.4672397375107, -177.91078079212457, 0.01600000075995922, -0.19200000911951065, 1.0400000493973494, 0.0, 0.0, 0.0, 0.0, 0.0, 1.710387969341665E9, 0.0, 2024-03-13 20:46:09.341
42.0, -104.9958213060163, -315.78780250856653, -1120.378659275826, -328.0733738630079, 0.01600000075995922, -0.19200000911951065, 1.0400000493973494, 0.0, 0.0, 0.0, 0.0, 0.0, 1.71038796935728E9, 0.0, 2024-03-13 20:46:09.357
42.0, 120.1330663766712, -343.1077716848813, -1343.463691632729, -363.98763313749805, 0.01600000075995922, -0.19200000911951065, 1.0400000493973494, 0.0, 0.0, 0.0, 0.0, 0.0, 1.71038796935728E9, 0.0, 2024-03-13 20:46:09.357
43.0, -51.300207692198455, -434.80637869844213, -1552.3745031575672, -395.3279947661795, 0.01600000075995922, -0.19200000911951065, 1.0400000493973494, 0.0, 0.0, 0.0, 0.0, 0.0, 1.7103879693579924E9, 0.0, 2024-03-13 20:46:09.357
43.0, -168.33850685553625, -343.8482718761079, -1683.6992201516405, -329.00086905201897, 0.01600000075995922, -0.19200000911951065, 1.0400000493973494, 0.0, 0.0, 0.0, 0.0, 0.0, 1.7103879693579924E9, 0.0, 2024-03-13 20:46:09.357
44.0, -230.29742942145094, -126.30764120351523, -1705.92170568835, -156.6270101442933, 0.01600000075995922, -0.19200000911951065, 1.0400000493973494, 0.0, 0.0, 0.0, 0.0, 0.0, 1.7103879693716128E9, 0.0, 2024-03-13 20:46:09.371
44.0, -70.47467476502061, -43.69512113230303, -1550.2614596826024, -21.5474335947074, 0.01600000075995922, -0.19200000911951065, 1.0400000493973494, 0.0, 0.0, 0.0, 0.0, 0.0, 1.7103879693716128E9, 0.0, 2024-03-13 20:46:09.371
45.0, -285.24029967049137, 6.404578674118966, -1311.984953705687, 40.44888797076419, 0.01600000075995922, -0.19200000911951065, 1.0400000493973494, 0.0, 0.0, 0.0, 0.0, 0.0, 1.7103879693873343E9, 0.0, 2024-03-13 20:46:09.387
45.0, -122.93986129341647, 73.89481327449903, -1119.3950655874796, 45.022785616572946, 0.01600000075995922, -0.19200000911951065, 1.0400000493973494, 0.0, 0.0, 0.0, 0.0, 0.0, 1.7103879693873343E9, 0.0, 2024-03-13 20:46:09.387
46.0, 3.2050942620262504, -6.341000374872237, -983.9788980418816, -9.88642553286627, 0.01600000075995922, -0.19200000911951065, 1.0400000493973494, 0.0, 0.0, 0.0, 0.0, 0.0, 1.7103879693880804E9, 0.0, 2024-03-13 20:46:09.388
46.0, 49.85286640934646, -223.5487799514085, -967.8038307335228, -178.09777578990906, 0.01600000075995922, -0.19200000911951065, 1.0400000493973494, 0.0, 0.0, 0.0, 0.0, 0.0, 1.7103879693880804E9, 0.0, 2024-03-13 20:46:09.388
47.0, -98.27896098559722, -315.0622619171627, -1114.8772664410062, -324.3596532070078, 0.01600000075995922, -0.19200000911951065, 1.0400000493973494, 0.0, 0.0, 0.0, 0.0, 0.0, 1.7103879694017022E9, 0.0, 2024-03-13 20:46:09.401
47.0, 116.82699481584132, -340.20186941931024, -1341.6834992538206, -362.68614795291796, 0.01600000075995922, -0.19200000911951065, 1.0400000493973494, 0.0, 0.0, 0.0, 0.0, 0.0, 1.7103879694017022E9, 0.0, 2024-03-13 20:46:09.401
48.0, -54.59505955316126, -433.60961071262136, -1556.0620445138775, -395.4962902641855, 0.01600000075995922, -0.19200000911951065, 1.0400000493973494, 0.0, 0.0, 0.0, 0.0, 0.0, 1.7103879694173439E9, 0.0, 2024-03-13 20:46:09.417
48.0, -160.41365884942934, -337.11645195586607, -1684.6790739400312, -328.2192299612798, 0.01600000075995922, -0.19200000911951065, 1.0400000493973494, 0.0, 0.0, 0.0, 0.0, 0.0, 1.7103879694173439E9, 0.0, 2024-03-13 20:46:09.417
49.0, -236.93575184280053, -131.45000364258885, -1710.0542951393872, -161.406602287665, 0.01600000075995922, -0.19200000911951065, 1.0400000493973494, 0.0, 0.0, 0.0, 0.0, 0.0, 1.710387969418202E9, 0.0, 2024-03-13 20:46:09.418
49.0, -63.97846854198724, -41.27540586097166, -1550.8598436755128, -19.57276641810313, 0.01600000075995922, -0.19200000911951065, 1.0400000493973494, 0.0, 0.0, 0.0, 0.0, 0.0, 1.710387969418202E9, 0.0, 2024-03-13 20:46:09.418
50.0, -288.87548242742196, 3.936244703363627, -1328.171240713913, 31.17767598060891, 0.01600000075995922, -0.19200000911951065, 1.0400000493973494, 0.0, 0.0, 0.0, 0.0, 0.0, 1.7103879694315984E9, 0.0, 2024-03-13 20:46:09.431
50.0, -139.02143110288307, 70.28206991730258, -1137.0249539786018, 37.97307420009747, 0.01600000075995922, -0.19200000911951065, 1.0400000493973494, 0.0, 0.0, 0.0, 0.0, 0.0, 1.7103879694315984E9, 0.0, 2024-03-13 20:46:09.431
51.0, 11.765725260600448, 4.990896490868181, -980.5419299826026, -6.105386677663773, 0.01600000075995922, -0.19200000911951065, 1.0400000493973494, 0.0, 0.0, 0.0, 0.0, 0.0, 1.710387969447333E9, 0.0, 2024-03-13 20:46:09.447
51.0, 45.249049563892186, -237.50234668608755, -982.2024455629289, -192.3168754214421, 0.01600000075995922, -0.19200000911951065, 1.0400000493973494, 0.0, 0.0, 0.0, 0.0, 0.0, 1.710387969447333E9, 0.0, 2024-03-13 20:46:09.447
52.0, -118.2575065488927, -316.81627499638125, -1124.7992210234515, -326.8130275779404, 0.01600000075995922, -0.19200000911951065, 1.0400000493973494, 0.0, 0.0, 0.0, 0.0, 0.0, 1.7103879694480565E9, 0.0, 2024-03-13 20:46:09.448
52.0, 118.23693709913641, -339.13225803198293, -1348.9688243675046, -363.7744588400237, 0.01600000075995922, -0.19200000911951065, 1.0400000493973494, 0.0, 0.0, 0.0, 0.0, 0.0, 1.7103879694480565E9, 0.0, 2024-03-13 20:46:09.448
53.0, -46.75996914599091, -434.87369689764455, -1560.097396566067, -399.3895261180587, 0.01600000075995922, -0.19200000911951065, 1.0400000493973494, 0.0, 0.0, 0.0, 0.0, 0.0, 1.7103879694616024E9, 0.0, 2024-03-13 20:46:09.461
53.0, -175.15260457480326, -344.38681746972725, -1694.0475233290344, -336.9631160576828, 0.01600000075995922, -0.19200000911951065, 1.0400000493973494, 0.0, 0.0, 0.0, 0.0, 0.0, 1.7103879694616024E9, 0.0, 2024-03-13 20:46:09.461
54.0, -226.80062296288088, -122.24610985163599, -1705.4355186941102, -152.6290570916608, 0.01600000075995922, -0.19200000911951065, 1.0400000493973494, 0.0, 0.0, 0.0, 0.0, 0.0, 1.7103879694773147E9, 0.0, 2024-03-13 20:46:09.477
54.0, -76.06208529882133, -52.79803762445226, -1556.0358652141877, -27.6247710227035, 0.01600000075995922, -0.19200000911951065, 1.0400000493973494, 0.0, 0.0, 0.0, 0.0, 0.0, 1.7103879694773147E9, 0.0, 2024-03-13 20:46:09.477
55.0, -295.14729465311393, -6.071727578062564, -1344.379967121873, 19.44934971956536, 0.01600000075995922, -0.19200000911951065, 1.0400000493973494, 0.0, 0.0, 0.0, 0.0, 0.0, 1.7103879694781218E9, 0.0, 2024-03-13 20:46:09.478
55.0, -124.86964967055246, 73.22163128247485, -1125.8650925108232, 48.13438237970695, 0.01600000075995922, -0.19200000911951065, 1.0400000493973494, 0.0, 0.0, 0.0, 0.0, 0.0, 1.7103879694781218E9, 0.0, 2024-03-13 20:46:09.478
56.0, -11.915321258828044, -15.974982660729438, -987.5430226996541, -18.787387427408248, 0.01600000075995922, -0.19200000911951065, 1.0400000493973494, 0.0, 0.0, 0.0, 0.0, 0.0, 1.7103879694916832E9, 0.0, 2024-03-13 20:46:09.491
56.0, 45.323847563005984, -235.7034548074007, -976.9516260251403, -190.71245834045112, 0.01600000075995922, -0.19200000911951065, 1.0400000493973494, 0.0, 0.0, 0.0, 0.0, 0.0, 1.7103879694916832E9, 0.0, 2024-03-13 20:46:09.491
57.0, -126.44040765194222, -332.2545820134692, -1134.5080013084225, -337.4418232520111, 0.01600000075995922, -0.19200000911951065, 1.0400000493973494, 0.0, 0.0, 0.0, 0.0, 0.0, 1.710387969507342E9, 0.0, 2024-03-13 20:46:09.507
57.0, 112.14090017136186, -352.65199637180194, -1358.4606904550456, -377.6457477756776, 0.01600000075995922, -0.19200000911951065, 1.0400000493973494, 0.0, 0.0, 0.0, 0.0, 0.0, 1.710387969507342E9, 0.0, 2024-03-13 20:46:09.507
58.0, -65.54548662342131, -455.85079574910924, -1568.250378469471, -416.2564749182202, 0.01600000075995922, -0.19200000911951065, 1.0400000493973494, 0.0, 0.0, 0.0, 0.0, 0.0, 1.7103879695080721E9, 0.0, 2024-03-13 20:46:09.508
58.0, -175.6537511688657, -353.0297262673266, -1695.4125868128613, -341.94092289870605, 0.01600000075995922, -0.19200000911951065, 1.0400000493973494, 0.0, 0.0, 0.0, 0.0, 0.0, 1.7103879695080721E9, 0.0, 2024-03-13 20:46:09.508
59.0, -231.2772832098417, -129.40801826678216, -1712.335634112358, -167.21092701889575, 0.01600000075995922, -0.19200000911951065, 1.0400000493973494, 0.0, 0.0, 0.0, 0.0, 0.0, 1.7103879695215921E9, 0.0, 2024-03-13 20:46:09.521
59.0, -80.68834154400975, -60.43491333397105, -1566.3654688918032, -42.85738354222849, 0.01600000075995922, -0.19200000911951065, 1.0400000493973494, 0.0, 0.0, 0.0, 0.0, 0.0, 1.7103879695215921E9, 0.0, 2024-03-13 20:46:09.521
60.0, -301.18723308155313, -17.586879541631788, -1334.5926489378326, 10.567087324801832, 0.01600000075995922, -0.19200000911951065, 1.0400000493973494, 0.0, 0.0, 0.0, 0.0, 0.0, 1.7103879695377247E9, 0.0, 2024-03-13 20:46:09.537
60.0, -131.5603306912817, 69.79588292306289, -1127.8360197874717, 38.07779139885679, 0.01600000075995922, -0.19200000911951065, 1.0400000493973494, 0.0, 0.0, 0.0, 0.0, 0.0, 1.7103879695377247E9, 0.0, 2024-03-13 20:46:09.537
61.0, -18.57234317995608, -17.822493238840252, -986.4210527129471, -18.413397431839257, 0.01600000075995922, -0.19200000911951065, 1.0400000493973494, 0.0, 0.0, 0.0, 0.0, 0.0, 1.7103879695383427E9, 0.0, 2024-03-13 20:46:09.538
61.0, 41.51662940811366, -238.0072331801057, -976.689833028242, -198.23339715134352, 0.01600000075995922, -0.19200000911951065, 1.0400000493973494, 0.0, 0.0, 0.0, 0.0, 0.0, 1.7103879695383427E9, 0.0, 2024-03-13 20:46:09.538
62.0, -117.93587515270337, -328.29776786034927, -1131.691856641788, -339.8091799239628, 0.01600000075995922, -0.19200000911951065, 1.0400000493973494, 0.0, 0.0, 0.0, 0.0, 0.0, 1.7103879695519633E9, 0.0, 2024-03-13 20:46:09.551
62.0, -359.9672406851314, -336.0580602684058, -1350.7153576468118, -366.13059581210837, 0.01600000075995922, -0.19200000911951065, 1.0400000493973494, 0.0, 0.0, 0.0, 0.0, 0.0, 1.7103879695519633E9, 0.0, 2024-03-13 20:46:09.551
63.0, -546.1731195789762, -448.3335968381725, -1573.6208748058416, -415.0634468323551, 0.01600000075995922, -0.19200000911951065, 1.0400000493973494, 0.0, 0.0, 0.0, 0.0, 0.0, 1.7103879695673163E9, 0.0, 2024-03-13 20:46:09.567
63.0, -659.2209454895929, -345.42276975745335, -1696.9796048942953, -341.1106651085429, 0.01600000075995922, -0.19200000911951065, 1.0400000493973494, 0.0, 0.0, 0.0, 0.0, 0.0, 1.7103879695673163E9, 0.0, 2024-03-13 20:46:09.567
64.0, -719.9980596695095, -121.75618295744061, -1709.1567191500217, -156.39887624699622, 0.01600000075995922, -0.19200000911951065, 1.0400000493973494, 0.0, 0.0, 0.0, 0.0, 0.0, 1.71038796956804E9, 0.0, 2024-03-13 20:46:09.568
64.0, -554.3597605819814, -45.24717961391434, -1558.818350781221, -35.13075023377314, 0.01600000075995922, -0.19200000911951065, 1.0400000493973494, 0.0, 0.0, 0.0, 0.0, 0.0, 1.71038796956804E9, 0.0, 2024-03-13 20:46:09.568
65.0, -793.6853084964678, -14.70341667579487, -1339.6340340781026, 11.300107716117054, 0.01600000075995922, -0.19200000911951065, 1.0400000493973494, 0.0, 0.0, 0.0, 0.0, 0.0, 1.710387969581951E9, 0.0, 2024-03-13 20:46:09.581
65.0, -614.8545123152435, 75.52914955513552, -1126.3924184045754, 42.16550205042586, 0.01600000075995922, -0.19200000911951065, 1.0400000493973494, 0.0, 0.0, 0.0, 0.0, 0.0, 1.710387969581951E9, 0.0, 2024-03-13 20:46:09.581
66.0, -482.82295422954485, -0.6002539428882301, -968.8659623209387, -8.745756046380848, 0.01600000075995922, -0.19200000911951065, 1.0400000493973494, 0.0, 0.0, 0.0, 0.0, 0.0, 1.7103879695976396E9, 0.0, 2024-03-13 20:46:09.597
66.0, -451.8266633967869, 242.45958407735452, -979.7640307918191, -205.46262376569211, 0.01600000075995922, -0.19200000911951065, 1.0400000493973494, 0.0, 0.0, 0.0, 0.0, 0.0, 1.7103879695976396E9, 0.0, 2024-03-13 20:46:09.597
67.0, -607.973096396774, 165.31105784140527, -1133.6777435182594, -341.9558824985288, 0.01600000075995922, -0.19200000911951065, 1.0400000493973494, 0.0, 0.0, 0.0, 0.0, 0.0, 1.7103879695982568E9, 0.0, 2024-03-13 20:46:09.598
67.0, -365.5247320192866, 140.98674852959812, -1352.510509625543, -375.6037623998709, 0.01600000075995922, -0.19200000911951065, 1.0400000493973494, 0.0, 0.0, 0.0, 0.0, 0.0, 1.7103879695982568E9, 0.0, 2024-03-13 20:46:09.598
68.0, -554.3821999817155, 42.67599839437753, -1556.1854612124152, -414.2257092422806, 0.01600000075995922, -0.19200000911951065, 1.0400000493973494, 0.0, 0.0, 0.0, 0.0, 0.0, 1.710387969611986E9, 0.0, 2024-03-13 20:46:09.611
68.0, -669.4720112681389, 138.26784126181155, -1687.4989585066214, -341.0620464091189, 0.01600000075995922, -0.19200000911951065, 1.0400000493973494, 0.0, 0.0, 0.0, 0.0, 0.0, 1.710387969611986E9, 0.0, 2024-03-13 20:46:09.611
69.0, -723.4724267283455, 363.21721374662593, -1707.971170864068, -160.1462560025975, 0.01600000075995922, -0.19200000911951065, 1.0400000493973494, 0.0, 0.0, 0.0, 0.0, 0.0, 1.7103879696277263E9, 0.0, 2024-03-13 20:46:09.627
69.0, -570.6432849890552, 427.9754514293745, -1564.5628371131606, -43.429588235449046, 0.01600000075995922, -0.19200000911951065, 1.0400000493973494, 0.0, 0.0, 0.0, 0.0, 0.0, 1.7103879696277263E9, 0.0, 2024-03-13 20:46:09.627
70.0, -796.3668167646974, 468.50848714914173, -1331.825122970622, 17.702816440258175, 0.01600000075995922, -0.19200000911951065, 1.0400000493973494, 0.0, 0.0, 0.0, 0.0, 0.0, 1.7103879696285484E9, 0.0, 2024-03-13 20:46:09.628
70.0, -626.9493487719446, 561.0036928532645, -1125.9174511102028, 49.39846856473014, 0.01600000075995922, -0.19200000911951065, 1.0400000493973494, 0.0, 0.0, 0.0, 0.0, 0.0, 1.7103879696285484E9, 0.0, 2024-03-13 20:46:09.628
71.0, -487.86433936981484, 486.9798530302942, -977.5836691176519, -9.127225841861218, 0.01600000075995922, -0.19200000911951065, 1.0400000493973494, 0.0, 0.0, 0.0, 0.0, 0.0, 1.7103879696419256E9, 0.0, 2024-03-13 20:46:09.641
71.0, -455.92185384826735, 726.1838541962206, -993.2164509324357, -213.7726814672351, 0.01600000075995922, -0.19200000911951065, 1.0400000493973494, 0.0, 0.0, 0.0, 0.0, 0.0, 1.7103879696419256E9, 0.0, 2024-03-13 20:46:09.641
72.0, -599.4797835974023, 662.005301006604, -1127.2338958946057, -329.0681872512214, 0.01600000075995922, -0.19200000911951065, 1.0400000493973494, 0.0, 0.0, 0.0, 0.0, 0.0, 1.710387969657338E9, 0.0, 2024-03-13 20:46:09.657
72.0, -843.9084250014275, 649.8169670510106, -1342.1098478487693, -361.9007689622231, 0.01600000075995922, -0.19200000911951065, 1.0400000493973494, 0.0, 0.0, 0.0, 0.0, 0.0, 1.710387969657338E9, 0.0, 2024-03-13 20:46:09.657
73.0, -1038.5290787955746, 529.3585293781944, -1563.4707863260992, -414.31172694126144, 0.01600000075995922, -0.19200000911951065, 1.0400000493973494, 0.0, 0.0, 0.0, 0.0, 0.0, 1.7103879696580293E9, 0.0, 2024-03-13 20:46:09.658
73.0, -1155.3878627610393, 632.1870786598884, -1693.134987739846, -339.19957623118535, 0.01600000075995922, -0.19200000911951065, 1.0400000493973494, 0.0, 0.0, 0.0, 0.0, 0.0, 1.7103879696580293E9, 0.0, 2024-03-13 20:46:09.658
74.0, -1205.9662697617896, 870.6674091843888, -1692.96669224184, -138.66427065711468, 0.01600000075995922, -0.19200000911951065, 1.0400000493973494, 0.0, 0.0, 0.0, 0.0, 0.0, 1.710387969671706E9, 0.0, 2024-03-13 20:46:09.671
74.0, -1043.7761584334075, 938.2268319339491, -1549.434941792395, -26.850611731875688, 0.01600000075995922, -0.19200000911951065, 1.0400000493973494, 0.0, 0.0, 0.0, 0.0, 0.0, 1.710387969671706E9, 0.0, 2024-03-13 20:46:09.671
75.0, -1281.448670567479, 961.904138553422, -1339.0169505854137, 14.422924179118127, 0.01600000075995922, -0.19200000911951065, 1.0400000493973494, 0.0, 0.0, 0.0, 0.0, 0.0, 1.7103879696872756E9, 0.0, 2024-03-13 20:46:09.687
75.0, -1116.145092525985, 1049.679590513464, -1136.0750193898566, 41.402562459465116, 0.01600000075995922, -0.19200000911951065, 1.0400000493973494, 0.0, 0.0, 0.0, 0.0, 0.0, 1.7103879696872756E9, 0.0, 2024-03-13 20:46:09.687
76.0, -981.6975590689108, 967.8879784825258, -990.1833920683712, -15.372858767863363, 0.01600000075995922, -0.19200000911951065, 1.0400000493973494, 0.0, 0.0, 0.0, 0.0, 0.0, 1.7103879696879883E9, 0.0, 2024-03-13 20:46:09.687
76.0, -949.3436845522374, 1212.2193824877031, -994.2337037203833, -214.9956287527457, 0.01600000075995922, -0.19200000911951065, 1.0400000493973494, 0.0, 0.0, 0.0, 0.0, 0.0, 1.7103879696879883E9, 0.0, 2024-03-13 20:46:09.687
77.0, -1093.8889478896745, 1148.915965887718, -1130.992495350074, -332.81930690677837, 0.01600000075995922, -0.19200000911951065, 1.0400000493973494, 0.0, 0.0, 0.0, 0.0, 0.0, 1.7103879697016037E9, 0.0, 2024-03-13 20:46:09.701
77.0, -851.6313184099272, 1133.6683937683702, -1338.616781290155, -355.98050733236596, 0.01600000075995922, -0.19200000911951065, 1.0400000493973494, 0.0, 0.0, 0.0, 0.0, 0.0, 1.7103879697016037E9, 0.0, 2024-03-13 20:46:09.701
78.0, -1043.3348502386361, 1018.3523185346276, -1560.9912326554768, -413.53382775047794, 0.01600000075995922, -0.19200000911951065, 1.0400000493973494, 0.0, 0.0, 0.0, 0.0, 0.0, 1.7103879697172754E9, 0.0, 2024-03-13 20:46:09.717
78.0, -1151.4908870072104, 1122.4636535011232, -1694.414033524692, -338.8891645348631, 0.01600000075995922, -0.19200000911951065, 1.0400000493973494, 0.0, 0.0, 0.0, 0.0, 0.0, 1.7103879697172754E9, 0.0, 2024-03-13 20:46:09.717
79.0, -1209.0666468250565, 1354.245823204983, -1707.597180868499, -150.61325101554394, 0.01600000075995922, -0.19200000911951065, 1.0400000493973494, 0.0, 0.0, 0.0, 0.0, 0.0, 1.7103879697181957E9, 0.0, 2024-03-13 20:46:09.718
79.0, -1056.7573511796072, 1414.1309712454677, -1566.3692087917589, -42.46095414692536, 0.01600000075995922, -0.19200000911951065, 1.0400000493973494, 0.0, 0.0, 0.0, 0.0, 0.0, 1.7103879697181957E9, 0.0, 2024-03-13 20:46:09.718
80.0, -1279.0551345958374, 1454.723845364526, -1340.7784434645437, 12.784847998525947, 0.01600000075995922, -0.19200000911951065, 1.0400000493973494, 0.0, 0.0, 0.0, 0.0, 0.0, 1.7103879697316208E9, 0.0, 2024-03-13 20:46:09.731
80.0, -1111.4253387819044, 1548.0979275582358, -1129.9902021619491, 52.10241623269394, 0.01600000075995922, -0.19200000911951065, 1.0400000493973494, 0.0, 0.0, 0.0, 0.0, 0.0, 1.7103879697316208E9, 0.0, 2024-03-13 20:46:09.731
81.0, -977.063823023811, 1470.8428141735494, -976.7945502270013, -2.372966521885246, 0.01600000075995922, -0.19200000911951065, 1.0400000493973494, 0.0, 0.0, 0.0, 0.0, 0.0, 1.7103879697475395E9, 0.0, 2024-03-13 20:46:09.747
81.0, -931.1041924683377, 1229.8567506787367, -984.999890729785, -200.32400122657418, 0.01600000075995922, -0.19200000911951065, 1.0400000493973494, 0.0, 0.0, 0.0, 0.0, 0.0, 1.7103879697475395E9, 0.0, 2024-03-13 20:46:09.747
82.0, -1086.6746808751486, 1160.5433148499578, -1127.1665776954032, -323.73882981436327, 0.01600000075995922, -0.19200000911951065, 1.0400000493973494, 0.0, 0.0, 0.0, 0.0, 0.0, 1.7103879697481115E9, 0.0, 2024-03-13 20:46:09.748
82.0, -848.643138345331, 1147.1282937088981, -1337.9099401985295, -348.86721761664376, 0.01600000075995922, -0.19200000911951065, 1.0400000493973494, 0.0, 0.0, 0.0, 0.0, 0.0, 1.7103879697481115E9, 0.0, 2024-03-13 20:46:09.748
83.0, -1031.8122184751555, 1032.8631303627044, -1561.8888086448424, -408.769195206929, 0.01600000075995922, -0.19200000911951065, 1.0400000493973494, 0.0, 0.0, 0.0, 0.0, 0.0, 1.710387969761977E9, 0.0, 2024-03-13 20:46:09.761
83.0, -1145.248993981164, 1129.3301098197699, -1696.1418673042208, -332.15734461462125, 0.01600000075995922, -0.19200000911951065, 1.0400000493973494, 0.0, 0.0, 0.0, 0.0, 0.0, 1.710387969761977E9, 0.0, 2024-03-13 20:46:09.761
84.0, -1198.5837072492577, 1367.657104446087, -1689.5858226818964, -132.38497863151133, 0.01600000075995922, -0.19200000911951065, 1.0400000493973494, 0.0, 0.0, 0.0, 0.0, 0.0, 1.710387969777305E9, 0.0, 2024-03-13 20:46:09.777
84.0, -1040.0250387778506, 1432.3068850301206, -1551.2749725705944, -22.7329818806611, 0.01600000075995922, -0.19200000911951065, 1.0400000493973494, 0.0, 0.0, 0.0, 0.0, 0.0, 1.710387969777305E9, 0.0, 2024-03-13 20:46:09.777
85.0, -803.0238386858255, 1453.2241454822943, -1342.0088705499656, 15.152204670477659, 0.01600000075995922, -0.19200000911951065, 1.0400000493973494, 0.0, 0.0, 0.0, 0.0, 0.0, 1.7103879697779975E9, 0.0, 2024-03-13 20:46:09.777
85.0, -615.1387447118759, 1558.9211980300024, -1121.3061544648372, 60.11328193778172, 0.01600000075995922, -0.19200000911951065, 1.0400000493973494, 0.0, 0.0, 0.0, 0.0, 0.0, 1.7103879697779975E9, 0.0, 2024-03-13 20:46:09.777
86.0, -481.89545904053375, 1486.5952727869153, -964.6735344706103, 10.873759121168405, 0.01600000075995922, -0.19200000911951065, 1.0400000493973494, 0.0, 0.0, 0.0, 0.0, 0.0, 1.7103879697916265E9, 0.0, 2024-03-13 20:46:09.791
86.0, -443.5914036943577, 1722.852232787758, -970.4442001022398, -191.85312782693654, 0.01600000075995922, -0.19200000911951065, 1.0400000493973494, 0.0, 0.0, 0.0, 0.0, 0.0, 1.7103879697916265E9, 0.0, 2024-03-13 20:46:09.791
87.0, -587.9234927343205, 1662.8474079486914, -1109.3534342064522, -307.4216463076882, 0.01600000075995922, -0.19200000911951065, 1.0400000493973494, 0.0, 0.0, 0.0, 0.0, 0.0, 1.7103879698073227E9, 0.0, 2024-03-13 20:46:09.807
87.0, -349.5964981080033, 1644.4022213672288, -1327.8533492176794, -338.5600533387624, 0.01600000075995922, -0.19200000911951065, 1.0400000493973494, 0.0, 0.0, 0.0, 0.0, 0.0, 1.7103879698073227E9, 0.0, 2024-03-13 20:46:09.807
88.0, -539.0373904635198, 1522.926530906465, -1549.7864923882298, -399.77847571345046, 0.01600000075995922, -0.19200000911951065, 1.0400000493973494, 0.0, 0.0, 0.0, 0.0, 0.0, 1.710387969808014E9, 0.0, 2024-03-13 20:46:09.808
88.0, -656.9246469167992, 1615.2160421130247, -1698.0267768818885, -333.7318424959667, 0.01600000075995922, -0.19200000911951065, 1.0400000493973494, 0.0, 0.0, 0.0, 0.0, 0.0, 1.710387969808014E9, 0.0, 2024-03-13 20:46:09.808
89.0, -720.8357972595841, 1855.4055069172755, -1700.6559265507385, -140.36966503690928, 0.01600000075995922, -0.19200000911951065, 1.0400000493973494, 0.0, 0.0, 0.0, 0.0, 0.0, 1.7103879698216083E9, 0.0, 2024-03-13 20:46:09.821
89.0, -556.3456474584527, 1915.522528755013, -1549.939828286413, -29.16186990449205, 0.01600000075995922, -0.19200000911951065, 1.0400000493973494, 0.0, 0.0, 0.0, 0.0, 0.0, 1.7103879698216083E9, 0.0, 2024-03-13 20:46:09.821
90.0, -798.4649006398395, 1938.9530019774102, -1344.103214525152, 4.269095799420029, 0.01600000075995922, -0.19200000911951065, 1.0400000493973494, 0.0, 0.0, 0.0, 0.0, 0.0, 1.7103879698372624E9, 0.0, 2024-03-13 20:46:09.837
90.0, -624.3688178025186, 2042.8025439470075, -1142.2271548169665, 45.55011151032522, 0.01600000075995922, -0.19200000911951065, 1.0400000493973494, 0.0, 0.0, 0.0, 0.0, 0.0, 1.7103879698372624E9, 0.0, 2024-03-13 20:46:09.837
91.0, -479.3897260702215, 1967.2902239416726, -978.3279092088342, -2.6796383182518184, 0.01600000075995922, -0.20800000987946987, 1.0400000493973494, 0.0, 0.0, 0.0, 0.0, 0.0, 1.7103879698379755E9, 0.0, 2024-03-13 20:46:09.837
91.0, -438.4153821556829, 2208.3342558857985, -982.6886325571686, -202.42208510171622, 0.01600000075995922, -0.20800000987946987, 1.0400000493973494, 0.0, 0.0, 0.0, 0.0, 0.0, 1.7103879698379755E9, 0.0, 2024-03-13 20:46:09.837
92.0, -595.3546739462763, 2142.454048216343, -1121.4445307631977, -319.89795255986974, 0.01600000075995922, -0.20800000987946987, 1.0400000493973494, 0.0, 0.0, 0.0, 0.0, 0.0, 1.7103879698518004E9, 0.0, 2024-03-13 20:46:09.851
92.0, -836.847493885085, 2132.939742729068, -1331.6269082729705, -341.04708680929616, 0.01600000075995922, -0.20800000987946987, 1.0400000493973494, 0.0, 0.0, 0.0, 0.0, 0.0, 1.7103879698518004E9, 0.0, 2024-03-13 20:46:09.851
93.0, -1038.379482797347, 1996.5755105447024, -1566.1074157948606, -418.69488968933, 0.01600000075995922, -0.20800000987946987, 1.0400000493973494, 0.0, 0.0, 0.0, 0.0, 0.0, 1.7103879698674452E9, 0.0, 2024-03-13 20:46:09.867
93.0, -1159.6625684103929, 2099.7556104222313, -1694.4215133246034, -335.64667127327994, 0.01600000075995922, -0.20800000987946987, 1.0400000493973494, 0.0, 0.0, 0.0, 0.0, 0.0, 1.7103879698674452E9, 0.0, 2024-03-13 20:46:09.867
94.0, -1200.0497480318882, 1860.0729020619765, -1697.1441604923457, -137.2917273733765, 0.01600000075995922, -0.20800000987946987, 1.0400000493973494, 0.0, 0.0, 0.0, 0.0, 0.0, 1.7103879698680422E9, 0.0, 2024-03-13 20:46:09.868
94.0, -1045.4254543138668, 1916.1283925478347, -1548.8402976994403, -31.873297372367233, 0.01600000075995922, -0.20800000987946987, 1.0400000493973494, 0.0, 0.0, 0.0, 0.0, 0.0, 1.7103879698680422E9, 0.0, 2024-03-13 20:46:09.868
95.0, -813.6900333594531, 1924.879758444149, -1350.9584511439316, -0.6937514417804778, 0.01600000075995922, -0.20800000987946987, 1.0400000493973494, 0.0, 0.0, 0.0, 0.0, 0.0, 1.7103879698818693E9, 0.0, 2024-03-13 20:46:09.881
95.0, -620.8196527445689, 2044.2274458301254, -1124.8702791226096, 56.12654858501628, 0.01600000075995922, -0.20800000987946987, 1.0400000493973494, 0.0, 0.0, 0.0, 0.0, 0.0, 1.7103879698818693E9, 0.0, 2024-03-13 20:46:09.881
96.0, -478.7614228776656, 1967.8586887349375, -969.7971974099055, -3.292981910984963, 0.01600000075995922, -0.20800000987946987, 1.0400000493973494, 0.0, 0.0, 0.0, 0.0, 0.0, 1.7103879698976092E9, 0.0, 2024-03-13 20:46:09.897
96.0, -464.7966364431195, 2183.8977495753206, -1000.2100638495758, -225.24669453129172, 0.01600000075995922, -0.20800000987946987, 1.0400000493973494, 0.0, 0.0, 0.0, 0.0, 0.0, 1.7103879698976092E9, 0.0, 2024-03-13 20:46:09.897
97.0, -612.7788678398356, 2128.089092486538, -1129.8256465638988, -329.3898186474107, 0.01600000075995922, -0.20800000987946987, 1.0400000493973494, 0.0, 0.0, 0.0, 0.0, 0.0, 1.7103879698982773E9, 0.0, 2024-03-13 20:46:09.898
97.0, -856.7400217493996, 2122.022974758409, -1350.0945342541672, -360.06073818402365, 0.01600000075995922, -0.20800000987946987, 1.0400000493973494, 0.0, 0.0, 0.0, 0.0, 0.0, 1.7103879698982773E9, 0.0, 2024-03-13 20:46:09.898
98.0, -1042.022145354189, 1995.1132096620277, -1570.0679698479362, -423.6240778309293, 0.01600000075995922, -0.20800000987946987, 1.0400000493973494, 0.0, 0.0, 0.0, 0.0, 0.0, 1.7103879699116256E9, 0.0, 2024-03-13 20:46:09.911
98.0, -1160.3170509026386, 2099.5237366249785, -1706.6248068800196, -342.7749205888249, 0.01600000075995922, -0.20800000987946987, 1.0400000493973494, 0.0, 0.0, 0.0, 0.0, 0.0, 1.7103879699116256E9, 0.0, 2024-03-13 20:46:09.911
99.0, -1193.598420608323, 1862.9638447277248, -1697.0020442940295, -133.8771987138316, 0.01600000075995922, -0.20800000987946987, 1.0400000493973494, 0.0, 0.0, 0.0, 0.0, 0.0, 1.7103879699272976E9, 0.0, 2024-03-13 20:46:09.927
99.0, -1042.9346809433773, 1916.3714860449545, -1555.4860999207012, -30.990680982824415, 0.01600000075995922, -0.20800000987946987, 1.0400000493973494, 0.0, 0.0, 0.0, 0.0, 0.0, 1.7103879699272976E9, 0.0, 2024-03-13 20:46:09.927
100.0, -807.5266782324761, 1929.498534889426, -1355.9399978849106, -2.6721585183404386, 0.01600000075995922, -0.20800000987946987, 1.0400000493973494, 0.0, 0.0, 0.0, 0.0, 0.0, 1.71038796992822E9, 0.0, 2024-03-13 20:46:09.928
100.0, -619.5368670597672, 2050.7049525533803, -1125.5135419149883, 58.62854165537283, 0.01600000075995922, -0.20800000987946987, 1.0400000493973494, 0.0, 0.0, 0.0, 0.0, 0.0, 1.71038796992822E9, 0.0, 2024-03-13 20:46:09.928
0.0, -633.5409224438481, -373.3916115760803, -369.8424465181306, -528.2159899417311, 0.01600000075995922, -0.20800000987946987, 1.0400000493973494, 0.0, 0.0, 0.0, 0.0, 0.0, 1.7103879699423664E9, 0.0, 2024-03-13 20:46:09.942
1.0, -608.8725423361175, -147.7335280496627, -396.79216559883207, -748.5989445806481, 0.01600000075995922, -0.19200000911951065, 1.0400000493973494, 0.0, 0.0, 0.0, 0.0, 0.0, 1.7103879699430327E9, 0.0, 2024-03-13 20:46:09.943
1.0, -769.8845851784572, -221.1271947300993, -537.8032234781422, -861.1381440972909, 0.01600000075995922, -0.19200000911951065, 1.0400000493973494, 0.0, 0.0, 0.0, 0.0, 0.0, 1.7103879699430327E9, 0.0, 2024-03-13 20:46:09.943
2.0, -1013.4231303930283, -217.46770262345672, -736.1263782284223, -882.3919955454767, 0.01600000075995922, -0.19200000911951065, 1.0400000493973494, 0.0, 0.0, 0.0, 0.0, 0.0, 1.71038796995667E9, 0.0, 2024-03-13 20:46:09.956
2.0, -1202.561090852134, -352.8259017197415, -961.6797445560805, -951.8307180227712, 0.01600000075995922, -0.19200000911951065, 1.0400000493973494, 0.0, 0.0, 0.0, 0.0, 0.0, 1.71038796995667E9, 0.0, 2024-03-13 20:46:09.956
3.0, -1320.1416755090468, -250.31524393428117, -1097.5073010968044, -872.0249928683043, 0.01600000075995922, -0.19200000911951065, 1.0400000493973494, 0.0, 0.0, 0.0, 0.0, 0.0, 1.710387969972725E9, 0.0, 2024-03-13 20:46:09.972
3.0, -1366.5388743593358, -492.8215767610818, -1109.5310794543475, -676.7105876323767, 0.01600000075995922, -0.19200000911951065, 1.0400000493973494, 0.0, 0.0, 0.0, 0.0, 0.0, 1.710387969972725E9, 0.0, 2024-03-13 20:46:09.972
4.0, -1210.2503251610324, -439.2232005461119, -955.4228919302113, -571.2510187318549, 0.01600000075995922, -0.19200000911951065, 1.0400000493973494, 0.0, 0.0, 0.0, 0.0, 0.0, 1.7103879699732208E9, 0.0, 2024-03-13 20:46:09.973
4.0, -968.8584825210273, -427.7791066817008, -752.544539033901, -540.7409148933366, 0.01600000075995922, -0.19200000911951065, 1.0400000493973494, 0.0, 0.0, 0.0, 0.0, 0.0, 1.7103879699732208E9, 0.0, 2024-03-13 20:46:09.973
5.0, -773.721722532995, -308.4538586954586, -532.8441161368974, -480.1246164115146, 0.01600000075995922, -0.19200000911951065, 1.0400000493973494, 0.0, 0.0, 0.0, 0.0, 0.0, 1.7103879699866064E9, 0.0, 2024-03-13 20:46:09.986
5.0, -646.3874787916429, -388.3979601482861, -380.2842471944168, -545.6850626347587, 0.01600000075995922, -0.19200000911951065, 1.0400000493973494, 0.0, 0.0, 0.0, 0.0, 0.0, 1.7103879699866064E9, 0.0, 2024-03-13 20:46:09.986
6.0, -612.7321190903895, -159.35900706192479, -399.65692896489054, -756.9875401812606, 0.01600000075995922, -0.19200000911951065, 1.0400000493973494, 0.0, 0.0, 0.0, 0.0, 0.0, 1.7103879700025072E9, 0.0, 2024-03-13 20:46:10.002
6.0, -749.3263551220298, -207.23533634468913, -530.6300953631289, -856.8858778476715, 0.01600000075995922, -0.19200000911951065, 1.0400000493973494, 0.0, 0.0, 0.0, 0.0, 0.0, 1.7103879700025072E9, 0.0, 2024-03-13 20:46:10.002
7.0, -504.34981837449595, -206.85199659923092, -737.7719342089258, -877.2234538067132, 0.01600000075995922, -0.19200000911951065, 1.0400000493973494, 0.0, 0.0, 0.0, 0.0, 0.0, 1.7103879700033176E9, 0.0, 2024-03-13 20:46:10.003
7.0, -702.8562282226048, -345.41902985749766, -963.2505025374703, -953.4426149036735, 0.01600000075995922, -0.19200000911951065, 1.0400000493973494, 0.0, 0.0, 0.0, 0.0, 0.0, 1.7103879700033176E9, 0.0, 2024-03-13 20:46:10.003
8.0, -820.9043003739789, -247.19055752130225, -1102.36169123929, -874.2539732418954, 0.01600000075995922, -0.19200000911951065, 1.0400000493973494, 0.0, 0.0, 0.0, 0.0, 0.0, 1.7103879700171108E9, 0.0, 2024-03-13 20:46:10.017
8.0, -862.2900332836434, -487.6175059727393, -1104.3924569152296, -672.6640158803202, 0.01600000075995922, -0.19200000911951065, 1.0400000493973494, 0.0, 0.0, 0.0, 0.0, 0.0, 1.7103879700171108E9, 0.0, 2024-03-13 20:46:10.017
9.0, -696.3338426998816, -424.58336216956377, -943.2382978745736, -562.5744508346543, 0.01600000075995922, -0.19200000911951065, 1.0400000493973494, 0.0, 0.0, 0.0, 0.0, 0.0, 1.7103879700326965E9, 0.0, 2024-03-13 20:46:10.032
9.0, -459.02971071144566, -418.3377292435616, -743.5089407409541, -533.6388448774815, 0.01600000075995922, -0.19200000911951065, 1.0400000493973494, 0.0, 0.0, 0.0, 0.0, 0.0, 1.7103879700326965E9, 0.0, 2024-03-13 20:46:10.032
10.0, -286.5904035544954, -309.3794839344919, -531.9727194472216, -478.65857562888414, 0.01600000075995922, -0.19200000911951065, 1.0400000493973494, 0.0, 0.0, 0.0, 0.0, 0.0, 1.7103879700332177E9, 0.0, 2024-03-13 20:46:10.033
10.0, -148.9639551350847, -381.8026465764269, -366.29702136013657, -532.0980060957372, 0.01600000075995922, -0.19200000911951065, 1.0400000493973494, 0.0, 0.0, 0.0, 0.0, 0.0, 1.7103879700332177E9, 0.0, 2024-03-13 20:46:10.033
11.0, -116.49414371978492, -159.79844530671835, -390.20246187690645, -747.9519418883137, 0.01600000075995922, -0.20800000987946987, 1.0400000493973494, 0.0, 0.0, 0.0, 0.0, 0.0, 1.7103879700471387E9, 0.0, 2024-03-13 20:46:10.047
11.0, -276.4103958751075, -216.66549408296123, -534.6953666149639, -857.0205142460763, 0.01600000075995922, -0.20800000987946987, 1.0400000493973494, 0.0, 0.0, 0.0, 0.0, 0.0, 1.7103879700471387E9, 0.0, 2024-03-13 20:46:10.047
12.0, -508.02614003093913, -208.8023544261232, -725.1161127588712, -869.4893406983465, 0.01600000075995922, -0.20800000987946987, 1.0400000493973494, 0.0, 0.0, 0.0, 0.0, 0.0, 1.710387970062307E9, 0.0, 2024-03-13 20:46:10.062
12.0, -706.2857164819725, -350.73903754446656, -953.2612297558226, -952.653496013023, 0.01600000075995922, -0.20800000987946987, 1.0400000493973494, 0.0, 0.0, 0.0, 0.0, 0.0, 1.710387970062307E9, 0.0, 2024-03-13 20:46:10.062
13.0, -823.2716570459306, -251.42599422112107, -1099.5492864726111, -870.9927804805338, 0.01600000075995922, -0.20800000987946987, 1.0400000493973494, 0.0, 0.0, 0.0, 0.0, 0.0, 1.7103879700630257E9, 0.0, 2024-03-13 20:46:10.063
13.0, -863.1502102734521, -485.558691047132, -1085.5919798379764, -656.0962590766139, 0.01600000075995922, -0.20800000987946987, 1.0400000493973494, 0.0, 0.0, 0.0, 0.0, 0.0, 1.7103879700630257E9, 0.0, 2024-03-13 20:46:10.063
14.0, -712.538829207886, -433.90880270907655, -940.7026457046159, -557.2525731977075, 0.01600000075995922, -0.20800000987946987, 1.0400000493973494, 0.0, 0.0, 0.0, 0.0, 0.0, 1.7103879700766327E9, 0.0, 2024-03-13 20:46:10.076
14.0, -469.2321577905677, -419.53636717936024, -741.8147660610266, -527.1426386544481, 0.01600000075995922, -0.20800000987946987, 1.0400000493973494, 0.0, 0.0, 0.0, 0.0, 0.0, 1.7103879700766327E9, 0.0, 2024-03-13 20:46:10.076
15.0, -275.64371638419107, -287.8320503397845, -519.0177060007118, -460.38168454542756, 0.01600000075995922, -0.20800000987946987, 1.0400000493973494, 0.0, 0.0, 0.0, 0.0, 0.0, 1.7103879700926E9, 0.0, 2024-03-13 20:46:10.092
15.0, -135.3208000967279, -368.43063428485766, -363.41355849429965, -520.908225428313, 0.01600000075995922, -0.20800000987946987, 1.0400000493973494, 0.0, 0.0, 0.0, 0.0, 0.0, 1.7103879700926E9, 0.0, 2024-03-13 20:46:10.092
16.0, -116.97285091411322, -155.03942261310294, -399.68310826458037, -755.9366282937117, 0.01600000075995922, -0.20800000987946987, 1.0400000493973494, 0.0, 0.0, 0.0, 0.0, 0.0, 1.710387970093219E9, 0.0, 2024-03-13 20:46:10.093
16.0, -263.1487106322311, -202.4258250016719, -527.1258091046475, -849.2041233386844, 0.01600000075995922, -0.20800000987946987, 1.0400000493973494, 0.0, 0.0, 0.0, 0.0, 0.0, 1.710387970093219E9, 0.0, 2024-03-13 20:46:10.093
17.0, -495.3254397814162, -197.01605971576646, -723.1601450820453, -864.9939809516072, 0.01600000075995922, -0.20800000987946987, 1.0400000493973494, 0.0, 0.0, 0.0, 0.0, 0.0, 1.7103879701066644E9, 0.0, 2024-03-13 20:46:10.106
17.0, -695.2530116126873, -347.98460122710094, -962.928871141281, -959.624669530429, 0.01600000075995922, -0.20800000987946987, 1.0400000493973494, 0.0, 0.0, 0.0, 0.0, 0.0, 1.7103879701066644E9, 0.0, 2024-03-13 20:46:10.106
18.0, -831.7687097452581, -254.27392803737894, -1110.1481629470363, -882.7435461413115, 0.01600000075995922, -0.20800000987946987, 1.0400000493973494, 0.0, 0.0, 0.0, 0.0, 0.0, 1.7103879701223493E9, 0.0, 2024-03-13 20:46:10.122
18.0, -863.6513568675146, -486.8059476823546, -1096.8827378042042, -664.1071247817017, 0.01600000075995922, -0.20800000987946987, 1.0400000493973494, 0.0, 0.0, 0.0, 0.0, 0.0, 1.7103879701223493E9, 0.0, 2024-03-13 20:46:10.122
19.0, -716.0281558665447, -435.81802163645625, -945.6168742463924, -564.5491180112585, 0.01600000075995922, -0.20800000987946987, 1.0400000493973494, 0.0, 0.0, 0.0, 0.0, 0.0, 1.710387970123057E9, 0.0, 2024-03-13 20:46:10.123
19.0, -474.7971289246343, -430.092234804295, -753.1354432269, -538.7812073165551, 0.01600000075995922, -0.20800000987946987, 1.0400000493973494, 0.0, 0.0, 0.0, 0.0, 0.0, 1.710387970123057E9, 0.0, 2024-03-13 20:46:10.123
20.0, -286.0331584610976, -295.60169249773026, -522.7426463565789, -468.5982447480783, 0.01600000075995922, -0.20800000987946987, 1.0400000493973494, 0.0, 0.0, 0.0, 0.0, 0.0, 1.7103879701368563E9, 0.0, 2024-03-13 20:46:10.136
20.0, -136.76066157966852, -370.60164620913565, -358.476890552789, -525.9047317691147, 0.01600000075995922, -0.20800000987946987, 1.0400000493973494, 0.0, 0.0, 0.0, 0.0, 0.0, 1.7103879701368563E9, 0.0, 2024-03-13 20:46:10.136
21.0, -113.54336265474558, -154.79445916600525, -388.7439008941874, -749.552619069349, 0.01600000075995922, -0.19200000911951065, 1.0400000493973494, 0.0, 0.0, 0.0, 0.0, 0.0, 1.71038797015233E9, 0.0, 2024-03-13 20:46:10.152
21.0, -266.60437819128856, -204.77635212382302, -527.6793142980896, -849.4920956352726, 0.01600000075995922, -0.19200000911951065, 1.0400000493973494, 0.0, 0.0, 0.0, 0.0, 0.0, 1.71038797015233E9, 0.0, 2024-03-13 20:46:10.152
22.0, -506.05521275429055, -200.8401074204594, -723.9230846730061, -863.0230536749586, 0.01600000075995922, -0.19200000911951065, 1.0400000493973494, 0.0, 0.0, 0.0, 0.0, 0.0, 1.710387970153026E9, 0.0, 2024-03-13 20:46:10.153
22.0, -697.6689869840629, -343.0834623351693, -951.664292474743, -948.3787903636694, 0.01600000075995922, -0.19200000911951065, 1.0400000493973494, 0.0, 0.0, 0.0, 0.0, 0.0, 1.710387970153026E9, 0.0, 2024-03-13 20:46:10.153
23.0, -826.8021226041019, -253.0453709019348, -1104.5495327133685, -878.5436384910718, 0.01600000075995922, -0.19200000911951065, 1.0400000493973494, 0.0, 0.0, 0.0, 0.0, 0.0, 1.7103879701670213E9, 0.0, 2024-03-13 20:46:10.167
23.0, -857.0429536458105, -475.43478186707944, -1079.6941576078534, -650.1236388473772, 0.01600000075995922, -0.19200000911951065, 1.0400000493973494, 0.0, 0.0, 0.0, 0.0, 0.0, 1.7103879701670213E9, 0.0, 2024-03-13 20:46:10.167
24.0, -710.4631847324781, -436.02184618404135, -949.3380747023039, -569.1604146566242, 0.01600000075995922, -0.19200000911951065, 1.0400000493973494, 0.0, 0.0, 0.0, 0.0, 0.0, 1.7103879701827457E9, 0.0, 2024-03-13 20:46:10.182
24.0, -480.866986552719, -429.09181156614795, -758.8911492587067, -546.0029541309923, 0.01600000075995922, -0.19200000911951065, 1.0400000493973494, 0.0, 0.0, 0.0, 0.0, 0.0, 1.7103879701827457E9, 0.0, 2024-03-13 20:46:10.182
25.0, -276.5637317732908, -295.8952746442519, -515.9285486373119, -465.5128272846341, 0.01600000075995922, -0.19200000911951065, 1.0400000493973494, 0.0, 0.0, 0.0, 0.0, 0.0, 1.7103879701831021E9, 0.0, 2024-03-13 20:46:10.183
25.0, -136.3642321843654, -376.99874508334324, -362.59452040400356, -527.4680099505931, 0.01600000075995922, -0.19200000911951065, 1.0400000493973494, 0.0, 0.0, 0.0, 0.0, 0.0, 1.7103879701831021E9, 0.0, 2024-03-13 20:46:10.183
26.0, -128.95923027209938, -171.139691922348, -403.75959921628237, -768.6373285432346, 0.01600000075995922, -0.19200000911951065, 1.0400000493973494, 0.0, 0.0, 0.0, 0.0, 0.0, 1.710387970196597E9, 0.0, 2024-03-13 20:46:10.196
26.0, -275.7147744833492, -216.72720243223011, -540.940999540966, -864.1113645620644, 0.01600000075995922, -0.19200000911951065, 1.0400000493973494, 0.0, 0.0, 0.0, 0.0, 0.0, 1.710387970196597E9, 0.0, 2024-03-13 20:46:10.196
27.0, -502.30783299868926, -210.47595965629444, -729.218783010263, -873.2479401538149, 0.01600000075995922, -0.19200000911951065, 1.0400000493973494, 0.0, 0.0, 0.0, 0.0, 0.0, 1.7103879702123122E9, 0.0, 2024-03-13 20:46:10.212
27.0, -714.8276479807682, -369.10381627688184, -970.4198907525279, -970.044030806981, 0.01600000075995922, -0.19200000911951065, 1.0400000493973494, 0.0, 0.0, 0.0, 0.0, 0.0, 1.7103879702123122E9, 0.0, 2024-03-13 20:46:10.212
28.0, -829.2629767749459, -263.5414001275785, -1116.857543467544, -888.069163678214, 0.01600000075995922, -0.19200000911951065, 1.0400000493973494, 0.0, 0.0, 0.0, 0.0, 0.0, 1.7103879702130404E9, 0.0, 2024-03-13 20:46:10.213
28.0, -860.5210606046021, -478.9072789759375, -1085.9323107339442, -654.4133040965535, 0.01600000075995922, -0.19200000911951065, 1.0400000493973494, 0.0, 0.0, 0.0, 0.0, 0.0, 1.7103879702130404E9, 0.0, 2024-03-13 20:46:10.213
29.0, -714.8313878807239, -434.3632005536929, -940.2164587103762, -568.4909725645557, 0.01600000075995922, -0.19200000911951065, 1.0400000493973494, 0.0, 0.0, 0.0, 0.0, 0.0, 1.710387970226968E9, 0.0, 2024-03-13 20:46:10.226
29.0, -469.77444328414276, -429.1236007157713, -748.9430153765716, -540.5987986950204, 0.01600000075995922, -0.19200000911951065, 1.0400000493973494, 0.0, 0.0, 0.0, 0.0, 0.0, 1.710387970226968E9, 0.0, 2024-03-13 20:46:10.226
30.0, -281.39942241599783, -291.4691030466929, -524.6724347337149, -459.61126515455544, 0.01600000075995922, -0.19200000911951065, 1.0400000493973494, 0.0, 0.0, 0.0, 0.0, 0.0, 1.7103879702425172E9, 0.0, 2024-03-13 20:46:10.242
30.0, -137.41888397186995, -363.59681359212846, -354.54999559931457, -515.0403223978356, 0.01600000075995922, -0.19200000911951065, 1.0400000493973494, 0.0, 0.0, 0.0, 0.0, 0.0, 1.7103879702425172E9, 0.0, 2024-03-13 20:46:10.242
31.0, -118.64458619430661, -158.2613464249298, -390.1014845781028, -754.8707568063401, 0.01600000075995922, -0.19200000911951065, 1.0400000493973494, 0.0, 0.0, 0.0, 0.0, 0.0, 1.710387970243217E9, 0.0, 2024-03-13 20:46:10.243
31.0, -256.05412041628733, -201.39174266392365, -520.8913958785124, -841.9038386251777, 0.01600000075995922, -0.19200000911951065, 1.0400000493973494, 0.0, 0.0, 0.0, 0.0, 0.0, 1.710387970243217E9, 0.0, 2024-03-13 20:46:10.243
32.0, -498.6539507419802, -192.43655222002417, -718.6012070360593, -855.9097639592364, 0.01600000075995922, -0.19200000911951065, 1.0400000493973494, 0.0, 0.0, 0.0, 0.0, 0.0, 1.7103879702565775E9, 0.0, 2024-03-13 20:46:10.256
32.0, -695.8326961058192, -348.8242087671533, -955.8754198248498, -950.9256622334942, 0.01600000075995922, -0.19200000911951065, 1.0400000493973494, 0.0, 0.0, 0.0, 0.0, 0.0, 1.7103879702565775E9, 0.0, 2024-03-13 20:46:10.256
33.0, -817.3364358162507, -240.61768334917724, -1098.5170740848407, -866.6170975323766, 0.01600000075995922, -0.19200000911951065, 1.0400000493973494, 0.0, 0.0, 0.0, 0.0, 0.0, 1.7103879702723093E9, 0.0, 2024-03-13 20:46:10.272
33.0, -850.2699948260561, -462.12821782473475, -1077.6895712316036, -639.7753356699832, 0.01600000075995922, -0.19200000911951065, 1.0400000493973494, 0.0, 0.0, 0.0, 0.0, 0.0, 1.7103879702723093E9, 0.0, 2024-03-13 20:46:10.272
34.0, -699.4603990628384, -417.83471269952133, -928.5666703484021, -553.6959283398464, 0.01600000075995922, -0.19200000911951065, 1.0400000493973494, 0.0, 0.0, 0.0, 0.0, 0.0, 1.7103879702730336E9, 0.0, 2024-03-13 20:46:10.273
34.0, -472.3998530530371, -429.2470174143091, -753.5505721219815, -540.8792911916971, 0.01600000075995922, -0.19200000911951065, 1.0400000493973494, 0.0, 0.0, 0.0, 0.0, 0.0, 1.7103879702730336E9, 0.0, 2024-03-13 20:46:10.273
35.0, -283.54238509060815, -294.5133816106245, -519.0887640998699, -462.38253102172166, 0.01600000075995922, -0.19200000911951065, 1.0400000493973494, 0.0, 0.0, 0.0, 0.0, 0.0, 1.7103879702865894E9, 0.0, 2024-03-13 20:46:10.286
35.0, -140.1826700391248, -368.34274663589895, -359.70357773825526, -524.9024385809898, 0.01600000075995922, -0.19200000911951065, 1.0400000493973494, 0.0, 0.0, 0.0, 0.0, 0.0, 1.7103879702865894E9, 0.0, 2024-03-13 20:46:10.286
36.0, -121.38219296187162, -163.28403206542134, -395.9619078086689, -762.5113724158145, 0.01600000075995922, -0.19200000911951065, 1.0400000493973494, 0.0, 0.0, 0.0, 0.0, 0.0, 1.7103879703025508E9, 0.0, 2024-03-13 20:46:10.302
36.0, -269.7047552545555, -205.65896851336583, -523.9468941423111, -845.4791829828173, 0.01600000075995922, -0.19200000911951065, 1.0400000493973494, 0.0, 0.0, 0.0, 0.0, 0.0, 1.7103879703025508E9, 0.0, 2024-03-13 20:46:10.302
37.0, -493.56768680224195, -196.0530354771763, -715.9196987678297, -857.12149154488, 0.01600000075995922, -0.19200000911951065, 1.0400000493973494, 0.0, 0.0, 0.0, 0.0, 0.0, 1.710387970303274E9, 0.0, 2024-03-13 20:46:10.303
37.0, -704.0342967086472, -356.3264480782673, -958.6018068925478, -959.6658084299415, 0.01600000075995922, -0.19200000911951065, 1.0400000493973494, 0.0, 0.0, 0.0, 0.0, 0.0, 1.710387970303274E9, 0.0, 2024-03-13 20:46:10.303
38.0, -833.3432076266035, -260.9477795083076, -1111.2963122334331, -882.496712744236, 0.01600000075995922, -0.19200000911951065, 1.0400000493973494, 0.0, 0.0, 0.0, 0.0, 0.0, 1.7103879703166492E9, 0.0, 2024-03-13 20:46:10.316
38.0, -860.4612222053111, -472.3306649038568, -1080.2401830013841, -641.8584599453025, 0.01600000075995922, -0.19200000911951065, 1.0400000493973494, 0.0, 0.0, 0.0, 0.0, 0.0, 1.7103879703166492E9, 0.0, 2024-03-13 20:46:10.316
39.0, -712.4228923092596, -433.90880270907655, -934.4009142792784, -562.2378598386422, 0.01600000075995922, -0.19200000911951065, 1.0400000493973494, 0.0, 0.0, 0.0, 0.0, 0.0, 1.7103879703323205E9, 0.0, 2024-03-13 20:46:10.332
39.0, -482.4040854345076, -438.6528658028692, -753.9657010170631, -546.1450703293085, 0.01600000075995922, -0.19200000911951065, 1.0400000493973494, 0.0, 0.0, 0.0, 0.0, 0.0, 1.7103879703323205E9, 0.0, 2024-03-13 20:46:10.332
40.0, -277.8839164576493, -289.9881026642397, -517.2150742220692, -459.9628157503903, 0.01600000075995922, -0.19200000911951065, 1.0400000493973494, 0.0, 0.0, 0.0, 0.0, 0.0, 1.7103879703330443E9, 0.0, 2024-03-13 20:46:10.333
40.0, -129.75582896266133, -367.74810254294425, -359.127633145079, -527.1388987544924, 0.01600000075995922, -0.19200000911951065, 1.0400000493973494, 0.0, 0.0, 0.0, 0.0, 0.0, 1.7103879703330443E9, 0.0, 2024-03-13 20:46:10.333
41.0, -127.4296111902222, -176.1231086133048, -402.80592472758144, -771.6105490080081, 0.01600000075995922, -0.19200000911951065, 1.0400000493973494, 0.0, 0.0, 0.0, 0.0, 0.0, 1.7103879703466322E9, 0.0, 2024-03-13 20:46:10.346
41.0, -277.6969214598648, -220.16978034144267, -534.549510516692, -861.7066088905558, 0.01600000075995922, -0.19200000911951065, 1.0400000493973494, 0.0, 0.0, 0.0, 0.0, 0.0, 1.7103879703466322E9, 0.0, 2024-03-13 20:46:10.346
42.0, -486.77976838266477, -202.41834520176053, -711.8843467156403, -862.4171898821369, 0.01600000075995922, -0.19200000911951065, 1.0400000493973494, 0.0, 0.0, 0.0, 0.0, 0.0, 1.7103879703623376E9, 0.0, 2024-03-13 20:46:10.362
42.0, -713.443884997163, -373.66088437289, -478.2696260334924, -974.6141885528341, 0.01600000075995922, -0.19200000911951065, 1.0400000493973494, 0.0, 0.0, 0.0, 0.0, 0.0, 1.7103879703623376E9, 0.0, 2024-03-13 20:46:10.362
43.0, -837.6403526756912, -268.1620465228334, -620.7055857959203, -886.5545041961595, 0.01600000075995922, -0.19200000911951065, 1.0400000493973494, 0.0, 0.0, 0.0, 0.0, 0.0, 1.710387970363037E9, 0.0, 2024-03-13 20:46:10.363
43.0, -860.2779671074823, -471.9940739078447, -596.3924961839803, -651.3578058327548, 0.01600000075995922, -0.19200000911951065, 1.0400000493973494, 0.0, 0.0, 0.0, 0.0, 0.0, 1.710387970363037E9, 0.0, 2024-03-13 20:46:10.363
44.0, -698.4618457746692, -424.4431159212254, -448.1858707899228, -563.4757667239755, 0.01600000075995922, -0.19200000911951065, 1.0400000493973494, 0.0, 0.0, 0.0, 0.0, 0.0, 1.7103879703766243E9, 0.0, 2024-03-13 20:46:10.376
44.0, -471.5060169636272, -428.22228482645005, -269.66922620497644, -545.7262015342712, 0.01600000075995922, -0.19200000911951065, 1.0400000493973494, 0.0, 0.0, 0.0, 0.0, 0.0, 1.7103879703766243E9, 0.0, 2024-03-13 20:46:10.376
45.0, -268.60148476762697, -277.0929276170209, -513.104924170766, -451.2974675530568, 0.01600000075995922, -0.19200000911951065, 1.0400000493973494, 0.0, 0.0, 0.0, 0.0, 0.0, 1.710387970392318E9, 0.0, 2024-03-13 20:46:10.392
45.0, -137.56847997009754, -364.109179886058, -353.2709498144686, -518.1818383606151, 0.01600000075995922, -0.19200000911951065, 1.0400000493973494, 0.0, 0.0, 0.0, 0.0, 0.0, 1.710387970392318E9, 0.0, 2024-03-13 20:46:10.392
46.0, -127.66522488743067, -167.99256610963494, -392.7343741469085, -758.9659472578205, 0.01600000075995922, -0.19200000911951065, 1.0400000493973494, 0.0, 0.0, 0.0, 0.0, 0.0, 1.710387970393065E9, 0.0, 2024-03-13 20:46:10.393
46.0, -271.4438087339513, -208.6396687780507, -538.4053473710082, -853.056220293045, 0.01600000075995922, -0.19200000911951065, 1.0400000493973494, 0.0, 0.0, 0.0, 0.0, 0.0, 1.710387970393065E9, 0.0, 2024-03-13 20:46:10.393
47.0, -490.7739815353416, -186.96133868489414, -714.3452008864842, -849.2508720881306, 0.01600000075995922, -0.19200000911951065, 1.0400000493973494, 0.0, 0.0, 0.0, 0.0, 0.0, 1.7103879704066713E9, 0.0, 2024-03-13 20:46:10.406
47.0, -700.2382982536219, -355.4587912885472, -474.13703658245504, -961.2795752608217, 0.01600000075995922, -0.19200000911951065, 1.0400000493973494, 0.0, 0.0, 0.0, 0.0, 0.0, 1.7103879704066713E9, 0.0, 2024-03-13 20:46:10.406
48.0, -842.0796139230952, -262.09966869466007, -627.7515573124401, -886.3170205489732, 0.01600000075995922, -0.19200000911951065, 1.0400000493973494, 0.0, 0.0, 0.0, 0.0, 0.0, 1.7103879704223187E9, 0.0, 2024-03-13 20:46:10.422
48.0, -848.0073553528637, -456.82877958752215, -586.4406224018894, -1123.3257004409097, 0.01600000075995922, -0.19200000911951065, 1.0400000493973494, 0.0, 0.0, 0.0, 0.0, 0.0, 1.7103879704223187E9, 0.0, 2024-03-13 20:46:10.422
49.0, -713.1259935009293, -437.9591143610887, -448.1821308899671, -1059.0611295523122, 0.01600000075995922, -0.19200000911951065, 1.0400000493973494, 0.0, 0.0, 0.0, 0.0, 0.0, 1.7103879704230795E9, 0.0, 2024-03-13 20:46:10.423
49.0, -489.37899885186926, -440.3582601826638, -264.9045936614275, -1037.137836012058, 0.01600000075995922, -0.19200000911951065, 1.0400000493973494, 0.0, 0.0, 0.0, 0.0, 0.0, 1.7103879704230795E9, 0.0, 2024-03-13 20:46:10.423
50.0, -281.21242741821334, -293.26799492537975, -31.35532122850418, -951.9578746212646, 0.01600000075995922, -0.19200000911951065, 1.0400000493973494, 0.0, 0.0, 0.0, 0.0, 0.0, 1.7103879704368167E9, 0.0, 2024-03-13 20:46:10.436
50.0, -139.15045765135437, -371.56654039770365, 129.62306251423433, -1019.3546117227525, 0.01600000075995922, -0.19200000911951065, 1.0400000493973494, 0.0, 0.0, 0.0, 0.0, 0.0, 1.7103879704368167E9, 0.0, 2024-03-13 20:46:10.436
51.0, -133.92581741325557, -178.55030368454754, 88.86563279712573, -774.2677479265258, 0.01600000075995922, -0.19200000911951065, 1.0400000493973494, 0.0, 0.0, 0.0, 0.0, 0.0, 1.7103879704523482E9, 0.0, 2024-03-13 20:46:10.452
51.0, -282.3082181052305, -219.75839134631678, -57.755275015719235, -866.2898562862538, 0.01600000075995922, -0.19200000911951065, 1.0400000493973494, 0.0, 0.0, 0.0, 0.0, 0.0, 1.7103879704523482E9, 0.0, 2024-03-13 20:46:10.452
52.0, -483.52979532117024, -191.13880693539977, -223.48520165216178, -861.1531036971137, 0.01600000075995922, -0.19200000911951065, 1.0400000493973494, 0.0, 0.0, 0.0, 0.0, 0.0, 1.7103879704531372E9, 0.0, 2024-03-13 20:46:10.453
52.0, -701.0423767440952, -365.96417026408017, 14.70715657575056, -972.8751350734383, 0.01600000075995922, -0.19200000911951065, 1.0400000493973494, 0.0, 0.0, 0.0, 0.0, 0.0, 1.7103879704531372E9, 0.0, 2024-03-13 20:46:10.453
53.0, -823.1295408476144, -252.7499188054353, -132.40367813128978, -883.9739732267335, 0.01600000075995922, -0.19200000911951065, 1.0400000493973494, 0.0, 0.0, 0.0, 0.0, 0.0, 1.7103879704667027E9, 0.0, 2024-03-13 20:46:10.466
53.0, -840.2208836451173, -456.67918358929455, -99.825409617275, -639.5659012724645, 0.01600000075995922, -0.19200000911951065, 1.0400000493973494, 0.0, 0.0, 0.0, 0.0, 0.0, 1.7103879704667027E9, 0.0, 2024-03-13 20:46:10.466
54.0, -711.3607607218437, -436.1976214819588, 38.93796838866547, -572.6273019155487, 0.01600000075995922, -0.19200000911951065, 1.0400000493973494, 0.0, 0.0, 0.0, 0.0, 0.0, 1.7103879704823384E9, 0.0, 2024-03-13 20:46:10.482
54.0, -477.4748972929083, -438.27139600738883, 222.50347791379318, -550.0158667834476, 0.01600000075995922, -0.19200000911951065, 1.0400000493973494, 0.0, 0.0, 0.0, 0.0, 0.0, 1.7103879704823384E9, 0.0, 2024-03-13 20:46:10.482
55.0, -264.38287761760876, -279.89785258378834, 462.4292797711678, -449.0684871794656, 0.01600000075995922, -0.19200000911951065, 1.0400000493973494, 0.0, 0.0, 0.0, 0.0, 0.0, 1.7103879704830651E9, 0.0, 2024-03-13 20:46:10.483
55.0, -132.73652922734618, -361.2032776204869, 624.9260628959164, -516.9102723756805, 0.01600000075995922, -0.19200000911951065, 1.0400000493973494, 0.0, 0.0, 0.0, 0.0, 0.0, 1.7103879704830651E9, 0.0, 2024-03-13 20:46:10.483
56.0, -129.06768737081438, -185.11382810678333, 565.2223000032827, -289.4794762702659, 0.01600000075995922, -0.19200000911951065, 1.0400000493973494, 0.0, 0.0, 0.0, 0.0, 0.0, 1.710387970497022E9, 0.0, 2024-03-13 20:46:10.497
56.0, -281.16754861874506, -217.77998426975682, 438.9726272490807, -365.72668661689386, 0.01600000075995922, -0.19200000911951065, 1.0400000493973494, 0.0, 0.0, 0.0, 0.0, 0.0, 1.710387970497022E9, 0.0, 2024-03-13 20:46:10.497
57.0, -496.23423547064885, -191.10140793584287, 266.38746399385855, -357.8785065598786, 0.01600000075995922, -0.19200000911951065, 1.0400000493973494, 0.0, 0.0, 0.0, 0.0, 0.0, 1.710387970512326E9, 0.0, 2024-03-13 20:46:10.512
57.0, -708.8064090521075, -362.03727531060576, 28.71308190980926, -469.05825244262815, 0.01600000075995922, -0.19200000911951065, 1.0400000493973494, 0.0, 0.0, 0.0, 0.0, 0.0, 1.710387970512326E9, 0.0, 2024-03-13 20:46:10.512
58.0, -850.1465781275183, -275.0584220411256, -133.05068082362413, -396.54159230180085, 0.01600000075995922, -0.19200000911951065, 1.0400000493973494, 0.0, 0.0, 0.0, 0.0, 0.0, 1.710387970513055E9, 0.0, 2024-03-13 20:46:10.513
58.0, -843.2352430094033, -453.9228773219511, -87.51739886309952, -624.0995450057089, 0.01600000075995922, -0.19200000911951065, 1.0400000493973494, 0.0, 0.0, 0.0, 0.0, 0.0, 1.710387970513055E9, 0.0, 2024-03-13 20:46:10.513
59.0, -707.3104490698315, -430.39703665068373, 47.23680639034137, -558.5185293327086, 0.01600000075995922, -0.19200000911951065, 1.0400000493973494, 0.0, 0.0, 0.0, 0.0, 0.0, 1.71038797052667E9, 0.0, 2024-03-13 20:46:10.526
59.0, -490.1120192431845, -444.19539753720164, 216.50841828482226, -558.62137658149, 0.01600000075995922, -0.19200000911951065, 1.0400000493973494, 0.0, 0.0, 0.0, 0.0, 0.0, 1.71038797052667E9, 0.0, 2024-03-13 20:46:10.526
60.0, -275.0041934917681, -280.7617694735527, -24.324309311807156, -453.34319282881916, 0.01600000075995922, -0.19200000911951065, 1.0400000493973494, 0.0, 0.0, 0.0, 0.0, 0.0, 1.710387970542332E9, 0.0, 2024-03-13 20:46:10.542
60.0, -126.94342419598252, -364.9506573760882, 137.2000998244621, -522.3705263109878, 0.01600000075995922, -0.19200000911951065, 1.0400000493973494, 0.0, 0.0, 0.0, 0.0, 0.0, 1.710387970542332E9, 0.0, 2024-03-13 20:46:10.542
61.0, -125.82893400918692, -173.3069639466703, 98.51831458276138, -279.55378178786486, 0.01600000075995922, -0.19200000911951065, 1.0400000493973494, 0.0, 0.0, 0.0, 0.0, 0.0, 1.7103879705430489E9, 0.0, 2024-03-13 20:46:10.543
61.0, -270.08996494999155, -205.90954181039706, -39.06699493713677, -360.31505138101056, 0.01600000075995922, -0.19200000911951065, 1.0400000493973494, 0.0, 0.0, 0.0, 0.0, 0.0, 1.7103879705430489E9, 0.0, 2024-03-13 20:46:10.543
62.0, -496.93733666231856, -189.26511705759913, -215.53417434636503, -357.41101906541735, 0.01600000075995922, -0.19200000911951065, 1.0400000493973494, 0.0, 0.0, 0.0, 0.0, 0.0, 1.7103879705568347E9, 0.0, 2024-03-13 20:46:10.556
62.0, -716.2488099639304, -366.12124606221914, 19.88691801438108, -479.5150127187371, 0.01600000075995922, -0.19200000911951065, 1.0400000493973494, 0.0, 0.0, 0.0, 0.0, 0.0, 1.7103879705568347E9, 0.0, 2024-03-13 20:46:10.556
63.0, -832.4231922375038, -263.50961097795516, -128.7273564748466, -390.75970697030425, 0.01600000075995922, -0.19200000911951065, 1.0400000493973494, 0.0, 0.0, 0.0, 0.0, 0.0, 1.7103879705722997E9, 0.0, 2024-03-13 20:46:10.572
63.0, -863.1614299733192, -468.6244240477681, -108.4982376145199, -156.25489009870216, 0.01600000075995922, -0.19200000911951065, 1.0400000493973494, 0.0, 0.0, 0.0, 0.0, 0.0, 1.7103879705722997E9, 0.0, 2024-03-13 20:46:10.572
64.0, -699.2621843651868, -427.0797453899868, 46.60476329782978, -71.08053855784237, 0.01600000075995922, -0.19200000911951065, 1.0400000493973494, 0.0, 0.0, 0.0, 0.0, 0.0, 1.7103879705730407E9, 0.0, 2024-03-13 20:46:10.573
64.0, -482.64343903167173, -442.19455106090754, 217.09184267790988, -67.80438619665802, 0.01600000075995922, -0.19200000911951065, 1.0400000493973494, 0.0, 0.0, 0.0, 0.0, 0.0, 1.7103879705730407E9, 0.0, 2024-03-13 20:46:10.573
65.0, -273.57555170869455, -275.5782681349665, -26.242877989076078, 43.53243548423052, 0.01600000075995922, -0.19200000911951065, 1.0400000493973494, 0.0, 0.0, 0.0, 0.0, 0.0, 1.7103879705868545E9, 0.0, 2024-03-13 20:46:10.586
65.0, -133.11425912287086, -361.9923965111375, 133.31434377050027, -31.02621003240347, 0.01600000075995922, -0.19200000911951065, 1.0400000493973494, 0.0, 0.0, 0.0, 0.0, 0.0, 1.7103879705868545E9, 0.0, 2024-03-13 20:46:10.586
66.0, -139.72640224453062, -188.9434856614098, 81.41949198534712, 195.06944178882986, 0.01600000075995922, -0.19200000911951065, 1.0400000493973494, 0.0, 0.0, 0.0, 0.0, 0.0, 1.7103879706026814E9, 0.0, 2024-03-13 20:46:10.602
66.0, -270.57989184418693, -207.9739665859379, -42.38802609778941, 128.75914562446997, 0.01600000075995922, -0.19200000911951065, 1.0400000493973494, 0.0, 0.0, 0.0, 0.0, 0.0, 1.7103879706026814E9, 0.0, 2024-03-13 20:46:10.602
67.0, -490.00730204442516, -186.39287389162928, -220.6204382861033, 130.8030009502545, 0.01600000075995922, -0.19200000911951065, 1.0400000493973494, 0.0, 0.0, 0.0, 0.0, 0.0, 1.710387970603089E9, 0.0, 2024-03-13 20:46:10.603
67.0, -716.783615657594, -367.4302110467106, 18.125425135251135, 7.737853008322418, 0.01600000075995922, -0.19200000911951065, 1.0400000493973494, 0.0, 0.0, 0.0, 0.0, 0.0, 1.710387970603089E9, 0.0, 2024-03-13 20:46:10.603
68.0, -853.6695638857782, -280.8702265722677, -144.6256711864844, 83.12675631511956, 0.01600000075995922, -0.19200000911951065, 1.0400000493973494, 0.0, 0.0, 0.0, 0.0, 0.0, 1.7103879706169753E9, 0.0, 2024-03-13 20:46:10.616
68.0, -855.083246069029, -465.5128272846341, -108.70767201203853, -152.41962269414216, 0.01600000075995922, -0.19200000911951065, 1.0400000493973494, 0.0, 0.0, 0.0, 0.0, 0.0, 1.7103879706169753E9, 0.0, 2024-03-13 20:46:10.616
69.0, -713.1820920002647, -438.79685195116326, 36.604270816314965, -81.44193138508126, 0.01600000075995922, -0.19200000911951065, 1.0400000493973494, 0.0, 0.0, 0.0, 0.0, 0.0, 1.7103879706323028E9, 0.0, 2024-03-13 20:46:10.632
69.0, -488.4627233627252, -447.89041869342327, 214.80676380498335, -65.25190447689965, 0.01600000075995922, -0.19200000911951065, 1.0400000493973494, 0.0, 0.0, 0.0, 0.0, 0.0, 1.7103879706323028E9, 0.0, 2024-03-13 20:46:10.632
70.0, -260.09321236843243, -268.63327391725034, -21.998091539368033, 56.01435158634558, 0.01600000075995922, -0.19200000911951065, 1.0400000493973494, 0.0, 0.0, 0.0, 0.0, 0.0, 1.710387970633035E9, 0.0, 2024-03-13 20:46:10.633
70.0, -132.38123873155564, -353.25973011460155, 146.92383970925584, -11.666617911774665, 0.01600000075995922, -0.19200000911951065, 1.0400000493973494, 0.0, 0.0, 0.0, 0.0, 0.0, 1.710387970633035E9, 0.0, 2024-03-13 20:46:10.633
71.0, -121.36349346209317, -170.08691008482128, 96.2107963101007, 215.6033624955453, 0.01600000075995922, -0.19200000911951065, 1.0400000493973494, 0.0, 0.0, 0.0, 0.0, 0.0, 1.710387970646803E9, 0.0, 2024-03-13 20:46:10.646
71.0, -264.5549130155705, -196.50369342183694, -33.38982680439949, 145.96829527057707, 0.01600000075995922, -0.19200000911951065, 1.0400000493973494, 0.0, 0.0, 0.0, 0.0, 0.0, 1.710387970646803E9, 0.0, 2024-03-13 20:46:10.646
72.0, -478.6267864792608, -167.6335357138887, -204.45285077765584, 157.02904938952997, 0.01600000075995922, -0.19200000911951065, 1.0400000493973494, 0.0, 0.0, 0.0, 0.0, 0.0, 1.7103879706627517E9, 0.0, 2024-03-13 20:46:10.662
72.0, -693.2259858367033, -352.3097955258563, 39.25585988489911, 31.903216572012752, 0.01600000075995922, -0.19200000911951065, 1.0400000493973494, 0.0, 0.0, 0.0, 0.0, 0.0, 1.7103879706627517E9, 0.0, 2024-03-13 20:46:10.662
73.0, -845.6175592811778, -270.4209460960701, -134.68127720430493, 93.39091174351051, 0.01600000075995922, -0.19200000911951065, 1.0400000493973494, 0.0, 0.0, 0.0, 0.0, 0.0, 1.710387970663133E9, 0.0, 2024-03-13 20:46:10.663
73.0, -862.9744349755347, -468.35889115091413, -109.91191979777068, 336.80043040961027, 0.01600000075995922, -0.19200000911951065, 1.0400000493973494, 0.0, 0.0, 0.0, 0.0, 0.0, 1.710387970663133E9, 0.0, 2024-03-13 20:46:10.663
74.0, -712.6809454062022, -440.1095568356104, 28.42136971326545, 401.1024002977647, 0.01600000075995922, -0.19200000911951065, 1.0400000493973494, 0.0, 0.0, 0.0, 0.0, 0.0, 1.7103879706768384E9, 0.0, 2024-03-13 20:46:10.676
74.0, -502.08717890130356, -462.5134275201708, 199.87334328191355, 405.2536892485805, 0.01600000075995922, -0.19200000911951065, 1.0400000493973494, 0.0, 0.0, 0.0, 0.0, 0.0, 1.7103879706768384E9, 0.0, 2024-03-13 20:46:10.676
75.0, -285.95462056202814, -284.71110382676125, -43.33796068653464, 523.5205455473624, 0.01600000075995922, -0.19200000911951065, 1.0400000493973494, 0.0, 0.0, 0.0, 0.0, 0.0, 1.7103879706923137E9, 0.0, 2024-03-13 20:46:10.692
75.0, -126.0944669060409, -359.22487054392695, 132.35318948188797, 458.95117281237617, 0.01600000075995922, -0.19200000911951065, 1.0400000493973494, 0.0, 0.0, 0.0, 0.0, 0.0, 1.7103879706923137E9, 0.0, 2024-03-13 20:46:10.692
76.0, -129.92412446066737, -184.201292517595, 81.50924958428368, 687.3767823060043, 0.01600000075995922, -0.19200000911951065, 1.0400000493973494, 0.0, 0.0, 0.0, 0.0, 0.0, 1.7103879706930025E9, 0.0, 2024-03-13 20:46:10.693
76.0, -277.80163865862414, -211.91208123927936, -56.66322422865778, 609.5513341780752, 0.01600000075995922, -0.19200000911951065, 1.0400000493973494, 0.0, 0.0, 0.0, 0.0, 0.0, 1.7103879706930025E9, 0.0, 2024-03-13 20:46:10.693
77.0, -484.93225780455396, -177.4582528974861, -217.83421281911433, 629.6289870901965, 0.01600000075995922, -0.19200000911951065, 1.0400000493973494, 0.0, 0.0, 0.0, 0.0, 0.0, 1.7103879707071242E9, 0.0, 2024-03-13 20:46:10.707
77.0, -707.8190754638053, -372.23598248977214, 8.177291253115982, 494.6260784897022, 0.01600000075995922, -0.19200000911951065, 1.0400000493973494, 0.0, 0.0, 0.0, 0.0, 0.0, 1.7103879707071242E9, 0.0, 2024-03-13 20:46:10.707
78.0, -847.846539654769, -273.6559595577419, -149.35664463043213, 573.6314650536515, 0.01600000075995922, -0.19200000911951065, 1.0400000493973494, 0.0, 0.0, 0.0, 0.0, 0.0, 1.7103879707222962E9, 0.0, 2024-03-13 20:46:10.722
78.0, -846.1299255751073, -453.8069404233247, -103.37083477526903, 347.670449630823, 0.01600000075995922, -0.19200000911951065, 1.0400000493973494, 0.0, 0.0, 0.0, 0.0, 0.0, 1.7103879707222962E9, 0.0, 2024-03-13 20:46:10.722
79.0, -687.1112494091503, -428.64676347142085, 41.93736815312877, 411.39647492580116, 0.01600000075995922, -0.19200000911951065, 1.0400000493973494, 0.0, 0.0, 0.0, 0.0, 0.0, 1.7103879707229962E9, 0.0, 2024-03-13 20:46:10.722
79.0, -481.0165825509466, -444.1392990378663, 217.46583267347887, 419.949626124464, 0.01600000075995922, -0.19200000911951065, 1.0400000493973494, 0.0, 0.0, 0.0, 0.0, 0.0, 1.7103879707229962E9, 0.0, 2024-03-13 20:46:10.722
80.0, -271.7056017308496, -273.9775909539312, 453.83872957294807, 531.9820691971108, 0.01600000075995922, -0.19200000911951065, 1.0400000493973494, 0.0, 0.0, 0.0, 0.0, 0.0, 1.710387970736628E9, 0.0, 2024-03-13 20:46:10.736
80.0, -138.0621467642486, -367.6994838435203, 620.0380136538297, 453.0589604321867, 0.01600000075995922, -0.19200000911951065, 1.0400000493973494, 0.0, 0.0, 0.0, 0.0, 0.0, 1.710387970736628E9, 0.0, 2024-03-13 20:46:10.736
81.0, -146.5143206641078, -193.9848708016798, 560.81669785548, 671.3980597453192, 0.01600000075995922, -0.19200000911951065, 1.0400000493973494, 0.0, 0.0, 0.0, 0.0, 0.0, 1.7103879707524436E9, 0.0, 2024-03-13 20:46:10.752
81.0, -271.1558364373632, -209.33155026985332, 429.4134429623373, 612.1524345972575, 0.01600000075995922, -0.19200000911951065, 1.0400000493973494, 0.0, 0.0, 0.0, 0.0, 0.0, 1.7103879707524436E9, 0.0, 2024-03-13 20:46:10.752
82.0, -465.18558603851125, -161.19342799019068, 276.6011307728477, 637.5370055465028, 0.01600000075995922, -0.19200000911951065, 1.0400000493973494, 0.0, 0.0, 0.0, 0.0, 0.0, 1.710387970753034E9, 0.0, 2024-03-13 20:46:10.753
82.0, -221.02060758136213, -374.41634416393936, 511.51359673961997, 494.4185140421614, 0.01600000075995922, -0.19200000911951065, 1.0400000493973494, 0.0, 0.0, 0.0, 0.0, 0.0, 1.710387970753034E9, 0.0, 2024-03-13 20:46:10.753
83.0, -355.8496108339168, -273.03139626514167, 338.08508604438975, 571.9915189230815, 0.01600000075995922, -0.19200000911951065, 1.0400000493973494, 0.0, 0.0, 0.0, 0.0, 0.0, 1.7103879707666397E9, 0.0, 2024-03-13 20:46:10.766
83.0, -343.0292337858118, -448.9263709811494, 395.74686356121674, 353.760876708664, 0.01600000075995922, -0.19200000911951065, 1.0400000493973494, 0.0, 0.0, 0.0, 0.0, 0.0, 1.7103879707666397E9, 0.0, 2024-03-13 20:46:10.766
84.0, -214.32992656063288, -434.9559746966697, 530.4337506154552, 411.30484737688676, 0.01600000075995922, -0.19200000911951065, 1.0400000493973494, 0.0, 0.0, 0.0, 0.0, 0.0, 1.7103879707825623E9, 0.0, 2024-03-13 20:46:10.782
84.0, -0.2655328968539834, -456.0733197964728, 695.6288715582341, 407.779991668649, 0.01600000075995922, -0.19200000911951065, 1.0400000493973494, 0.0, 0.0, 0.0, 0.0, 0.0, 1.7103879707825623E9, 0.0, 2024-03-13 20:46:10.782
85.0, 222.5464867632836, -275.0958210406825, 461.06421628734097, 537.6330580301583, 0.01600000075995922, -0.19200000911951065, 1.0400000493973494, 0.0, 0.0, 0.0, 0.0, 0.0, 1.7103879707833672E9, 0.0, 2024-03-13 20:46:10.783
85.0, 369.8330967682414, -352.70248502120376, 633.5390524938703, 472.98140749614686, 0.01600000075995922, -0.19200000911951065, 1.0400000493973494, 0.0, 0.0, 0.0, 0.0, 0.0, 1.7103879707833672E9, 0.0, 2024-03-13 20:46:10.783
86.0, 359.9709805850871, -187.74297777563334, 574.7515650903806, 687.199137058109, 0.01600000075995922, -0.19200000911951065, 1.0400000493973494, 0.0, 0.0, 0.0, 0.0, 0.0, 1.710387970797172E9, 0.0, 2024-03-13 20:46:10.797
86.0, 220.9607691820711, -203.08965724380687, 440.3339508329518, 622.8522883704863, 0.01600000075995922, -0.19200000911951065, 1.0400000493973494, 0.0, 0.0, 0.0, 0.0, 0.0, 1.710387970797172E9, 0.0, 2024-03-13 20:46:10.797
87.0, 10.778391672298312, -168.72558650095016, 270.67712924303487, 634.1785753862932, 0.01600000075995922, -0.19200000911951065, 1.0400000493973494, 0.0, 0.0, 0.0, 0.0, 0.0, 1.7103879708128488E9, 0.0, 2024-03-13 20:46:10.812
87.0, -214.61041905730963, -373.63470507320017, 499.91616697702557, 488.7151666097343, 0.01600000075995922, -0.19200000911951065, 1.0400000493973494, 0.0, 0.0, 0.0, 0.0, 0.0, 1.7103879708128488E9, 0.0, 2024-03-13 20:46:10.812
88.0, -349.53291980875656, -270.9445320898667, 345.1871560602449, 576.2737043723464, 0.01600000075995922, -0.19200000911951065, 1.0400000493973494, 0.0, 0.0, 0.0, 0.0, 0.0, 1.7103879708131824E9, 0.0, 2024-03-13 20:46:10.813
88.0, -357.6971214120276, -451.22640945389867, 395.45141146471724, 350.56326224654913, 0.01600000075995922, -0.19200000911951065, 1.0400000493973494, 0.0, 0.0, 0.0, 0.0, 0.0, 1.7103879708131824E9, 0.0, 2024-03-13 20:46:10.813
89.0, -218.49991501122713, -441.16794852307066, 529.7867479231209, 406.04654803918675, 0.01600000075995922, -0.19200000911951065, 1.0400000493973494, 0.0, 0.0, 0.0, 0.0, 0.0, 1.7103879708266091E9, 0.0, 2024-03-13 20:46:10.826
89.0, -6.8215775191783905, -456.76146138831973, 700.4533425010741, 417.1839701072313, 0.01600000075995922, -0.19200000911951065, 1.0400000493973494, 0.0, 0.0, 0.0, 0.0, 0.0, 1.7103879708266091E9, 0.0, 2024-03-13 20:46:10.826
90.0, 212.68063068017364, -277.2051246156916, 943.9657084159553, 533.4312804299407, 0.01600000075995922, -0.19200000911951065, 1.0400000493973494, 0.0, 0.0, 0.0, 0.0, 0.0, 1.7103879708422709E9, 0.0, 2024-03-13 20:46:10.842
90.0, 368.1239624884911, -353.7533969087526, 1122.9292710456066, 470.93007237045094, 0.01600000075995922, -0.19200000911951065, 1.0400000493973494, 0.0, 0.0, 0.0, 0.0, 0.0, 1.7103879708422709E9, 0.0, 2024-03-13 20:46:10.842
91.0, 346.548479644116, -191.99524402525276, 1061.789386569988, 684.96828673454, 0.01600000075995922, -0.19200000911951065, 1.0400000493973494, 0.0, 0.0, 0.0, 0.0, 0.0, 1.7103879708429885E9, 0.0, 2024-03-13 20:46:10.842
91.0, 216.59630593378097, -205.50563261518255, 934.5112413279712, 626.0816919822246, 0.01600000075995922, -0.19200000911951065, 1.0400000493973494, 0.0, 0.0, 0.0, 0.0, 0.0, 1.7103879708429885E9, 0.0, 2024-03-13 20:46:10.842
92.0, 4.962847241200507, -171.47441296838224, 765.6397987287492, 635.1453395248391, 0.01600000075995922, -0.19200000911951065, 1.0400000493973494, 0.0, 0.0, 0.0, 0.0, 0.0, 1.710387970856602E9, 0.0, 2024-03-13 20:46:10.856
92.0, -221.79850677214563, -374.1807304667309, 996.8048849399202, 491.05447403201833, 0.01600000075995922, -0.19200000911951065, 1.0400000493973494, 0.0, 0.0, 0.0, 0.0, 0.0, 1.710387970856602E9, 0.0, 2024-03-13 20:46:10.856
93.0, -357.56996481353417, -272.4554516719654, 837.60669357609, 575.2097028349526, 0.01600000075995922, -0.19200000911951065, 1.0400000493973494, 0.0, 0.0, 0.0, 0.0, 0.0, 1.71038797087235E9, 0.0, 2024-03-13 20:46:10.872
93.0, -345.209595459979, -449.4424771750346, 876.224900518544, 349.9293492040597, 0.01600000075995922, -0.19200000911951065, 1.0400000493973494, 0.0, 0.0, 0.0, 0.0, 0.0, 1.71038797087235E9, 0.0, 2024-03-13 20:46:10.872
94.0, -215.30604044906795, -439.5635314420797, 1017.21351899812, 402.2262402344495, 0.01600000075995922, -0.19200000911951065, 1.0400000493973494, 0.0, 0.0, 0.0, 0.0, 0.0, 1.7103879708731048E9, 0.0, 2024-03-13 20:46:10.873
94.0, -5.071304339915514, -462.60692501906306, 1174.4389131353237, 399.0304957223125, 0.01600000075995922, -0.19200000911951065, 1.0400000493973494, 0.0, 0.0, 0.0, 0.0, 0.0, 1.7103879708731048E9, 0.0, 2024-03-13 20:46:10.873
95.0, 212.92372417729348, -286.1808845093474, 938.6475706789643, 524.2273866389878, 0.01600000075995922, -0.19200000911951065, 1.0400000493973494, 0.0, 0.0, 0.0, 0.0, 0.0, 1.710387970886774E9, 0.0, 2024-03-13 20:46:10.886
95.0, 373.202746628318, -354.2096647033468, 1116.06281472696, 466.33373532490805, 0.01600000075995922, -0.19200000911951065, 1.0400000493973494, 0.0, 0.0, 0.0, 0.0, 0.0, 1.710387970886774E9, 0.0, 2024-03-13 20:46:10.886
96.0, 349.4880410092883, -199.83033443242311, 1053.5541268675588, 672.9370285770856, 0.01600000075995922, -0.19200000911951065, 1.0400000493973494, 0.0, 0.0, 0.0, 0.0, 0.0, 1.7103879709023662E9, 0.0, 2024-03-13 20:46:10.902
96.0, 210.541407905519, -218.6775602591224, 920.4641770943999, 609.4540967792273, 0.01600000075995922, -0.19200000911951065, 1.0400000493973494, 0.0, 0.0, 0.0, 0.0, 0.0, 1.7103879709023662E9, 0.0, 2024-03-13 20:46:10.902
97.0, 10.131388979963958, -173.81185044068843, 762.9433308606967, 632.2618766590022, 0.01600000075995922, -0.19200000911951065, 1.0400000493973494, 0.0, 0.0, 0.0, 0.0, 0.0, 1.710387970903102E9, 0.0, 2024-03-13 20:46:10.903
97.0, -217.3293263250962, -374.0984526677057, 1003.959313555155, 493.90427779825404, 0.01600000075995922, -0.19200000911951065, 1.0400000493973494, 0.0, 0.0, 0.0, 0.0, 0.0, 1.710387970903102E9, 0.0, 2024-03-13 20:46:10.903
98.0, -360.5955438776873, -287.55716769304127, 827.8268551919609, 568.6125193131156, 0.01600000075995922, -0.19200000911951065, 1.0400000493973494, 0.0, 0.0, 0.0, 0.0, 0.0, 1.710387970916666E9, 0.0, 2024-03-13 20:46:10.916
98.0, -352.79411257011816, -449.89874496962875, 887.3361432868987, 357.3006920167245, 0.01600000075995922, -0.19200000911951065, 1.0400000493973494, 0.0, 0.0, 0.0, 0.0, 0.0, 1.710387970916666E9, 0.0, 2024-03-13 20:46:10.916
99.0, -214.5131816584617, -443.1650550994091, 1025.920006094966, 407.0918500768021, 0.01600000075995922, -0.19200000911951065, 1.0400000493973494, 0.0, 0.0, 0.0, 0.0, 0.0, 1.7103879709326544E9, 0.0, 2024-03-13 20:46:10.932
99.0, -12.89143514726311, -477.3309111446142, 1177.7898634956218, 394.66229257406667, 0.01600000075995922, -0.19200000911951065, 1.0400000493973494, 0.0, 0.0, 0.0, 0.0, 0.0, 1.7103879709326544E9, 0.0, 2024-03-13 20:46:10.932
100.0, 206.49109625350684, -289.4645166704431, 952.5412990143523, 533.0423308345489, 0.01600000075995922, -0.19200000911951065, 1.0400000493973494, 0.0, 0.0, 0.0, 0.0, 0.0, 1.7103879709331672E9, 0.0, 2024-03-13 20:46:10.933
100.0, 364.3466635332443, -366.0726273627952, 1121.1116796671413, 459.78143060253933, 0.01600000075995922, -0.19200000911951065, 1.0400000493973494, 0.0, 0.0, 0.0, 0.0, 0.0, 1.7103879709331672E9, 0.0, 2024-03-13 20:46:10.933
0.0, -636.2785292114131, -210.86677920166403, -422.71902204165235, -320.8740664483048, 0.01600000075995922, -0.19200000911951065, 1.0400000493973494, 0.0, 0.0, 0.0, 0.0, 0.0, 1.71038797094776E9, 0.0, 2024-03-13 20:46:10.947
1.0, -775.3410992138088, -223.56186960125342, -551.7212611632422, -371.622638897039, 0.01600000075995922, -0.19200000911951065, 1.0400000493973494, 0.0, 0.0, 0.0, 0.0, 0.0, 1.7103879709482431E9, 0.0, 2024-03-13 20:46:10.948
1.0, -971.7868241863325, -172.95915325079113, -702.0764590818435, -345.46016875701025, 0.01600000075995922, -0.19200000911951065, 1.0400000493973494, 0.0, 0.0, 0.0, 0.0, 0.0, 1.7103879709482431E9, 0.0, 2024-03-13 20:46:10.948
2.0, -1211.8061235425994, -395.0344126196578, -484.77892190637067, -507.5100338370539, 0.01600000075995922, -0.19200000911951065, 1.0400000493973494, 0.0, 0.0, 0.0, 0.0, 0.0, 1.7103879709617105E9, 0.0, 2024-03-13 20:46:10.961
2.0, -1355.4201517910697, -294.89859130606055, -643.1805145796388, -419.9178369748406, 0.01600000075995922, -0.19200000911951065, 1.0400000493973494, 0.0, 0.0, 0.0, 0.0, 0.0, 1.7103879709617105E9, 0.0, 2024-03-13 20:46:10.961
3.0, -1327.0118717276491, -448.26440868899226, -582.9905646927655, -625.2233849423937, 0.01600000075995922, -0.19200000911951065, 1.0400000493973494, 0.0, 0.0, 0.0, 0.0, 0.0, 1.710387970977379E9, 0.0, 2024-03-13 20:46:10.977
3.0, -1195.8255310319364, -445.13972227601334, -455.0766364582814, -580.8326424183324, 0.01600000075995922, -0.19200000911951065, 1.0400000493973494, 0.0, 0.0, 0.0, 0.0, 0.0, 1.710387970977379E9, 0.0, 2024-03-13 20:46:10.977
4.0, -985.9535652184859, -465.5277868844569, -289.5299649196677, -579.9762053284794, 0.01600000075995922, -0.19200000911951065, 1.0400000493973494, 0.0, 0.0, 0.0, 0.0, 0.0, 1.7103879709781377E9, 0.0, 2024-03-13 20:46:10.978
4.0, -770.8943581664935, -279.0264558941126, -522.0152358151972, -448.4439238868654, 0.01600000075995922, -0.19200000911951065, 1.0400000493973494, 0.0, 0.0, 0.0, 0.0, 0.0, 1.7103879709781377E9, 0.0, 2024-03-13 20:46:10.978
5.0, -613.1248085857369, -348.99998406507075, -348.8933969163336, -510.66089954972267, 0.01600000075995922, -0.19200000911951065, 1.0400000493973494, 0.0, 0.0, 0.0, 0.0, 0.0, 1.710387970991741E9, 0.0, 2024-03-13 20:46:10.991
5.0, -618.9740121164359, -192.70956491678953, -410.7999608828686, -305.53860667999834, 0.01600000075995922, -0.19200000911951065, 1.0400000493973494, 0.0, 0.0, 0.0, 0.0, 0.0, 1.710387970991741E9, 0.0, 2024-03-13 20:46:10.991
6.0, -770.0042619770393, -204.40236212825403, -541.616051482968, -354.6790221477859, 0.01600000075995922, -0.19200000911951065, 1.0400000493973494, 0.0, 0.0, 0.0, 0.0, 0.0, 1.7103879710075889E9, 0.0, 2024-03-13 20:46:11.007
6.0, -959.3292174339294, -154.1137973740697, -695.9280635546893, -332.72767935786396, 0.01600000075995922, -0.19200000911951065, 1.0400000493973494, 0.0, 0.0, 0.0, 0.0, 0.0, 1.7103879710075889E9, 0.0, 2024-03-13 20:46:11.007
7.0, -1184.8227453622967, -368.82519373018295, -468.1326272035949, -488.4496337128803, 0.01600000075995922, -0.19200000911951065, 1.0400000493973494, 0.0, 0.0, 0.0, 0.0, 0.0, 1.7103879710082247E9, 0.0, 2024-03-13 20:46:11.008
7.0, -1345.8235685047694, -274.0486490530893, -632.794812402688, -403.8530967151746, 0.01600000075995922, -0.19200000911951065, 1.0400000493973494, 0.0, 0.0, 0.0, 0.0, 0.0, 1.7103879710082247E9, 0.0, 2024-03-13 20:46:11.008
8.0, -1320.6016832035966, -432.1753590796143, -580.6194681208581, -614.3122268216684, 0.01600000075995922, -0.19200000911951065, 1.0400000493973494, 0.0, 0.0, 0.0, 0.0, 0.0, 1.7103879710219133E9, 0.0, 2024-03-13 20:46:11.021
8.0, -1188.267193221487, -429.8958900566213, -449.10775612900034, -574.2111495467834, 0.01600000075995922, -0.19200000911951065, 1.0400000493973494, 0.0, 0.0, 0.0, 0.0, 0.0, 1.7103879710219133E9, 0.0, 2024-03-13 20:46:11.021
9.0, -990.269409767352, -462.57326591946185, -293.2399456757121, -579.4040006352589, 0.01600000075995922, -0.19200000911951065, 1.0400000493973494, 0.0, 0.0, 0.0, 0.0, 0.0, 1.71038797103786E9, 0.0, 2024-03-13 20:46:11.037
9.0, -762.7338964631781, -270.03573640063405, -524.2928348882124, -443.70921054296196, 0.01600000075995922, -0.19200000911951065, 1.0400000493973494, 0.0, 0.0, 0.0, 0.0, 0.0, 1.71038797103786E9, 0.0, 2024-03-13 20:46:11.037
10.0, -601.6694950214587, -348.2707035737112, -345.1834161602892, -511.59213463868946, 0.01600000075995922, -0.19200000911951065, 1.0400000493973494, 0.0, 0.0, 0.0, 0.0, 0.0, 1.7103879710381937E9, 0.0, 2024-03-13 20:46:11.038
10.0, -640.1680251653306, -207.6168061401695, -419.9926349739544, -314.16281597781926, 0.01600000075995922, -0.19200000911951065, 1.0400000493973494, 0.0, 0.0, 0.0, 0.0, 0.0, 1.7103879710381937E9, 0.0, 2024-03-13 20:46:11.038
11.0, -775.3074401142076, -215.1620543007739, -546.5078406250104, -360.599283777643, 0.01600000075995922, -0.19200000911951065, 1.0400000493973494, 0.0, 0.0, 0.0, 0.0, 0.0, 1.71038797105173E9, 0.0, 2024-03-13 20:46:11.051
11.0, -963.5814836835489, -164.31250455323607, -697.9962282301858, -335.5326043246314, 0.01600000075995922, -0.19200000911951065, 1.0400000493973494, 0.0, 0.0, 0.0, 0.0, 0.0, 1.71038797105173E9, 0.0, 2024-03-13 20:46:11.051
12.0, -1207.602475992404, -383.89699055161327, -476.2369904075749, -497.1187218101695, 0.01600000075995922, -0.19200000911951065, 1.0400000493973494, 0.0, 0.0, 0.0, 0.0, 0.0, 1.7103879710675457E9, 0.0, 2024-03-13 20:46:11.067
12.0, -1358.0380817600526, -289.03816807549447, -636.0373056642711, -412.28657111525536, 0.01600000075995922, -0.19200000911951065, 1.0400000493973494, 0.0, 0.0, 0.0, 0.0, 0.0, 1.7103879710675457E9, 0.0, 2024-03-13 20:46:11.067
13.0, -1323.2831914718263, -439.3559669945389, -579.0150510398671, -616.4963283957914, 0.01600000075995922, -0.19200000911951065, 1.0400000493973494, 0.0, 0.0, 0.0, 0.0, 0.0, 1.710387971068368E9, 0.0, 2024-03-13 20:46:11.068
13.0, -1188.7795595154166, -437.9254552614875, -441.91592851420864, -572.7899875636213, 0.01600000075995922, -0.19200000911951065, 1.0400000493973494, 0.0, 0.0, 0.0, 0.0, 0.0, 1.710387971068368E9, 0.0, 2024-03-13 20:46:11.068
14.0, -1006.4482169756666, -471.5864248126745, -291.3138971985318, -584.1387139791623, 0.01600000075995922, -0.19200000911951065, 1.0400000493973494, 0.0, 0.0, 0.0, 0.0, 0.0, 1.710387971082003E9, 0.0, 2024-03-13 20:46:11.082
14.0, -1248.1411215621047, -265.21126545779407, -522.2545894123614, -439.2026310963556, 0.01600000075995922, -0.19200000911951065, 1.0400000493973494, 0.0, 0.0, 0.0, 0.0, 0.0, 1.710387971082003E9, 0.0, 2024-03-13 20:46:11.082
15.0, -1091.553380367346, -337.72792559862137, -344.027787073981, -502.48547824658453, 0.01600000075995922, -0.19200000911951065, 1.0400000493973494, 0.0, 0.0, 0.0, 0.0, 0.0, 1.71038797109751E9, 0.0, 2024-03-13 20:46:11.097
15.0, -1134.502391458489, -212.42257758323103, -427.24056108808145, -323.4789067674428, 0.01600000075995922, -0.19200000911951065, 1.0400000493973494, 0.0, 0.0, 0.0, 0.0, 0.0, 1.71038797109751E9, 0.0, 2024-03-13 20:46:11.097
16.0, -1256.5858156620525, -203.47673688922077, -550.5020537776873, -356.42181552713737, 0.01600000075995922, -0.19200000911951065, 1.0400000493973494, 0.0, 0.0, 0.0, 0.0, 0.0, 1.7103879710980563E9, 0.0, 2024-03-13 20:46:11.098
16.0, -1452.2910404433496, -161.52066923631355, -704.5148738529533, -342.3093030443415, 0.01600000075995922, -0.19200000911951065, 1.0400000493973494, 0.0, 0.0, 0.0, 0.0, 0.0, 1.7103879710980563E9, 0.0, 2024-03-13 20:46:11.098
17.0, -1209.651941168122, -386.2325580739416, -476.99619009858, -509.29209616594017, 0.01600000075995922, -0.19200000911951065, 1.0400000493973494, 0.0, 0.0, 0.0, 0.0, 0.0, 1.7103879711116793E9, 0.0, 2024-03-13 20:46:11.111
17.0, -1339.8023295761086, -285.775105364155, -639.8894026186317, -414.3023771913722, 0.01600000075995922, -0.19200000911951065, 1.0400000493973494, 0.0, 0.0, 0.0, 0.0, 0.0, 1.7103879711116793E9, 0.0, 2024-03-13 20:46:11.111
18.0, -1317.0188590460457, -424.7684872173704, -568.476012964733, -606.0732272192836, 0.01600000075995922, -0.19200000911951065, 1.0400000493973494, 0.0, 0.0, 0.0, 0.0, 0.0, 1.7103879711273437E9, 0.0, 2024-03-13 20:46:11.127
18.0, -1202.0225452585146, -439.69816784048453, -439.13718284713104, -570.284254593309, 0.01600000075995922, -0.19200000911951065, 1.0400000493973494, 0.0, 0.0, 0.0, 0.0, 0.0, 1.7103879711273437E9, 0.0, 2024-03-13 20:46:11.127
19.0, -1000.0903870509937, -475.3450242681429, -289.31679062219337, -578.304470048286, 0.01600000075995922, -0.19200000911951065, 1.0400000493973494, 0.0, 0.0, 0.0, 0.0, 0.0, 1.7103879711280289E9, 0.0, 2024-03-13 20:46:11.128
19.0, -772.4090176485479, -273.07627506460994, -518.1780984606594, -435.04386234562844, 0.01600000075995922, -0.19200000911951065, 1.0400000493973494, 0.0, 0.0, 0.0, 0.0, 0.0, 1.7103879711280289E9, 0.0, 2024-03-13 20:46:11.128
20.0, -615.1069555622526, -351.7600302323699, -338.877944834996, -503.89542052987963, 0.01600000075995922, -0.19200000911951065, 1.0400000493973494, 0.0, 0.0, 0.0, 0.0, 0.0, 1.7103879711417327E9, 0.0, 2024-03-13 20:46:11.141
20.0, -639.584600772243, -208.83227362576872, -417.4719424038194, -315.99162705615163, 0.01600000075995922, -0.19200000911951065, 1.0400000493973494, 0.0, 0.0, 0.0, 0.0, 0.0, 1.7103879711417327E9, 0.0, 2024-03-13 20:46:11.141
21.0, -773.7890407321975, -215.30043059913442, -549.0060937954113, -361.0854707718827, 0.01600000075995922, -0.19200000911951065, 1.0400000493973494, 0.0, 0.0, 0.0, 0.0, 0.0, 1.710387971157514E9, 0.0, 2024-03-13 20:46:11.157
21.0, -961.3899023095146, -153.57151188049465, -695.7448084568605, -330.8652091799304, 0.01600000075995922, -0.19200000911951065, 1.0400000493973494, 0.0, 0.0, 0.0, 0.0, 0.0, 1.710387971157514E9, 0.0, 2024-03-13 20:46:11.157
22.0, -717.8158280453645, -390.19872197695076, -481.2073174486868, -505.74667100794613, 0.01600000075995922, -0.19200000911951065, 1.0400000493973494, 0.0, 0.0, 0.0, 0.0, 0.0, 1.710387971158068E9, 0.0, 2024-03-13 20:46:11.158
22.0, -864.1599832614884, -295.72136929631233, -656.6366746202111, -429.3105957135558, 0.01600000075995922, -0.19200000911951065, 1.0400000493973494, 0.0, 0.0, 0.0, 0.0, 0.0, 1.710387971158068E9, 0.0, 2024-03-13 20:46:11.158
23.0, -825.6464935177937, -432.770003172569, -582.212665501982, -616.2158358991146, 0.01600000075995922, -0.19200000911951065, 1.0400000493973494, 0.0, 0.0, 0.0, 0.0, 0.0, 1.710387971171864E9, 0.0, 2024-03-13 20:46:11.171
23.0, -702.672973124776, -438.8099416010082, -446.8264171560295, -578.7252087933011, 0.01600000075995922, -0.19200000911951065, 1.0400000493973494, 0.0, 0.0, 0.0, 0.0, 0.0, 1.710387971171864E9, 0.0, 2024-03-13 20:46:11.171
24.0, -504.86966446833685, -478.8437006766908, -298.13921461766586, -591.0949278967455, 0.01600000075995922, -0.19200000911951065, 1.0400000493973494, 0.0, 0.0, 0.0, 0.0, 0.0, 1.7103879711872933E9, 0.0, 2024-03-13 20:46:11.187
24.0, -261.5592531510629, -267.0269868862815, -523.911365092732, -442.0524348625913, 0.01600000075995922, -0.19200000911951065, 1.0400000493973494, 0.0, 0.0, 0.0, 0.0, 0.0, 1.7103879711872933E9, 0.0, 2024-03-13 20:46:11.187
25.0, -101.1979529010132, -337.2062095548026, -332.1797840143554, -501.6365209566429, 0.01600000075995922, -0.19200000911951065, 1.0400000493973494, 0.0, 0.0, 0.0, 0.0, 0.0, 1.7103879711880302E9, 0.0, 2024-03-13 20:46:11.188
25.0, -148.1860559443012, -213.25096542341635, -409.4311574990861, -317.12481674272567, 0.01600000075995922, -0.19200000911951065, 1.0400000493973494, 0.0, 0.0, 0.0, 0.0, 0.0, 1.7103879711880302E9, 0.0, 2024-03-13 20:46:11.188
26.0, -275.5539587852545, -215.37709854822606, -549.8999298848212, -369.21227337559685, 0.01600000075995922, -0.19200000911951065, 1.0400000493973494, 0.0, 0.0, 0.0, 0.0, 0.0, 1.7103879712019527E9, 0.0, 2024-03-13 20:46:11.201
26.0, -483.5784140205942, -173.29387429682538, -710.4949738821015, -351.988164129667, 0.01600000075995922, -0.19200000911951065, 1.0400000493973494, 0.0, 0.0, 0.0, 0.0, 0.0, 1.7103879712019527E9, 0.0, 2024-03-13 20:46:11.201
27.0, -248.35927625745535, -404.6179062561132, -489.5098953503184, -515.5975674912333, 0.01600000075995922, -0.19200000911951065, 1.0400000493973494, 0.0, 0.0, 0.0, 0.0, 0.0, 1.7103879712173111E9, 0.0, 2024-03-13 20:46:11.217
27.0, -373.4645396252163, -294.0515039660968, -649.1344353090972, -417.7094260510057, 0.01600000075995922, -0.19200000911951065, 1.0400000493973494, 0.0, 0.0, 0.0, 0.0, 0.0, 1.7103879712173111E9, 0.0, 2024-03-13 20:46:11.217
28.0, -338.3917578407563, -424.8844241159968, -565.1774212038144, -601.8508801693097, 0.01600000075995922, -0.19200000911951065, 1.0400000493973494, 0.0, 0.0, 0.0, 0.0, 0.0, 1.7103879712180228E9, 0.0, 2024-03-13 20:46:11.218
28.0, -207.47842984180897, -431.23851414071396, -432.9738277201541, -566.3685793397017, 0.01600000075995922, -0.19200000911951065, 1.0400000493973494, 0.0, 0.0, 0.0, 0.0, 0.0, 1.7103879712180228E9, 0.0, 2024-03-13 20:46:11.218
29.0, -25.685632895678282, -482.27879878599197, -292.88465517992154, -583.4468324873596, 0.01600000075995922, -0.19200000911951065, 1.0400000493973494, 0.0, 0.0, 0.0, 0.0, 0.0, 1.7103879712317011E9, 0.0, 2024-03-13 20:46:11.231
29.0, 218.16332401521504, -264.69515926390886, -513.7126579135656, -425.62305435724556, 0.01600000075995922, -0.19200000911951065, 1.0400000493973494, 0.0, 0.0, 0.0, 0.0, 0.0, 1.7103879712317011E9, 0.0, 2024-03-13 20:46:11.231
30.0, 368.88690207945183, -344.2727505210787, -336.82473975932226, -504.51624392252415, 0.01600000075995922, -0.19200000911951065, 1.0400000493973494, 0.0, 0.0, 0.0, 0.0, 0.0, 1.7103879712477007E9, 0.0, 2024-03-13 20:46:11.247
30.0, 325.79203489003703, -224.13220434449613, -420.9874483621679, -327.2337663229555, 0.01600000075995922, -0.19200000911951065, 1.0400000493973494, 0.0, 0.0, 0.0, 0.0, 0.0, 1.7103879712477007E9, 0.0, 2024-03-13 20:46:11.247
31.0, 204.73334327433258, -212.8003074787557, -545.8870172323659, -362.1102033597417, 0.01600000075995922, -0.19200000911951065, 1.0400000493973494, 0.0, 0.0, 0.0, 0.0, 0.0, 1.71038797124839E9, 0.0, 2024-03-13 20:46:11.248
31.0, 27.907133469358087, -150.45430526742712, -693.6579442815855, -332.3387297624722, 0.01600000075995922, -0.19200000911951065, 1.0400000493973494, 0.0, 0.0, 0.0, 0.0, 0.0, 1.71038797124839E9, 0.0, 2024-03-13 20:46:11.248
32.0, 259.3564520771615, -390.5035238233395, -484.16183841368183, -514.2437237072736, 0.01600000075995922, -0.19200000911951065, 1.0400000493973494, 0.0, 0.0, 0.0, 0.0, 0.0, 1.7103879712619023E9, 0.0, 2024-03-13 20:46:11.261
32.0, 129.29208136815578, -287.4543204442598, -645.1290024565533, -423.0500031877309, 0.01600000075995922, -0.19200000911951065, 1.0400000493973494, 0.0, 0.0, 0.0, 0.0, 0.0, 1.7103879712619023E9, 0.0, 2024-03-13 20:46:11.261
33.0, 132.9497035248205, -441.32502432120964, -580.1370210265741, -613.6353049296886, 0.01600000075995922, -0.19200000911951065, 1.0400000493973494, 0.0, 0.0, 0.0, 0.0, 0.0, 1.710387971277304E9, 0.0, 2024-03-13 20:46:11.277
33.0, 274.60776409646496, -443.6699415934272, -452.81025708513334, -583.8264323328622, 0.01600000075995922, -0.19200000911951065, 1.0400000493973494, 0.0, 0.0, 0.0, 0.0, 0.0, 1.710387971277304E9, 0.0, 2024-03-13 20:46:11.277
34.0, 466.32625552499667, -493.3451627548784, -317.0631083934568, -607.7225230997428, 0.01600000075995922, -0.19200000911951065, 1.0400000493973494, 0.0, 0.0, 0.0, 0.0, 0.0, 1.7103879712780497E9, 0.0, 2024-03-13 20:46:11.278
34.0, 707.2880096700974, -268.4986375188455, -526.1216459665447, -442.70317745488137, 0.01600000075995922, -0.19200000911951065, 1.0400000493973494, 0.0, 0.0, 0.0, 0.0, 0.0, 1.7103879712780497E9, 0.0, 2024-03-13 20:46:11.278
35.0, 856.1453776564449, -352.11906062811613, -342.1877562957816, -511.2892027422786, 0.01600000075995922, -0.19200000911951065, 1.0400000493973494, 0.0, 0.0, 0.0, 0.0, 0.0, 1.7103879712917027E9, 0.0, 2024-03-13 20:46:11.291
35.0, 820.5041310787201, -225.07839903328568, -431.31331213982776, -330.76423188112676, 0.01600000075995922, -0.19200000911951065, 1.0400000493973494, 0.0, 0.0, 0.0, 0.0, 0.0, 1.7103879712917027E9, 0.0, 2024-03-13 20:46:11.291
36.0, 704.3521882048808, -210.8779989015311, -546.5639391243458, -360.2963518812321, 0.01600000075995922, -0.19200000911951065, 1.0400000493973494, 0.0, 0.0, 0.0, 0.0, 0.0, 1.7103879713073273E9, 0.0, 2024-03-13 20:46:11.307
36.0, 505.4418691615574, -161.00830294238403, -688.8746122382581, -331.8338432684541, 0.01600000075995922, -0.19200000911951065, 1.0400000493973494, 0.0, 0.0, 0.0, 0.0, 0.0, 1.7103879713073273E9, 0.0, 2024-03-13 20:46:11.307
37.0, 749.6405067183077, -399.1239932212047, -474.96168452268466, -510.0550357569009, 0.01600000075995922, -0.19200000911951065, 1.0400000493973494, 0.0, 0.0, 0.0, 0.0, 0.0, 1.7103879713080456E9, 0.0, 2024-03-13 20:46:11.308
37.0, 604.0069324937649, -301.8566751736216, -646.4304876411334, -419.4484795304015, 0.01600000075995922, -0.19200000911951065, 1.0400000493973494, 0.0, 0.0, 0.0, 0.0, 0.0, 1.7103879713080456E9, 0.0, 2024-03-13 20:46:11.308
38.0, 634.9022460277192, -432.588618024718, -566.2582522910088, -599.266609299928, 0.01600000075995922, -0.19200000911951065, 1.0400000493973494, 0.0, 0.0, 0.0, 0.0, 0.0, 1.7103879713218448E9, 0.0, 2024-03-13 20:46:11.321
38.0, 765.0900334352627, -437.35325056826696, -430.5279331491329, -569.1248856070451, 0.01600000075995922, -0.19200000911951065, 1.0400000493973494, 0.0, 0.0, 0.0, 0.0, 0.0, 1.7103879713218448E9, 0.0, 2024-03-13 20:46:11.321
39.0, 960.0846772249788, -483.8308572676033, -294.7583450577222, -591.1360667962581, 0.01600000075995922, -0.19200000911951065, 1.0400000493973494, 0.0, 0.0, 0.0, 0.0, 0.0, 1.7103879713373077E9, 0.0, 2024-03-13 20:46:11.337
39.0, 1197.108316716738, -273.1735124634579, -523.4999760976061, -437.93106511142105, 0.01600000075995922, -0.19200000911951065, 1.0400000493973494, 0.0, 0.0, 0.0, 0.0, 0.0, 1.7103879713373077E9, 0.0, 2024-03-13 20:46:11.337
40.0, 1352.1664388296194, -348.5736354701221, -344.38681746972725, -509.88674025889486, 0.01600000075995922, -0.19200000911951065, 1.0400000493973494, 0.0, 0.0, 0.0, 0.0, 0.0, 1.7103879713380184E9, 0.0, 2024-03-13 20:46:11.338
40.0, 1314.7524796728976, -223.41040365304798, -426.86657109251246, -333.4569598492235, 0.01600000075995922, -0.19200000911951065, 1.0400000493973494, 0.0, 0.0, 0.0, 0.0, 0.0, 1.7103879713380184E9, 0.0, 2024-03-13 20:46:11.338
41.0, 1183.5810985770077, -217.31810662522912, -550.9620614722371, -366.81125760404393, 0.01600000075995922, -0.19200000911951065, 1.0400000493973494, 0.0, 0.0, 0.0, 0.0, 0.0, 1.710387971352095E9, 0.0, 2024-03-13 20:46:11.352
41.0, 996.9002523887902, -153.22931103454903, -696.0664398530498, -333.0380910541862, 0.01600000075995922, -0.19200000911951065, 1.0400000493973494, 0.0, 0.0, 0.0, 0.0, 0.0, 1.710387971352095E9, 0.0, 2024-03-13 20:46:11.352
42.0, 752.3706336859614, -396.214351055678, -481.93659794004634, -516.2071711840108, 0.01600000075995922, -0.19200000911951065, 1.0400000493973494, 0.0, 0.0, 0.0, 0.0, 0.0, 1.7103879713675642E9, 0.0, 2024-03-13 20:46:11.367
42.0, 615.2565515604801, -289.9637933145277, -646.8643160359934, -416.17980696912855, 0.01600000075995922, -0.19200000911951065, 1.0400000493973494, 0.0, 0.0, 0.0, 0.0, 0.0, 1.7103879713675642E9, 0.0, 2024-03-13 20:46:11.367
43.0, 641.8696796451695, -429.5144202611409, -568.8836620599031, -602.0715342666954, 0.01600000075995922, -0.19200000911951065, 1.0400000493973494, 0.0, 0.0, 0.0, 0.0, 0.0, 1.7103879713681967E9, 0.0, 2024-03-13 20:46:11.368
43.0, 777.7645543850958, -431.1225772420876, -432.7344741229899, -567.6775443241931, 0.01600000075995922, -0.19200000911951065, 1.0400000493973494, 0.0, 0.0, 0.0, 0.0, 0.0, 1.7103879713681967E9, 0.0, 2024-03-13 20:46:11.368
44.0, 954.5720646902919, -483.4568672720343, -298.4159672143869, -589.7672634124756, 0.01600000075995922, -0.19200000911951065, 1.0400000493973494, 0.0, 0.0, 0.0, 0.0, 0.0, 1.7103879713816705E9, 0.0, 2024-03-13 20:46:11.381
44.0, 719.5511416248046, -245.1130430959165, -505.58585530985147, -414.4594529895112, 0.01600000075995922, -0.19200000911951065, 1.0400000493973494, 0.0, 0.0, 0.0, 0.0, 0.0, 1.7103879713816705E9, 0.0, 2024-03-13 20:46:11.381
45.0, 877.9115953985602, -328.0752438129857, -326.74570937873796, -486.6096029346809, 0.01600000075995922, -0.19200000911951065, 1.0400000493973494, 0.0, 0.0, 0.0, 0.0, 0.0, 1.7103879713973308E9, 0.0, 2024-03-13 20:46:11.397
45.0, 825.1453469237313, -214.20650986209512, -415.3364595291205, -316.7508267471567, 0.01600000075995922, -0.19200000911951065, 1.0400000493973494, 0.0, 0.0, 0.0, 0.0, 0.0, 1.7103879713973308E9, 0.0, 2024-03-13 20:46:11.397
46.0, 696.8761281934567, -207.92721783649176, -547.513873713091, -355.24748694105074, 0.01600000075995922, -0.19200000911951065, 1.0400000493973494, 0.0, 0.0, 0.0, 0.0, 0.0, 1.710387971398128E9, 0.0, 2024-03-13 20:46:11.398
46.0, 518.3669634084217, -155.60414750641212, -692.2592216981575, -326.8261172277853, 0.01600000075995922, -0.19200000911951065, 1.0400000493973494, 0.0, 0.0, 0.0, 0.0, 0.0, 1.710387971398128E9, 0.0, 2024-03-13 20:46:11.398
47.0, 728.3679557703435, 78.73611376713961, -483.60833322023973, -517.7816690653563, 0.01600000075995922, -0.19200000911951065, 1.0400000493973494, 0.0, 0.0, 0.0, 0.0, 0.0, 1.710387971411841E9, 0.0, 2024-03-13 20:46:11.411
47.0, 601.8303107195534, 189.33617515675724, -648.8240236127749, -419.17920673359185, 0.01600000075995922, -0.19200000911951065, 1.0400000493973494, 0.0, 0.0, 0.0, 0.0, 0.0, 1.710387971411841E9, 0.0, 2024-03-13 20:46:11.411
48.0, 629.9468785864301, 54.23228925745934, -577.1376212621108, -605.826393822208, 0.01600000075995922, -0.19200000911951065, 1.0400000493973494, 0.0, 0.0, 0.0, 0.0, 0.0, 1.7103879714275427E9, 0.0, 2024-03-13 20:46:11.427
48.0, 770.3857317725196, 52.29128118045628, -433.4188758148812, -572.1467247712426, 0.01600000075995922, -0.19200000911951065, 1.0400000493973494, 0.0, 0.0, 0.0, 0.0, 0.0, 1.7103879714275427E9, 0.0, 2024-03-13 20:46:11.427
49.0, 944.0592059148476, -11.47962291399017, -307.80685600312427, -608.9155511856079, 0.01600000075995922, -0.19200000911951065, 1.0400000493973494, 0.0, 0.0, 0.0, 0.0, 0.0, 1.7103879714280417E9, 0.0, 2024-03-13 20:46:11.428
49.0, 1182.1823759935796, 212.42444753320888, -531.2752281054854, -444.9097184287384, 0.01600000075995922, -0.19200000911951065, 1.0400000493973494, 0.0, 0.0, 0.0, 0.0, 0.0, 1.7103879714280417E9, 0.0, 2024-03-13 20:46:11.428
50.0, 1352.207577729132, 144.99779123207554, -328.78021495463327, -494.0931427460164, 0.01600000075995922, -0.19200000911951065, 1.0400000493973494, 0.0, 0.0, 0.0, 0.0, 0.0, 1.7103879714418712E9, 0.0, 2024-03-13 20:46:11.441
50.0, 1308.1814754507504, 253.8400996425189, -435.75631328718737, -340.43187326658517, 0.01600000075995922, -0.19200000911951065, 1.0400000493973494, 0.0, 0.0, 0.0, 0.0, 0.0, 1.7103879714418712E9, 0.0, 2024-03-13 20:46:11.441
51.0, 1176.4191901618615, 270.63973024347797, -557.5704646939412, -366.50084590772167, 0.01600000075995922, -0.19200000911951065, 1.0400000493973494, 0.0, 0.0, 0.0, 0.0, 0.0, 1.7103879714573488E9, 0.0, 2024-03-13 20:46:11.457
51.0, 1000.8720261417329, 343.25549773313105, -688.272488345392, -320.4159287037328, 0.01600000075995922, -0.19200000911951065, 1.0400000493973494, 0.0, 0.0, 0.0, 0.0, 0.0, 1.7103879714573488E9, 0.0, 2024-03-13 20:46:11.457
52.0, 756.8697333326563, 582.7830002452247, -473.51434323983267, -508.0841084802523, 0.01600000075995922, -0.19200000911951065, 1.0400000493973494, 0.0, 0.0, 0.0, 0.0, 0.0, 1.7103879714580495E9, 0.0, 2024-03-13 20:46:11.458
52.0, 598.6476558572613, 687.5151586043648, -646.1200759448111, -414.4631928894669, 0.01600000075995922, -0.19200000911951065, 1.0400000493973494, 0.0, 0.0, 0.0, 0.0, 0.0, 1.7103879714580495E9, 0.0, 2024-03-13 20:46:11.458
53.0, 638.1746584889479, 563.1223461781628, -563.0643777288496, -589.026763221249, 0.01600000075995922, -0.19200000911951065, 1.0400000493973494, 0.0, 0.0, 0.0, 0.0, 0.0, 1.7103879714718196E9, 0.0, 2024-03-13 20:46:11.471
53.0, 778.594812175259, 555.1264400728978, -421.4399762568064, -561.323454299476, 0.01600000075995922, -0.19200000911951065, 1.0400000493973494, 0.0, 0.0, 0.0, 0.0, 0.0, 1.7103879714718196E9, 0.0, 2024-03-13 20:46:11.471
54.0, 960.7653390169144, 496.73725201468915, -290.3415232100524, -587.5607224386185, 0.01600000075995922, -0.19200000911951065, 1.0400000493973494, 0.0, 0.0, 0.0, 0.0, 0.0, 1.7103879714873073E9, 0.0, 2024-03-13 20:46:11.487
54.0, 1203.7279396383092, 726.7448391895741, -512.0521423332393, -420.96313901245594, 0.01600000075995922, -0.19200000911951065, 1.0400000493973494, 0.0, 0.0, 0.0, 0.0, 0.0, 1.7103879714873073E9, 0.0, 2024-03-13 20:46:11.487
55.0, 1360.0576277361251, 643.842476871796, -325.0515346988104, -493.6144355516881, 0.01600000075995922, -0.19200000911951065, 1.0400000493973494, 0.0, 0.0, 0.0, 0.0, 0.0, 1.7103879714880471E9, 0.0, 2024-03-13 20:46:11.488
55.0, 1306.835111466702, 750.1940119117498, -423.30992623465136, -334.4218540377915, 0.01600000075995922, -0.19200000911951065, 1.0400000493973494, 0.0, 0.0, 0.0, 0.0, 0.0, 1.7103879714880471E9, 0.0, 2024-03-13 20:46:11.488
56.0, 1191.9996133772656, 768.717736392282, -550.5319729773328, -357.379229915794, 0.01600000075995922, -0.19200000911951065, 1.0400000493973494, 0.0, 0.0, 0.0, 0.0, 0.0, 1.7103879715016656E9, 0.0, 2024-03-13 20:46:11.501
56.0, 1011.7588749127463, 834.242653565947, -687.8199604507536, -321.13398949522525, 0.01600000075995922, -0.19200000911951065, 1.0400000493973494, 0.0, 0.0, 0.0, 0.0, 0.0, 1.7103879715016656E9, 0.0, 2024-03-13 20:46:11.501
57.0, 1238.5183589761145, 1072.1657389970496, -475.608687215019, -509.0901415683329, 0.01600000075995922, -0.19200000911951065, 1.0400000493973494, 0.0, 0.0, 0.0, 0.0, 0.0, 1.7103879715174456E9, 0.0, 2024-03-13 20:46:11.517
57.0, 1088.1912103071809, 1167.9370970623568, -661.2778904652223, -432.3548742774874, 0.01600000075995922, -0.19200000911951065, 1.0400000493973494, 0.0, 0.0, 0.0, 0.0, 0.0, 1.7103879715174456E9, 0.0, 2024-03-13 20:46:11.517
58.0, 1132.355688883923, 1050.089109558612, -571.4828925291076, -596.8581137284636, 0.01600000075995922, -0.19200000911951065, 1.0400000493973494, 0.0, 0.0, 0.0, 0.0, 0.0, 1.7103879715182686E9, 0.0, 2024-03-13 20:46:11.518
58.0, 1262.1320872963406, 1037.8334574038163, -436.4893336785026, -570.2019767942838, 0.01600000075995922, -0.19200000911951065, 1.0400000493973494, 0.0, 0.0, 0.0, 0.0, 0.0, 1.7103879715182686E9, 0.0, 2024-03-13 20:46:11.518
59.0, 1448.5773197873496, 977.3761046701111, -303.3825543555431, -598.8888794044033, 0.01600000075995922, -0.19200000911951065, 1.0400000493973494, 0.0, 0.0, 0.0, 0.0, 0.0, 1.710387971531662E9, 0.0, 2024-03-13 20:46:11.531
59.0, 1213.2646845253184, 733.8880481049418, -508.510457075201, -413.2739047035575, 0.01600000075995922, -0.19200000911951065, 1.0400000493973494, 0.0, 0.0, 0.0, 0.0, 0.0, 1.710387971531662E9, 0.0, 2024-03-13 20:46:11.531
60.0, 1370.817319908645, 657.3322960119694, -318.5104496763088, -478.06393153592944, 0.01600000075995922, -0.19200000911951065, 1.0400000493973494, 0.0, 0.0, 0.0, 0.0, 0.0, 1.7103879715475996E9, 0.0, 2024-03-13 20:46:11.547
60.0, 1314.5131260757335, 756.5144428368658, -422.12811784865335, -329.02517840173095, 0.01600000075995922, -0.19200000911951065, 1.0400000493973494, 0.0, 0.0, 0.0, 0.0, 0.0, 1.7103879715475996E9, 0.0, 2024-03-13 20:46:11.547
61.0, 1194.3744498491287, 778.1647236803547, -547.6298106117174, -347.2665404356085, 0.01600000075995922, -0.19200000911951065, 1.0400000493973494, 0.0, 0.0, 0.0, 0.0, 0.0, 1.7103879715482588E9, 0.0, 2024-03-13 20:46:11.548
61.0, 1016.1831765603274, 849.1087558898143, -675.826101292856, -302.3372523179278, 0.01600000075995922, -0.19200000911951065, 1.0400000493973494, 0.0, 0.0, 0.0, 0.0, 0.0, 1.7103879715482588E9, 0.0, 2024-03-13 20:46:11.548
62.0, 1248.0812831628136, 1079.4735035104677, -472.4933505519293, -507.29498958960176, 0.01600000075995922, -0.19200000911951065, 1.0400000493973494, 0.0, 0.0, 0.0, 0.0, 0.0, 1.7103879715616984E9, 0.0, 2024-03-13 20:46:11.561
62.0, 1101.8268855456263, 1179.9272163202986, -646.8156973365694, -416.10500897001475, 0.01600000075995922, -0.19200000911951065, 1.0400000493973494, 0.0, 0.0, 0.0, 0.0, 0.0, 1.7103879715616984E9, 0.0, 2024-03-13 20:46:11.561
63.0, 1133.200906273909, 1055.3922876957804, -568.9921191586182, -592.1907185837626, 0.01600000075995922, -0.19200000911951065, 1.0400000493973494, 0.0, 0.0, 0.0, 0.0, 0.0, 1.7103879715773032E9, 0.0, 2024-03-13 20:46:11.577
63.0, 1274.5934339486994, 1048.907301172614, -427.0348665905185, -560.2426232122816, 0.01600000075995922, -0.19200000911951065, 1.0400000493973494, 0.0, 0.0, 0.0, 0.0, 0.0, 1.7103879715773032E9, 0.0, 2024-03-13 20:46:11.577
64.0, 1445.5031220237724, 984.9718414801173, -303.2404381572269, -594.4084792574868, 0.01600000075995922, -0.19200000911951065, 1.0400000493973494, 0.0, 0.0, 0.0, 0.0, 0.0, 1.7103879715780652E9, 0.0, 2024-03-13 20:46:11.578
64.0, 1211.8510023420677, 1229.8829299784265, -504.7929965192452, -411.7181063219905, 0.01600000075995922, -0.19200000911951065, 1.0400000493973494, 0.0, 0.0, 0.0, 0.0, 0.0, 1.7103879715780652E9, 0.0, 2024-03-13 20:46:11.578
65.0, 1383.648916656617, 1153.9031224786304, -320.96756394719705, -483.5167056713253, 0.01600000075995922, -0.19200000911951065, 1.0400000493973494, 0.0, 0.0, 0.0, 0.0, 0.0, 1.7103879715916913E9, 0.0, 2024-03-13 20:46:11.591
65.0, 1312.987246893812, 1248.5076317577623, -425.9166365037672, -333.4943588487804, 0.01600000075995922, -0.19200000911951065, 1.0400000493973494, 0.0, 0.0, 0.0, 0.0, 0.0, 1.7103879715916913E9, 0.0, 2024-03-13 20:46:11.591
66.0, 1196.0910639287904, 1268.5048768208362, -540.265947598964, -345.1160979610868, 0.01600000075995922, -0.19200000911951065, 1.0400000493973494, 0.0, 0.0, 0.0, 0.0, 0.0, 1.710387971607388E9, 0.0, 2024-03-13 20:46:11.607
