%OpenBCI Raw EXG Data
%Number of channels = 4
%Sample Rate = 200 Hz
%Board = OpenBCI_GUI$BoardGanglionBLE
Sample Index, EXG Channel 0, EXG Channel 1, EXG Channel 2, EXG Channel 3, Accel Channel 0, Accel Channel 1, Accel Channel 2, Other, Other, Other, Other, Other, Timestamp, Other, Timestamp (Formatted)
0.0, -616.8104799920693, -350.166832851246, -341.39115760521963, -509.81568215973675, 0.0, 0.0, 0.0, 0.0, 0.0, 0.0, 0.0, 0.0, 1.7103880368822064E9, 0.0, 2024-03-13 20:47:16.882
1.0, -652.6761205671355, -215.75108854379505, -396.057275257539, -333.3821618501097, 0.0, -0.19200000911951065, 0.0, 0.0, 0.0, 0.0, 0.0, 0.0, 1.710388036895614E9, 0.0, 2024-03-13 20:47:16.895
1.0, -781.4801449910738, -205.4663636656478, -514.8832465996966, -368.0828235889785, 0.0, -0.19200000911951065, 0.0, 0.0, 0.0, 0.0, 0.0, 0.0, 1.710388036895614E9, 0.0, 2024-03-13 20:47:16.895
2.0, -967.704723384697, -168.59282005252317, -694.4732424719259, -336.13472821749747, 0.01600000075995922, -0.19200000911951065, 0.0, 0.0, 0.0, 0.0, 0.0, 0.0, 1.7103880369123397E9, 0.0, 2024-03-13 20:47:16.912
2.0, -737.9757587565109, -405.9979293397628, -474.2398838312365, -523.6757513955235, 0.01600000075995922, -0.19200000911951065, 0.0, 0.0, 0.0, 0.0, 0.0, 0.0, 1.7103880369123397E9, 0.0, 2024-03-13 20:47:16.912
3.0, -864.9621918019839, -282.31943780509755, -600.5830540843308, -423.21455878578126, 0.01600000075995922, -0.19200000911951065, 0.0, 0.0, 0.0, 0.0, 0.0, 0.0, 1.7103880369130828E9, 0.0, 2024-03-13 20:47:16.913
3.0, -831.1534962025471, -428.512127073016, -557.8060783911496, -605.7590756230056, 0.01600000075995922, -0.19200000911951065, 0.0, 0.0, 0.0, 0.0, 0.0, 0.0, 1.7103880369130828E9, 0.0, 2024-03-13 20:47:16.913
4.0, -709.9676479883492, -446.9311343547888, -438.50513975461945, -575.9539429261349, 0.01600000075995922, -0.19200000911951065, 0.0, 0.0, 0.0, 0.0, 0.0, 0.0, 1.7103880369253335E9, 0.0, 2024-03-13 20:47:16.925
4.0, -516.1248933849856, -471.6724425116554, -256.5814463100396, -598.1969979126006, 0.01600000075995922, -0.19200000911951065, 0.0, 0.0, 0.0, 0.0, 0.0, 0.0, 1.7103880369253335E9, 0.0, 2024-03-13 20:47:16.925
5.0, -761.2061473312788, -257.65292764734477, -493.3451627548784, -436.0648550335318, 0.01600000075995922, -0.19200000911951065, 0.0, 0.0, 0.0, 0.0, 0.0, 0.0, 1.710388036941308E9, 0.0, 2024-03-13 20:47:16.941
5.0, -620.9879482425749, -362.70297750271857, -354.4770675501786, -517.471257369034, 0.01600000075995922, -0.19200000911951065, 0.0, 0.0, 0.0, 0.0, 0.0, 0.0, 1.710388036941308E9, 0.0, 2024-03-13 20:47:16.941
6.0, -668.20418518316, -231.35395115893334, -404.367332959082, -343.4649321306497, 0.01600000075995922, -0.19200000911951065, 0.0, 0.0, 0.0, 0.0, 0.0, 0.0, 1.7103880369420936E9, 0.0, 2024-03-13 20:47:16.942
6.0, -786.409333132673, -204.7221235744655, -509.6847856612876, -362.05410486040637, 0.01600000075995922, -0.19200000911951065, 0.0, 0.0, 0.0, 0.0, 0.0, 0.0, 1.7103880369420936E9, 0.0, 2024-03-13 20:47:16.942
7.0, -971.6390981380828, -162.44816442532465, -691.7842544037849, -330.32666358631104, 0.01600000075995922, -0.19200000911951065, 0.0, 0.0, 0.0, 0.0, 0.0, 0.0, 1.7103880369554443E9, 0.0, 2024-03-13 20:47:16.955
7.0, -735.2269322890788, -404.5393683570437, -475.29827551869676, -517.8976059639826, 0.01600000075995922, -0.19200000911951065, 0.0, 0.0, 0.0, 0.0, 0.0, 0.0, 1.7103880369554443E9, 0.0, 2024-03-13 20:47:16.955
8.0, -882.4387442949228, -294.39931466197595, -610.7032233644277, -434.45295815262944, 0.01600000075995922, -0.19200000911951065, 0.0, 0.0, 0.0, 0.0, 0.0, 0.0, 1.7103880369712474E9, 0.0, 2024-03-13 20:47:16.971
8.0, -843.8990752515383, -439.58597084181383, -569.5792834516615, -615.9914419017732, 0.01600000075995922, -0.19200000911951065, 0.0, 0.0, 0.0, 0.0, 0.0, 0.0, 1.7103880369712474E9, 0.0, 2024-03-13 20:47:16.971
9.0, -720.8432770594954, -458.5285641173832, -451.7967441971414, -590.7489871508442, 0.01600000075995922, -0.19200000911951065, 0.0, 0.0, 0.0, 0.0, 0.0, 0.0, 1.7103880369718933E9, 0.0, 2024-03-13 20:47:16.971
9.0, -539.626424706541, -494.10062254592776, -271.64950323151425, -616.5337273953483, 0.01600000075995922, -0.19200000911951065, 0.0, 0.0, 0.0, 0.0, 0.0, 0.0, 1.7103880369718933E9, 0.0, 2024-03-13 20:47:16.971
10.0, -767.7135732541792, -262.5334970895201, -500.24901807308197, -441.41665187012404, 0.01600000075995922, -0.19200000911951065, 1.0400000493973494, 0.0, 0.0, 0.0, 0.0, 0.0, 1.7103880369853947E9, 0.0, 2024-03-13 20:47:16.985
10.0, -618.0296873776242, -360.21968393214047, -351.72824108274654, -517.0000299746171, 0.01600000075995922, -0.19200000911951065, 1.0400000493973494, 0.0, 0.0, 0.0, 0.0, 0.0, 1.7103880369853947E9, 0.0, 2024-03-13 20:47:16.985
11.0, -665.9752048095688, -230.0001073749736, -404.04196166293696, -337.17816030513495, 0.01600000075995922, -0.19200000911951065, 1.0400000493973494, 0.0, 0.0, 0.0, 0.0, 0.0, 1.710388037001414E9, 0.0, 2024-03-13 20:47:17.001
11.0, -786.674866029527, -205.657098563388, -513.6939584137872, -367.6377754942514, 0.01600000075995922, -0.19200000911951065, 1.0400000493973494, 0.0, 0.0, 0.0, 0.0, 0.0, 1.710388037001414E9, 0.0, 2024-03-13 20:47:17.001
12.0, -965.6814375086688, -164.47519020130858, -696.6461243461818, -333.5616770479828, 0.01600000075995922, -0.19200000911951065, 1.0400000493973494, 0.0, 0.0, 0.0, 0.0, 0.0, 1.7103880370017989E9, 0.0, 2024-03-13 20:47:17.001
12.0, -738.1141350548714, -408.56724060932174, -476.26316970726475, -525.9383908687159, 0.01600000075995922, -0.19200000911951065, 1.0400000493973494, 0.0, 0.0, 0.0, 0.0, 0.0, 1.7103880370017989E9, 0.0, 2024-03-13 20:47:17.001
13.0, -873.0927343056537, -284.09963018400595, -607.2662553051487, -427.3097492372617, 0.01600000075995922, -0.19200000911951065, 1.0400000493973494, 0.0, 0.0, 0.0, 0.0, 0.0, 1.7103880370154183E9, 0.0, 2024-03-13 20:47:17.015
13.0, -828.3822303353809, -424.3047396228649, -555.135789822787, -602.2884484641254, 0.01600000075995922, -0.19200000911951065, 1.0400000493973494, 0.0, 0.0, 0.0, 0.0, 0.0, 1.7103880370154183E9, 0.0, 2024-03-13 20:47:17.015
14.0, -720.3084713658318, -457.7880639261566, -443.91303509054706, -587.6560898874886, 0.01600000075995922, -0.19200000911951065, 1.0400000493973494, 0.0, 0.0, 0.0, 0.0, 0.0, 1.710388037031154E9, 0.0, 2024-03-13 20:47:17.031
14.0, -535.6247317539528, -499.7964901784435, -274.4544281982817, -617.6856165817007, 0.01600000075995922, -0.19200000911951065, 1.0400000493973494, 0.0, 0.0, 0.0, 0.0, 0.0, 1.710388037031154E9, 0.0, 2024-03-13 20:47:17.031
15.0, -767.3470630585216, -256.3140434632078, -493.5957360519096, -436.3827465297654, 0.01600000075995922, -0.19200000911951065, 1.0400000493973494, 0.0, 0.0, 0.0, 0.0, 0.0, 1.7103880370318184E9, 0.0, 2024-03-13 20:47:17.031
15.0, -621.8668247321621, -360.5076562287286, -341.0358671094291, -512.478490928188, 0.01600000075995922, -0.19200000911951065, 1.0400000493973494, 0.0, 0.0, 0.0, 0.0, 0.0, 1.7103880370318184E9, 0.0, 2024-03-13 20:47:17.031
16.0, -666.6334272017702, -237.06477839127183, -402.8077946775593, -346.9131198897958, 0.01600000075995922, -0.19200000911951065, 1.0400000493973494, 0.0, 0.0, 0.0, 0.0, 0.0, 1.7103880370453763E9, 0.0, 2024-03-13 20:47:17.045
16.0, -776.0161511558108, -199.69943793397397, -504.7219384200871, -357.31939151650295, 0.01600000075995922, -0.19200000911951065, 1.0400000493973494, 0.0, 0.0, 0.0, 0.0, 0.0, 1.7103880370453763E9, 0.0, 2024-03-13 20:47:17.045
17.0, -958.9196983887814, -152.0549824484624, -685.0038157841191, -323.39288906846195, 0.01600000075995922, -0.19200000911951065, 1.0400000493973494, 0.0, 0.0, 0.0, 0.0, 0.0, 1.7103880370610428E9, 0.0, 2024-03-13 20:47:17.061
17.0, -734.1984598012641, 87.10974976792932, -468.70857179677114, -522.6510188076645, 0.01600000075995922, -0.19200000911951065, 1.0400000493973494, 0.0, 0.0, 0.0, 0.0, 0.0, 1.7103880370610428E9, 0.0, 2024-03-13 20:47:17.061
18.0, -876.3651467668824, 205.79173496179283, -610.2469555698335, -430.23061110265553, 0.01600000075995922, -0.19200000911951065, 1.0400000493973494, 0.0, 0.0, 0.0, 0.0, 0.0, 1.7103880370617795E9, 0.0, 2024-03-13 20:47:17.061
18.0, -829.1152507266961, 70.20540196821094, -557.6415227930993, -602.1912110652775, 0.01600000075995922, -0.19200000911951065, 1.0400000493973494, 0.0, 0.0, 0.0, 0.0, 0.0, 1.7103880370617795E9, 0.0, 2024-03-13 20:47:17.061
19.0, -705.2366745444015, 49.78180831018835, -434.3762902035378, -575.482715531718, 0.01600000075995922, -0.19200000911951065, 1.0400000493973494, 0.0, 0.0, 0.0, 0.0, 0.0, 1.7103880370755324E9, 0.0, 2024-03-13 20:47:17.075
19.0, -521.9740969156846, 14.882931873667985, -255.50435512280092, -591.3043622942641, 0.01600000075995922, -0.19200000911951065, 1.0400000493973494, 0.0, 0.0, 0.0, 0.0, 0.0, 1.7103880370755324E9, 0.0, 2024-03-13 20:47:17.075
20.0, -754.2125344141386, 251.64477836852893, -476.9756206488237, -413.3150436030701, 0.01600000075995922, -0.19200000911951065, 1.0400000493973494, 0.0, 0.0, 0.0, 0.0, 0.0, 1.7103880370913167E9, 0.0, 2024-03-13 20:47:17.091
20.0, -606.9184446092695, 138.55394360842183, -338.6198917380534, -505.0921885157004, 0.01600000075995922, -0.19200000911951065, 1.0400000493973494, 0.0, 0.0, 0.0, 0.0, 0.0, 1.7103880370913167E9, 0.0, 2024-03-13 20:47:17.091
21.0, -665.1935657188296, 262.98415503418073, -403.30894127162173, -342.50751774199307, 0.01600000075995922, -0.19200000911951065, 1.0400000493973494, 0.0, 0.0, 0.0, 0.0, 0.0, 1.7103880370921113E9, 0.0, 2024-03-13 20:47:17.092
21.0, -768.6485482431017, 300.1961595932953, -502.5303570460528, -349.5852784081362, 0.01600000075995922, -0.19200000911951065, 1.0400000493973494, 0.0, 0.0, 0.0, 0.0, 0.0, 1.7103880370921113E9, 0.0, 2024-03-13 20:47:17.092
22.0, -961.0776206632145, 341.0115577597171, -686.8214071625844, -327.25246582273394, 0.01600000075995922, -0.19200000911951065, 1.0400000493973494, 0.0, 0.0, 0.0, 0.0, 0.0, 1.7103880371056576E9, 0.0, 2024-03-13 20:47:17.105
22.0, -738.3983674515039, 572.7525885640644, -474.2062247316353, -524.2703954884782, 0.01600000075995922, -0.19200000911951065, 1.0400000493973494, 0.0, 0.0, 0.0, 0.0, 0.0, 1.7103880371056576E9, 0.0, 2024-03-13 20:47:17.105
23.0, -874.1885249926709, 699.3893409636803, -605.0447547314689, -421.6101417047903, 0.01600000075995922, -0.19200000911951065, 1.0400000493973494, 0.0, 0.0, 0.0, 0.0, 0.0, 1.7103880371210396E9, 0.0, 2024-03-13 20:47:17.121
23.0, -829.1975285257213, 563.2869017762132, -555.5471788179129, -594.0120498621836, 0.01600000075995922, -0.19200000911951065, 1.0400000493973494, 0.0, 0.0, 0.0, 0.0, 0.0, 1.7103880371210396E9, 0.0, 2024-03-13 20:47:17.121
24.0, -713.2811993490905, 532.3766286424361, -440.3040316333063, -581.5787524594925, 0.01600000075995922, -0.19200000911951065, 1.0400000493973494, 0.0, 0.0, 0.0, 0.0, 0.0, 1.710388037121848E9, 0.0, 2024-03-13 20:47:17.121
24.0, -539.7049626056105, 492.09977606963366, -269.56637895619497, -608.8145738868043, 0.01600000075995922, -0.19200000911951065, 1.0400000493973494, 0.0, 0.0, 0.0, 0.0, 0.0, 1.710388037121848E9, 0.0, 2024-03-13 20:47:17.121
25.0, -757.6083635739051, 736.6742735719308, -484.3095644619316, -420.0506034232676, 0.01600000075995922, -0.19200000911951065, 1.0400000493973494, 0.0, 0.0, 0.0, 0.0, 0.0, 1.710388037135449E9, 0.0, 2024-03-13 20:47:17.135
25.0, -606.2639621170238, 626.1789293810725, -342.4832083922811, -507.3211688892916, 0.01600000075995922, -0.19200000911951065, 1.0400000493973494, 0.0, 0.0, 0.0, 0.0, 0.0, 1.710388037135449E9, 0.0, 2024-03-13 20:47:17.135
26.0, -677.5950739718974, 737.6952662598342, -411.5404610740952, -351.457098335959, 0.01600000075995922, -0.19200000911951065, 1.0400000493973494, 0.0, 0.0, 0.0, 0.0, 0.0, 1.7103880371512706E9, 0.0, 2024-03-13 20:47:17.151
26.0, -781.0724958959036, 780.6891561504453, -512.7328041251749, -358.8602302982472, 0.01600000075995922, -0.19200000911951065, 1.0400000493973494, 0.0, 0.0, 0.0, 0.0, 0.0, 1.7103880371512706E9, 0.0, 2024-03-13 20:47:17.151
27.0, -971.7662547365762, 820.1843696325086, -688.912011237815, -323.94639426190406, 0.01600000075995922, -0.19200000911951065, 1.0400000493973494, 0.0, 0.0, 0.0, 0.0, 0.0, 1.7103880371520312E9, 0.0, 2024-03-13 20:47:17.152
27.0, -744.9469322739169, 1050.7473319508135, -476.1771520082839, -529.3230003286153, 0.01600000075995922, -0.19200000911951065, 1.0400000493973494, 0.0, 0.0, 0.0, 0.0, 0.0, 1.7103880371520312E9, 0.0, 2024-03-13 20:47:17.152
28.0, -879.9143118248321, 1178.3489785389975, -607.1802376061678, -425.2341047618538, 0.01600000075995922, -0.19200000911951065, 1.0400000493973494, 0.0, 0.0, 0.0, 0.0, 0.0, 1.7103880371653974E9, 0.0, 2024-03-13 20:47:17.165
28.0, -844.759252241347, 1043.2263931399211, -563.3411303255707, -605.1644315300509, 0.01600000075995922, -0.19200000911951065, 1.0400000493973494, 0.0, 0.0, 0.0, 0.0, 0.0, 1.7103880371653974E9, 0.0, 2024-03-13 20:47:17.165
29.0, -721.2883251542225, 1002.1996906260028, -450.3531428142451, -598.3148047612049, 0.01600000075995922, -0.19200000911951065, 1.0400000493973494, 0.0, 0.0, 0.0, 0.0, 0.0, 1.7103880371811094E9, 0.0, 2024-03-13 20:47:17.181
29.0, -542.7941199690104, 965.0344348163344, -278.9348283451982, -625.1317573934793, 0.01600000075995922, -0.19200000911951065, 1.0400000493973494, 0.0, 0.0, 0.0, 0.0, 0.0, 1.7103880371811094E9, 0.0, 2024-03-13 20:47:17.181
30.0, -764.1045697969384, 722.5037926398218, -492.10351596958935, -436.96617092285305, 0.01600000075995922, -0.19200000911951065, 1.0400000493973494, 0.0, 0.0, 0.0, 0.0, 0.0, 1.7103880371818345E9, 0.0, 2024-03-13 20:47:17.181
30.0, -638.3223845371976, 597.082507725805, -356.02164623187855, -532.3934581922367, 0.01600000075995922, -0.19200000911951065, 1.0400000493973494, 0.0, 0.0, 0.0, 0.0, 0.0, 1.7103880371818345E9, 0.0, 2024-03-13 20:47:17.181
31.0, -690.6174056176096, 714.2909723371267, -427.05730599025264, -374.1134122675285, 0.01600000075995922, -0.19200000911951065, 1.0400000493973494, 0.0, 0.0, 0.0, 0.0, 0.0, 1.710388037195393E9, 0.0, 2024-03-13 20:47:17.195
31.0, -800.9725035601296, 754.3116417629644, -528.3581061400473, -380.4581525423564, 0.01600000075995922, -0.19200000911951065, 1.0400000493973494, 0.0, 0.0, 0.0, 0.0, 0.0, 1.710388037195393E9, 0.0, 2024-03-13 20:47:17.195
32.0, -976.3551119822077, 803.3099410324357, -704.5111339529976, -348.69705216865987, 0.01600000075995922, -0.19200000911951065, 1.0400000493973494, 0.0, 0.0, 0.0, 0.0, 0.0, 1.7103880372110524E9, 0.0, 2024-03-13 20:47:17.211
32.0, -769.0356278885156, 1027.3280784282833, -490.56454713782296, -554.7356205275282, 0.01600000075995922, -0.19200000911951065, 1.0400000493973494, 0.0, 0.0, 0.0, 0.0, 0.0, 1.7103880372110524E9, 0.0, 2024-03-13 20:47:17.211
33.0, -890.3748120008968, 1167.2788746701553, -614.7797143161297, -433.794735760428, 0.01600000075995922, -0.19200000911951065, 1.0400000493973494, 0.0, 0.0, 0.0, 0.0, 0.0, 1.7103880372118428E9, 0.0, 2024-03-13 20:47:17.211
33.0, -836.8456239351071, 1040.0661776773632, -556.2914189090952, -599.4461244978011, 0.01600000075995922, -0.19200000911951065, 1.0400000493973494, 0.0, 0.0, 0.0, 0.0, 0.0, 1.7103880372118428E9, 0.0, 2024-03-13 20:47:17.211
34.0, -729.3365898588672, 995.8605602011085, -452.36520899040624, -598.9131887541153, 0.01600000075995922, -0.19200000911951065, 1.0400000493973494, 0.0, 0.0, 0.0, 0.0, 0.0, 1.71038803722542E9, 0.0, 2024-03-13 20:47:17.225
34.0, -547.0650857184082, 962.4165048473515, -278.1793685541488, -621.7247085338458, 0.01600000075995922, -0.19200000911951065, 1.0400000493973494, 0.0, 0.0, 0.0, 0.0, 0.0, 1.71038803722542E9, 0.0, 2024-03-13 20:47:17.225
35.0, -772.6165820960887, 1205.7605752642266, -494.77380453795195, -434.00791005790234, 0.01600000075995922, -0.19200000911951065, 1.0400000493973494, 0.0, 0.0, 0.0, 0.0, 0.0, 1.7103880372413232E9, 0.0, 2024-03-13 20:47:17.241
35.0, -634.8218381786719, 1095.6990594682284, -349.8956901044585, -519.0083562508225, 0.01600000075995922, -0.19200000911951065, 1.0400000493973494, 0.0, 0.0, 0.0, 0.0, 0.0, 1.7103880372413232E9, 0.0, 2024-03-13 20:47:17.241
36.0, -707.6937888152897, 1194.4623374980874, -426.0737123019062, -376.1441779434681, 0.01600000075995922, -0.19200000911951065, 1.0400000493973494, 0.0, 0.0, 0.0, 0.0, 0.0, 1.710388037241912E9, 0.0, 2024-03-13 20:47:17.241
36.0, -795.9460780196823, 1249.3640688476153, -512.9983370220289, -369.56569392140955, 0.01600000075995922, -0.19200000911951065, 1.0400000493973494, 0.0, 0.0, 0.0, 0.0, 0.0, 1.710388037241912E9, 0.0, 2024-03-13 20:47:17.241
37.0, -986.3219453641213, 1287.2885243482888, -698.5310339238495, -346.8588913404383, 0.01600000075995922, -0.19200000911951065, 1.0400000493973494, 0.0, 0.0, 0.0, 0.0, 0.0, 1.710388037255402E9, 0.0, 2024-03-13 20:47:17.255
37.0, -776.5790060991421, 1500.7526640691794, -502.8575982921757, -566.6004531369545, 0.01600000075995922, -0.19200000911951065, 1.0400000493973494, 0.0, 0.0, 0.0, 0.0, 0.0, 1.710388037255402E9, 0.0, 2024-03-13 20:47:17.255
38.0, -901.1831228728406, 1644.398481467273, -627.2747200680897, -446.7067403574474, 0.01600000075995922, -0.19200000911951065, 1.0400000493973494, 0.0, 0.0, 0.0, 0.0, 0.0, 1.710388037271054E9, 0.0, 2024-03-13 20:47:17.271
38.0, -849.6660009832121, 1528.858012236189, -566.2881714906543, -611.1389217092656, 0.01600000075995922, -0.19200000911951065, 1.0400000493973494, 0.0, 0.0, 0.0, 0.0, 0.0, 1.710388037271054E9, 0.0, 2024-03-13 20:47:17.271
39.0, -735.5560434851795, 1483.077896878589, -462.96782536478713, -611.4007147061639, 0.01600000075995922, -0.19200000911951065, 1.0400000493973494, 0.0, 0.0, 0.0, 0.0, 0.0, 1.7103880372721364E9, 0.0, 2024-03-13 20:47:17.272
39.0, -547.9664016077295, 1451.6646072007716, -287.95920693827793, -629.4999605417252, 0.01600000075995922, -0.19200000911951065, 1.0400000493973494, 0.0, 0.0, 0.0, 0.0, 0.0, 1.7103880372721364E9, 0.0, 2024-03-13 20:47:17.272
40.0, -763.7754586008377, 1221.9094632728957, -491.613589075394, -426.3111959490925, 0.01600000075995922, -0.19200000911951065, 1.0400000493973494, 0.0, 0.0, 0.0, 0.0, 0.0, 1.7103880372853777E9, 0.0, 2024-03-13 20:47:17.285
40.0, -623.8190525090322, 1103.8595211715437, -351.08871819032356, -524.0721807908267, 0.01600000075995922, -0.19200000911951065, 1.0400000493973494, 0.0, 0.0, 0.0, 0.0, 0.0, 1.7103880372853777E9, 0.0, 2024-03-13 20:47:17.285
41.0, -684.9177980851382, 1219.964715295937, -412.49787546275184, -360.59741382766515, 0.01600000075995922, -0.19200000911951065, 1.0400000493973494, 0.0, 0.0, 0.0, 0.0, 0.0, 1.7103880373011827E9, 0.0, 2024-03-13 20:47:17.301
41.0, -778.6340811247937, 1279.2795285931788, -502.4667787468061, -344.6841395162046, 0.01600000075995922, -0.19200000911951065, 1.0400000493973494, 0.0, 0.0, 0.0, 0.0, 0.0, 1.7103880373011827E9, 0.0, 2024-03-13 20:47:17.301
42.0, -956.8590135131963, 1324.1863773111254, -676.8508338807151, -318.44687137706205, 0.01600000075995922, -0.19200000911951065, 1.0400000493973494, 0.0, 0.0, 0.0, 0.0, 0.0, 1.710388037301792E9, 0.0, 2024-03-13 20:47:17.301
42.0, -740.3543351283297, 1547.6285701137967, -467.5716422102414, -530.9966055587865, 0.01600000075995922, -0.19200000911951065, 1.0400000493973494, 0.0, 0.0, 0.0, 0.0, 0.0, 1.710388037301792E9, 0.0, 2024-03-13 20:47:17.301
43.0, -879.0429151351564, 1679.1608515554108, -600.459637385793, -416.75388161232695, 0.01600000075995922, -0.19200000911951065, 1.0400000493973494, 0.0, 0.0, 0.0, 0.0, 0.0, 1.7103880373153927E9, 0.0, 2024-03-13 20:47:17.315
43.0, -820.999667822849, 1560.688300759066, -542.8277790686116, -579.8284792802297, 0.01600000075995922, -0.19200000911951065, 1.0400000493973494, 0.0, 0.0, 0.0, 0.0, 0.0, 1.7103880373153927E9, 0.0, 2024-03-13 20:47:17.315
44.0, -721.0227922573686, 1496.186246223282, -448.2737584388815, -593.7970056147315, 0.01600000075995922, -0.19200000911951065, 1.0400000493973494, 0.0, 0.0, 0.0, 0.0, 0.0, 1.7103880373311234E9, 0.0, 2024-03-13 20:47:17.331
44.0, -543.5047009605914, 1466.8299015210941, -274.31979179987684, -614.7647547163069, 0.01600000075995922, -0.19200000911951065, 1.0400000493973494, 0.0, 0.0, 0.0, 0.0, 0.0, 1.7103880373311234E9, 0.0, 2024-03-13 20:47:17.331
45.0, -751.5272862459533, 1238.488439776469, -479.1447626231238, -404.24578621052206, 0.01600000075995922, -0.19200000911951065, 1.0400000493973494, 0.0, 0.0, 0.0, 0.0, 0.0, 1.7103880373317697E9, 0.0, 2024-03-13 20:47:17.331
45.0, -610.2581752697006, 1114.73515024269, -339.4015308287926, -513.0357360215858, 0.01600000075995922, -0.19200000911951065, 1.0400000493973494, 0.0, 0.0, 0.0, 0.0, 0.0, 1.7103880373317697E9, 0.0, 2024-03-13 20:47:17.331
46.0, -687.2701951572672, 1220.2938264920376, -413.27203475357965, -360.8779063243419, 0.01600000075995922, -0.19200000911951065, 1.0400000493973494, 0.0, 0.0, 0.0, 0.0, 0.0, 1.710388037345476E9, 0.0, 2024-03-13 20:47:17.345
46.0, -778.4283866272308, 1282.4696632553823, -506.59936819784343, -347.73589788004756, 0.01600000075995922, -0.19200000911951065, 1.0400000493973494, 0.0, 0.0, 0.0, 0.0, 0.0, 1.710388037345476E9, 0.0, 2024-03-13 20:47:17.345
47.0, -957.5097561054863, 1320.7942880513147, -687.6516649527475, -325.5040625934489, 0.01600000075995922, -0.19200000911951065, 1.0400000493973494, 0.0, 0.0, 0.0, 0.0, 0.0, 1.7103880373610497E9, 0.0, 2024-03-13 20:47:17.361
47.0, -757.6962512228638, 1526.4682161645032, -487.2846548766829, -548.3534812531434, 0.01600000075995922, -0.19200000911951065, 1.0400000493973494, 0.0, 0.0, 0.0, 0.0, 0.0, 1.7103880373610497E9, 0.0, 2024-03-13 20:47:17.361
48.0, -885.6363587570377, 1674.9198050056584, -609.1362052829936, -425.63988390704617, 0.01600000075995922, -0.19200000911951065, 1.0400000493973494, 0.0, 0.0, 0.0, 0.0, 0.0, 1.7103880373617625E9, 0.0, 2024-03-13 20:47:17.361
48.0, -823.894350388553, 1552.883129551541, -548.7480406984687, -586.9978674952872, 0.01600000075995922, -0.19200000911951065, 1.0400000493973494, 0.0, 0.0, 0.0, 0.0, 0.0, 1.7103880373617625E9, 0.0, 2024-03-13 20:47:17.361
49.0, -730.21920624841, 1487.8387895221822, -453.69287347467616, -606.8268170603551, 0.01600000075995922, -0.19200000911951065, 1.0400000493973494, 0.0, 0.0, 0.0, 0.0, 0.0, 1.7103880373757892E9, 0.0, 2024-03-13 20:47:17.375
49.0, -541.2345816874877, 1462.7721100691706, -274.1215771022253, -614.9854088136926, 0.01600000075995922, -0.19200000911951065, 1.0400000493973494, 0.0, 0.0, 0.0, 0.0, 0.0, 1.7103880373757892E9, 0.0, 2024-03-13 20:47:17.375
50.0, -748.1987752853893, 1242.50509232888, -475.4385217670351, -401.8971290383488, 0.01600000075995922, -0.19200000911951065, 1.0400000493973494, 0.0, 0.0, 0.0, 0.0, 0.0, 1.710388037391044E9, 0.0, 2024-03-13 20:47:17.391
50.0, -627.6113110641018, 1109.102860909421, -344.7383680655621, -516.9252319755033, 0.01600000075995922, -0.19200000911951065, 1.0400000493973494, 0.0, 0.0, 0.0, 0.0, 0.0, 1.710388037391044E9, 0.0, 2024-03-13 20:47:17.391
51.0, -684.233396393247, 1218.1882628169842, -414.8914114343934, -363.4397377939895, 0.01600000075995922, -0.19200000911951065, 1.0400000493973494, 0.0, 0.0, 0.0, 0.0, 0.0, 1.7103880373917747E9, 0.0, 2024-03-13 20:47:17.391
51.0, -773.3271630876698, 1285.790694416035, -504.73689801990986, -347.33198868483305, 0.01600000075995922, -0.19200000911951065, 1.0400000493973494, 0.0, 0.0, 0.0, 0.0, 0.0, 1.7103880373917747E9, 0.0, 2024-03-13 20:47:17.391
52.0, -956.9338115123101, 1328.4984819600359, -685.2469092812389, -319.2846089671366, 0.01600000075995922, -0.19200000911951065, 1.0400000493973494, 0.0, 0.0, 0.0, 0.0, 0.0, 1.7103880374053812E9, 0.0, 2024-03-13 20:47:17.405
52.0, -755.848740644753, 1532.4969348930754, -486.3534197877161, -544.3256090008654, 0.01600000075995922, -0.19200000911951065, 1.0400000493973494, 0.0, 0.0, 0.0, 0.0, 0.0, 1.7103880374053812E9, 0.0, 2024-03-13 20:47:17.405
53.0, -873.9716107952408, 1681.3225137297995, -607.587886701338, -417.7337354007177, 0.01600000075995922, -0.19200000911951065, 1.0400000493973494, 0.0, 0.0, 0.0, 0.0, 0.0, 1.7103880374213145E9, 0.0, 2024-03-13 20:47:17.421
53.0, -820.8126728250645, 1556.1854612124152, -557.0580984000117, -582.4277097494341, 0.01600000075995922, -0.19200000911951065, 1.0400000493973494, 0.0, 0.0, 0.0, 0.0, 0.0, 1.7103880374213145E9, 0.0, 2024-03-13 20:47:17.421
54.0, -718.7900719838217, 1502.3832604498602, -449.72483962168917, -596.3812764841132, 0.01600000075995922, -0.19200000911951065, 1.0400000493973494, 0.0, 0.0, 0.0, 0.0, 0.0, 1.7103880374219823E9, 0.0, 2024-03-13 20:47:17.421
54.0, -537.214189235121, 1468.4156191023067, -274.64142319606617, -614.0653934245929, 0.01600000075995922, -0.19200000911951065, 1.0400000493973494, 0.0, 0.0, 0.0, 0.0, 0.0, 1.7103880374219823E9, 0.0, 2024-03-13 20:47:17.421
55.0, -741.1640234687366, 1246.2225528848357, -471.0067403195426, -398.8154514748603, 0.01600000075995922, -0.19200000911951065, 1.0400000493973494, 0.0, 0.0, 0.0, 0.0, 0.0, 1.710388037435377E9, 0.0, 2024-03-13 20:47:17.435
55.0, -612.3300798451528, 1117.9739036043175, -335.71772937243804, -505.6905725086108, 0.01600000075995922, -0.19200000911951065, 1.0400000493973494, 0.0, 0.0, 0.0, 0.0, 0.0, 1.710388037435377E9, 0.0, 2024-03-13 20:47:17.435
56.0, -676.8059550812468, 1219.1045383061282, -415.3962979284115, -361.7343434141949, 0.01600000075995922, -0.19200000911951065, 1.0400000493973494, 0.0, 0.0, 0.0, 0.0, 0.0, 1.7103880374510665E9, 0.0, 2024-03-13 20:47:17.451
56.0, -766.5429845680483, 1280.2706020814367, -502.9492258410901, -342.4588990425691, 0.01600000075995922, -0.19200000911951065, 1.0400000493973494, 0.0, 0.0, 0.0, 0.0, 0.0, 1.7103880374510665E9, 0.0, 2024-03-13 20:47:17.451
57.0, -969.0623070686124, 1315.80900141038, -686.60823286511, -320.56739465193823, 0.01600000075995922, -0.19200000911951065, 1.0400000493973494, 0.0, 0.0, 0.0, 0.0, 0.0, 1.7103880374517736E9, 0.0, 2024-03-13 20:47:17.451
57.0, -765.4789830306545, 1509.586307764519, -500.41918352106586, -564.9062784570269, 0.01600000075995922, -0.19200000911951065, 1.0400000493973494, 0.0, 0.0, 0.0, 0.0, 0.0, 1.7103880374517736E9, 0.0, 2024-03-13 20:47:17.451
58.0, -882.3489866959862, 1666.422752306331, -614.6114188181236, -430.1090643540956, 0.01600000075995922, -0.19200000911951065, 1.0400000493973494, 0.0, 0.0, 0.0, 0.0, 0.0, 1.7103880374653893E9, 0.0, 2024-03-13 20:47:17.465
58.0, -826.1233307621442, 1556.0508248140104, -550.9134427728131, -586.6650163992308, 0.01600000075995922, -0.19200000911951065, 1.0400000493973494, 0.0, 0.0, 0.0, 0.0, 0.0, 1.7103880374653893E9, 0.0, 2024-03-13 20:47:17.465
59.0, -732.2050931248814, 1478.2721254355274, -465.1257476392202, -621.0982752912678, 0.01600000075995922, -0.19200000911951065, 1.0400000493973494, 0.0, 0.0, 0.0, 0.0, 0.0, 1.7103880374811099E9, 0.0, 2024-03-13 20:47:17.481
59.0, -554.0699183354154, 1436.9256614753976, -294.242238863837, -639.5528116226196, 0.01600000075995922, -0.19200000911951065, 1.0400000493973494, 0.0, 0.0, 0.0, 0.0, 0.0, 1.7103880374811099E9, 0.0, 2024-03-13 20:47:17.481
60.0, -765.0320649859495, 1233.0281858411618, -486.7031004335731, -414.14530139323324, 0.01600000075995922, -0.19200000911951065, 1.0400000493973494, 0.0, 0.0, 0.0, 0.0, 0.0, 1.7103880374818273E9, 0.0, 2024-03-13 20:47:17.481
60.0, -623.4637620132416, 1104.8057158603333, -349.2299879123457, -522.8716729050502, 0.01600000075995922, -0.19200000911951065, 1.0400000493973494, 0.0, 0.0, 0.0, 0.0, 0.0, 1.7103880374818273E9, 0.0, 2024-03-13 20:47:17.481
61.0, -690.5239081187174, 1202.2675087056123, -423.1827696361579, -373.4364903755486, 0.01600000075995922, -0.20800000987946987, 1.0400000493973494, 0.0, 0.0, 0.0, 0.0, 0.0, 1.7103880374958427E9, 0.0, 2024-03-13 20:47:17.495
61.0, -786.4280326324515, 1286.8453462035395, -498.89143438916653, -339.36226187925786, 0.01600000075995922, -0.20800000987946987, 1.0400000493973494, 0.0, 0.0, 0.0, 0.0, 0.0, 1.7103880374958427E9, 0.0, 2024-03-13 20:47:17.495
62.0, -954.8581670369022, 1327.2231760751456, -676.4992832848802, -313.11003414029256, 0.01600000075995922, -0.20800000987946987, 1.0400000493973494, 0.0, 0.0, 0.0, 0.0, 0.0, 1.7103880375111113E9, 0.0, 2024-03-13 20:47:17.511
62.0, -758.3956125145778, 1522.260828714352, -488.6908572600223, -553.170472396072, 0.01600000075995922, -0.20800000987946987, 1.0400000493973494, 0.0, 0.0, 0.0, 0.0, 0.0, 1.7103880375111113E9, 0.0, 2024-03-13 20:47:17.511
63.0, -884.0057623763569, 1668.5283159813844, -617.3789447853342, -429.4545818618499, 0.01600000075995922, -0.20800000987946987, 1.0400000493973494, 0.0, 0.0, 0.0, 0.0, 0.0, 1.710388037511824E9, 0.0, 2024-03-13 20:47:17.511
63.0, -817.8244927604683, 1567.2929640808143, -540.5763592952862, -572.3262399691157, 0.01600000075995922, -0.20800000987946987, 1.0400000493973494, 0.0, 0.0, 0.0, 0.0, 0.0, 1.710388037511824E9, 0.0, 2024-03-13 20:47:17.511
64.0, -725.5929500032216, 1491.2607979816385, -450.14370841672644, -602.9597605061717, 0.01600000075995922, -0.20800000987946987, 1.0400000493973494, 0.0, 0.0, 0.0, 0.0, 0.0, 1.7103880375255525E9, 0.0, 2024-03-13 20:47:17.525
64.0, -546.8556513208896, 1459.125707612373, -278.28408575290814, -622.4726885249838, 0.01600000075995922, -0.20800000987946987, 1.0400000493973494, 0.0, 0.0, 0.0, 0.0, 0.0, 1.7103880375255525E9, 0.0, 2024-03-13 20:47:17.525
65.0, -753.3411377244629, 1243.324130419176, -475.50957986619323, -396.7734660990536, 0.01600000075995922, -0.20800000987946987, 1.0400000493973494, 0.0, 0.0, 0.0, 0.0, 0.0, 1.7103880375411005E9, 0.0, 2024-03-13 20:47:17.541
65.0, -616.1672171996906, 1114.7314103427343, -339.2444550306536, -512.9272789228708, 0.01600000075995922, -0.20800000987946987, 1.0400000493973494, 0.0, 0.0, 0.0, 0.0, 0.0, 1.7103880375411005E9, 0.0, 2024-03-13 20:47:17.541
66.0, -691.1783906109631, 1209.0778665249236, -419.75702127674595, -372.93160388153046, 0.01600000075995922, -0.20800000987946987, 1.0400000493973494, 0.0, 0.0, 0.0, 0.0, 0.0, 1.7103880375418408E9, 0.0, 2024-03-13 20:47:17.541
66.0, -785.3172823456116, 1279.3580664922483, -507.9756513815373, -345.933266101405, 0.01600000075995922, -0.20800000987946987, 1.0400000493973494, 0.0, 0.0, 0.0, 0.0, 0.0, 1.7103880375418408E9, 0.0, 2024-03-13 20:47:17.541
67.0, -944.8352351556532, 1341.8686243016273, -671.9740043384954, -305.4544589309953, 0.01600000075995922, -0.20800000987946987, 1.0400000493973494, 0.0, 0.0, 0.0, 0.0, 0.0, 1.710388037555618E9, 0.0, 2024-03-13 20:47:17.555
67.0, -758.8444005092606, 1529.4900553287007, -487.33701347606257, -61.70460936892778, 0.01600000075995922, -0.20800000987946987, 1.0400000493973494, 0.0, 0.0, 0.0, 0.0, 0.0, 1.710388037555618E9, 0.0, 2024-03-13 20:47:17.555
68.0, -876.5708412644453, 1681.3225137297995, -610.2095565702766, 69.28164667915553, 0.01600000075995922, -0.20800000987946987, 1.0400000493973494, 0.0, 0.0, 0.0, 0.0, 0.0, 1.710388037571138E9, 0.0, 2024-03-13 20:47:17.571
68.0, -810.8607990429737, 1574.4997512954287, -534.5513804666698, -74.16969592124224, 0.01600000075995922, -0.20800000987946987, 1.0400000493973494, 0.0, 0.0, 0.0, 0.0, 0.0, 1.710388037571138E9, 0.0, 2024-03-13 20:47:17.571
69.0, -715.5363590223715, 1505.4088395140134, -437.7122809640132, -99.61223531980067, 0.01600000075995922, -0.20800000987946987, 1.0400000493973494, 0.0, 0.0, 0.0, 0.0, 0.0, 1.7103880375721457E9, 0.0, 2024-03-13 20:47:17.572
69.0, -541.8591449800879, 1462.936665667221, -271.1072177379392, -127.09489014418796, 0.01600000075995922, -0.20800000987946987, 1.0400000493973494, 0.0, 0.0, 0.0, 0.0, 0.0, 1.7103880375721457E9, 0.0, 2024-03-13 20:47:17.572
70.0, -730.9204374901019, 1269.6380665074103, -459.60004545468837, 103.16701022768393, 0.01600000075995922, -0.20800000987946987, 1.0400000493973494, 0.0, 0.0, 0.0, 0.0, 0.0, 1.7103880375855808E9, 0.0, 2024-03-13 20:47:17.585
70.0, -594.6440929546952, 1141.763407222461, -327.08604027470574, -5.862293180543929, 0.01600000075995922, -0.20800000987946987, 1.0400000493973494, 0.0, 0.0, 0.0, 0.0, 0.0, 1.7103880375855808E9, 0.0, 2024-03-13 20:47:17.585
71.0, -662.8449085466564, 1232.3325644494034, -406.71973003121093, 133.57613676739857, 0.01600000075995922, -0.19200000911951065, 1.0400000493973494, 0.0, 0.0, 0.0, 0.0, 0.0, 1.7103880376013505E9, 0.0, 2024-03-13 20:47:17.601
71.0, -759.7139272489585, 1309.4829606353305, -489.14525510463864, 164.0189224067144, 0.01600000075995922, -0.19200000911951065, 1.0400000493973494, 0.0, 0.0, 0.0, 0.0, 0.0, 1.7103880376013505E9, 0.0, 2024-03-13 20:47:17.601
72.0, -915.7088943007402, 1370.8715484580025, -655.4586061341688, 204.55382807645947, 0.01600000075995922, -0.19200000911951065, 1.0400000493973494, 0.0, 0.0, 0.0, 0.0, 0.0, 1.710388037601876E9, 0.0, 2024-03-13 20:47:17.601
72.0, -753.0475555779412, 1542.8826370700262, -470.6421000738628, 437.5552051658742, 0.01600000075995922, -0.19200000911951065, 1.0400000493973494, 0.0, 0.0, 0.0, 0.0, 0.0, 1.710388037601876E9, 0.0, 2024-03-13 20:47:17.601
73.0, -874.7457700860687, 1685.9188507753424, -599.7752356939018, 563.6646316717379, 0.01600000075995922, -0.19200000911951065, 1.0400000493973494, 0.0, 0.0, 0.0, 0.0, 0.0, 1.7103880376157584E9, 0.0, 2024-03-13 20:47:17.615
73.0, -808.710356568452, 1588.9656843240373, -520.3808995345607, 425.3967904099263, 0.01600000075995922, -0.19200000911951065, 1.0400000493973494, 0.0, 0.0, 0.0, 0.0, 0.0, 1.7103880376157584E9, 0.0, 2024-03-13 20:47:17.615
74.0, -701.6014917874709, 1508.5204362771474, -431.8555976334028, 391.3524811132811, 0.01600000075995922, -0.19200000911951065, 1.0400000493973494, 0.0, 0.0, 0.0, 0.0, 0.0, 1.710388037631369E9, 0.0, 2024-03-13 20:47:17.631
74.0, -547.9776213075966, 1457.6222678301856, -271.7803997299634, 357.8747666599229, 0.01600000075995922, -0.19200000911951065, 1.0400000493973494, 0.0, 0.0, 0.0, 0.0, 0.0, 1.710388037631369E9, 0.0, 2024-03-13 20:47:17.631
75.0, -735.8010069322772, 1265.397019957658, -459.78704045247287, 597.4938967209309, 0.01600000075995922, -0.19200000911951065, 1.0400000493973494, 0.0, 0.0, 0.0, 0.0, 0.0, 1.7103880376319609E9, 0.0, 2024-03-13 20:47:17.631
75.0, -593.8100952645764, 1136.250794687774, -318.5478486758657, 487.99710581824183, 0.01600000075995922, -0.19200000911951065, 1.0400000493973494, 0.0, 0.0, 0.0, 0.0, 0.0, 1.7103880376319609E9, 0.0, 2024-03-13 20:47:17.631
76.0, -676.248709987849, 1216.452949237544, -409.4274175991304, 612.786347639747, 0.01600000075995922, -0.19200000911951065, 1.0400000493973494, 0.0, 0.0, 0.0, 0.0, 0.0, 1.7103880376454391E9, 0.0, 2024-03-13 20:47:17.645
76.0, -777.6766667361371, 1297.077712482307, -487.1257091285661, 654.7293256428093, 0.01600000075995922, -0.19200000911951065, 1.0400000493973494, 0.0, 0.0, 0.0, 0.0, 0.0, 1.7103880376454391E9, 0.0, 2024-03-13 20:47:17.645
77.0, -945.2092251512222, 1353.245399966836, -659.2134656896815, 684.9795064344071, 0.01600000075995922, -0.19200000911951065, 1.0400000493973494, 0.0, 0.0, 0.0, 0.0, 0.0, 1.7103880376608782E9, 0.0, 2024-03-13 20:47:17.660
77.0, -749.3674940215424, 1528.5924793393351, -478.60060717957094, 919.9368512006477, 0.01600000075995922, -0.19200000911951065, 1.0400000493973494, 0.0, 0.0, 0.0, 0.0, 0.0, 1.7103880376608782E9, 0.0, 2024-03-13 20:47:17.660
78.0, -876.4287250661291, 1669.8746799654327, -613.6839236291125, 1045.3955351142213, 0.01600000075995922, -0.19200000911951065, 1.0400000493973494, 0.0, 0.0, 0.0, 0.0, 0.0, 1.7103880376762848E9, 0.0, 2024-03-13 20:47:17.676
78.0, -805.2958279089071, 1584.773256473709, -529.7792681232095, 913.8931728722528, 0.01600000075995922, -0.19200000911951065, 1.0400000493973494, 0.0, 0.0, 0.0, 0.0, 0.0, 1.7103880376762848E9, 0.0, 2024-03-13 20:47:17.676
79.0, -705.651803439483, 1508.6625524754636, -447.3350435500033, 873.3937962520868, 0.01600000075995922, -0.19200000911951065, 1.0400000493973494, 0.0, 0.0, 0.0, 0.0, 0.0, 1.710388037677052E9, 0.0, 2024-03-13 20:47:17.677
79.0, -542.8502184683457, 1456.302083145827, -286.523085355293, 839.874942899216, 0.01600000075995922, -0.19200000911951065, 1.0400000493973494, 0.0, 0.0, 0.0, 0.0, 0.0, 1.710388037677052E9, 0.0, 2024-03-13 20:47:17.677
80.0, -741.6202912633307, 1264.757497065235, -471.5303263133392, 1083.1442153169774, 0.01600000075995922, -0.19200000911951065, 1.0400000493973494, 0.0, 0.0, 0.0, 0.0, 0.0, 1.7103880376915913E9, 0.0, 2024-03-13 20:47:17.691
80.0, -602.4604838620871, 1131.2355888471939, -332.763208407443, 969.3876783647574, 0.01600000075995922, -0.19200000911951065, 1.0400000493973494, 0.0, 0.0, 0.0, 0.0, 0.0, 1.7103880376915913E9, 0.0, 2024-03-13 20:47:17.691
81.0, -690.2845545215532, 1203.6176125896163, -426.2868865993805, 1093.5411371937953, 0.01600000075995922, -0.19200000911951065, 1.0400000493973494, 0.0, 0.0, 0.0, 0.0, 0.0, 1.710388037692138E9, 0.0, 2024-03-13 20:47:17.692
81.0, -776.6257548485883, 1292.6945497342385, -500.67162676807493, 1135.7496480937116, 0.01600000075995922, -0.19200000911951065, 1.0400000493973494, 0.0, 0.0, 0.0, 0.0, 0.0, 1.710388037692138E9, 0.0, 2024-03-13 20:47:17.692
82.0, -931.0237846192904, 1352.3478239774704, -656.9096873169765, 1185.9933340484276, 0.01600000075995922, -0.19200000911951065, 1.0400000493973494, 0.0, 0.0, 0.0, 0.0, 0.0, 1.7103880377055724E9, 0.0, 2024-03-13 20:47:17.705
82.0, -739.8120496347547, 1529.1759037324227, -475.5039700162597, 1418.7067388412543, 0.01600000075995922, -0.19200000911951065, 1.0400000493973494, 0.0, 0.0, 0.0, 0.0, 0.0, 1.7103880377055724E9, 0.0, 2024-03-13 20:47:17.705
83.0, -875.0262625827454, 1683.7571886009537, -603.1523653538898, 1548.4438683041371, 0.01600000075995922, -0.19200000911951065, 1.0400000493973494, 0.0, 0.0, 0.0, 0.0, 0.0, 1.7103880377211416E9, 0.0, 2024-03-13 20:47:17.721
83.0, -809.2376824622042, 1584.3207285790704, -528.8517729341984, 1408.9979585562833, 0.01600000075995922, -0.19200000911951065, 1.0400000493973494, 0.0, 0.0, 0.0, 0.0, 0.0, 1.7103880377211416E9, 0.0, 2024-03-13 20:47:17.721
84.0, -715.0800912277773, 1504.8553343205713, -433.83026481000707, 1369.8187666204758, 0.01600000075995922, -0.19200000911951065, 1.0400000493973494, 0.0, 0.0, 0.0, 0.0, 0.0, 1.710388037722178E9, 0.0, 2024-03-13 20:47:17.722
84.0, -557.3161514969543, 1442.3410366112366, -284.6082565779798, 1327.5485473712906, 0.01600000075995922, -0.19200000911951065, 1.0400000493973494, 0.0, 0.0, 0.0, 0.0, 0.0, 1.710388037722178E9, 0.0, 2024-03-13 20:47:17.722
85.0, -752.3912031357177, 1257.532010350842, -469.1180908419192, 1571.939789775759, 0.01600000075995922, -0.19200000911951065, 1.0400000493973494, 0.0, 0.0, 0.0, 0.0, 0.0, 1.7103880377354257E9, 0.0, 2024-03-13 20:47:17.735
85.0, -602.3333272635937, 1126.7177897007205, -324.19509760895744, 1465.28906273935, 0.01600000075995922, -0.19200000911951065, 1.0400000493973494, 0.0, 0.0, 0.0, 0.0, 0.0, 1.7103880377354257E9, 0.0, 2024-03-13 20:47:17.735
86.0, -692.494835395366, 1198.097520255018, -417.68137680133805, 1581.5737720616162, 0.01600000075995922, -0.19200000911951065, 1.0400000493973494, 0.0, 0.0, 0.0, 0.0, 0.0, 1.7103880377511415E9, 0.0, 2024-03-13 20:47:17.751
86.0, -775.4327267627232, 1285.1848306232132, -498.5735428929329, 1624.571401852183, 0.01600000075995922, -0.19200000911951065, 1.0400000493973494, 0.0, 0.0, 0.0, 0.0, 0.0, 1.7103880377511415E9, 0.0, 2024-03-13 20:47:17.751
87.0, -951.6306333751418, 1345.8329182546586, -664.2548508299515, 1666.6097473041154, 0.01600000075995922, -0.19200000911951065, 1.0400000493973494, 0.0, 0.0, 0.0, 0.0, 0.0, 1.7103880377518349E9, 0.0, 2024-03-13 20:47:17.751
87.0, -760.1122265942395, 1515.1512788985856, -484.01224241545424, 1893.5637061651796, 0.01600000075995922, -0.19200000911951065, 1.0400000493973494, 0.0, 0.0, 0.0, 0.0, 0.0, 1.7103880377518349E9, 0.0, 2024-03-13 20:47:17.751
88.0, -888.8825919185765, 1665.4915172173642, -617.296666986309, 2020.3425747631118, 0.01600000075995922, -0.19200000911951065, 1.0400000493973494, 0.0, 0.0, 0.0, 0.0, 0.0, 1.7103880377656927E9, 0.0, 2024-03-13 20:47:17.765
88.0, -811.5676401345991, 1583.8644607844763, -536.3016536459327, 1891.1664302935824, 0.01600000075995922, -0.19200000911951065, 1.0400000493973494, 0.0, 0.0, 0.0, 0.0, 0.0, 1.7103880377656927E9, 0.0, 2024-03-13 20:47:17.765
89.0, -715.360583724454, 1497.3979738089256, -441.0781909241341, 1851.6506473617628, 0.01600000075995922, -0.19200000911951065, 1.0400000493973494, 0.0, 0.0, 0.0, 0.0, 0.0, 1.710388037781252E9, 0.0, 2024-03-13 20:47:17.781
89.0, -556.0819845115766, 1436.016865786165, -285.4123350684531, 1810.678173397202, 0.01600000075995922, -0.19200000911951065, 1.0400000493973494, 0.0, 0.0, 0.0, 0.0, 0.0, 1.710388037781252E9, 0.0, 2024-03-13 20:47:17.781
90.0, -743.9577287356369, 1257.7077856487595, -459.2634544586763, 1576.1471772259101, 0.01600000075995922, -0.19200000911951065, 1.0400000493973494, 0.0, 0.0, 0.0, 0.0, 0.0, 1.7103880377819736E9, 0.0, 2024-03-13 20:47:17.781
90.0, -593.3239082703367, 1134.2387285116129, -322.74027652619407, 1468.0191897070035, 0.01600000075995922, -0.19200000911951065, 1.0400000493973494, 0.0, 0.0, 0.0, 0.0, 0.0, 1.7103880377819736E9, 0.0, 2024-03-13 20:47:17.781
91.0, -683.8444467978552, 1195.685284783598, -424.8507650163956, 1575.7096089310944, 0.01600000075995922, -0.19200000911951065, 1.0400000493973494, 0.0, 0.0, 0.0, 0.0, 0.0, 1.7103880377954583E9, 0.0, 2024-03-13 20:47:17.795
91.0, -780.3282558047213, 1287.297874098178, -507.2089718906209, 1620.65198669862, 0.01600000075995922, -0.19200000911951065, 1.0400000493973494, 0.0, 0.0, 0.0, 0.0, 0.0, 1.7103880377954583E9, 0.0, 2024-03-13 20:47:17.795
92.0, -923.8132575047202, 1363.7881779419258, -656.6591140199453, 1680.6194125381298, 0.01600000075995922, -0.19200000911951065, 1.0400000493973494, 0.0, 0.0, 0.0, 0.0, 0.0, 1.710388037811081E9, 0.0, 2024-03-13 20:47:17.811
92.0, -748.8401681277901, 1522.5226217112504, -483.4811766217463, 1896.7127019278705, 0.01600000075995922, -0.19200000911951065, 1.0400000493973494, 0.0, 0.0, 0.0, 0.0, 0.0, 1.710388037811081E9, 0.0, 2024-03-13 20:47:17.811
93.0, -888.5497408225201, 1663.685145538766, -619.166616964154, 2022.896926432848, 0.01600000075995922, -0.19200000911951065, 1.0400000493973494, 0.0, 0.0, 0.0, 0.0, 0.0, 1.7103880378118284E9, 0.0, 2024-03-13 20:47:17.811
93.0, -810.157697851304, 1583.8607208845206, -526.6527117602527, 1900.8976499782875, 0.01600000075995922, -0.19200000911951065, 1.0400000493973494, 0.0, 0.0, 0.0, 0.0, 0.0, 1.7103880378118284E9, 0.0, 2024-03-13 20:47:17.811
94.0, -715.7009146204218, 1497.0127641134895, -440.259152833838, 1856.1198278088123, 0.01600000075995922, -0.19200000911951065, 1.0400000493973494, 0.0, 0.0, 0.0, 0.0, 0.0, 1.7103880378256314E9, 0.0, 2024-03-13 20:47:17.825
94.0, -559.0552049763501, 1432.1198900323361, -286.848456651438, 1811.160620491486, 0.01600000075995922, -0.19200000911951065, 1.0400000493973494, 0.0, 0.0, 0.0, 0.0, 0.0, 1.7103880378256314E9, 0.0, 2024-03-13 20:47:17.825
95.0, -748.950495176483, 1261.4476856044494, -464.3347587985918, 1579.2625138889998, 0.01600000075995922, -0.19200000911951065, 1.0400000493973494, 0.0, 0.0, 0.0, 0.0, 0.0, 1.7103880378411126E9, 0.0, 2024-03-13 20:47:17.841
95.0, -593.4697643686086, 1141.812025921885, -315.3614539136179, 1476.0188357122242, 0.01600000075995922, -0.19200000911951065, 1.0400000493973494, 0.0, 0.0, 0.0, 0.0, 0.0, 1.7103880378411126E9, 0.0, 2024-03-13 20:47:17.841
96.0, -701.3434386905283, 1191.2535033361055, -423.7400147295557, 1577.6468771081418, 0.01600000075995922, -0.19200000911951065, 1.0400000493973494, 0.0, 0.0, 0.0, 0.0, 0.0, 1.7103880378418524E9, 0.0, 2024-03-13 20:47:17.841
96.0, -774.868001869414, 1288.4235839848407, -499.9012073772028, 1631.905345665291, 0.01600000075995922, -0.19200000911951065, 1.0400000493973494, 0.0, 0.0, 0.0, 0.0, 0.0, 1.7103880378418524E9, 0.0, 2024-03-13 20:47:17.841
97.0, -930.20848642895, 1362.7335261544213, -657.6015688087791, 1682.7810747125186, 0.01600000075995922, -0.19200000911951065, 1.0400000493973494, 0.0, 0.0, 0.0, 0.0, 0.0, 1.7103880378554757E9, 0.0, 2024-03-13 20:47:17.855
97.0, -750.8896333035082, 1520.0206286408938, -484.34509351151064, 1895.175603046082, 0.01600000075995922, -0.19200000911951065, 1.0400000493973494, 0.0, 0.0, 0.0, 0.0, 0.0, 1.7103880378554757E9, 0.0, 2024-03-13 20:47:17.855
98.0, -890.1691175033338, 1658.4642452006228, -621.8593449322507, 2017.275856799446, 0.01600000075995922, -0.19200000911951065, 1.0400000493973494, 0.0, 0.0, 0.0, 0.0, 0.0, 1.7103880378875463E9, 0.0, 2024-03-13 20:47:17.887
98.0, -808.1568513750099, 1587.6155804400332, -534.8692719629034, 1899.5999046936631, 0.01600000075995922, -0.19200000911951065, 1.0400000493973494, 0.0, 0.0, 0.0, 0.0, 0.0, 1.7103880378875463E9, 0.0, 2024-03-13 20:47:17.887
99.0, -714.8407376306131, 1499.6194743826054, -445.0125656775199, 1852.8361956477165, 0.01600000075995922, -0.19200000911951065, 1.0400000493973494, 0.0, 0.0, 0.0, 0.0, 0.0, 1.7103880378881257E9, 0.0, 2024-03-13 20:47:17.888
99.0, -563.7487794207409, 1431.5626449389383, -292.39098838577047, 1808.135041427333, 0.01600000075995922, -0.19200000911951065, 1.0400000493973494, 0.0, 0.0, 0.0, 0.0, 0.0, 1.7103880378881257E9, 0.0, 2024-03-13 20:47:17.888
100.0, -751.639483244624, 1254.1847998904996, -473.09734439477324, 1571.457342681475, 0.01600000075995922, -0.19200000911951065, 1.0400000493973494, 0.0, 0.0, 0.0, 0.0, 0.0, 1.7103880378891199E9, 0.0, 2024-03-13 20:47:17.889
100.0, -593.3613072698936, 1139.2202752525918, -321.96611723536626, 1467.1851920168847, 0.01600000075995922, -0.19200000911951065, 1.0400000493973494, 0.0, 0.0, 0.0, 0.0, 0.0, 1.7103880378891199E9, 0.0, 2024-03-13 20:47:17.889
0.0, -699.2322651655413, -284.3857325306162, -436.9605610729195, -395.5131198139861, 0.01600000075995922, -0.19200000911951065, 1.0400000493973494, 0.0, 0.0, 0.0, 0.0, 0.0, 1.7103880378901534E9, 0.0, 2024-03-13 20:47:17.890
1.0, -777.2147890916094, -183.26257762871683, -505.0547895161435, -338.8012768859044, 0.01600000075995922, -0.19200000911951065, 1.0400000493973494, 0.0, 0.0, 0.0, 0.0, 0.0, 1.7103880379004283E9, 0.0, 2024-03-13 20:47:17.900
1.0, -930.5731266746297, -110.76274703769013, -658.2710109008476, -283.61718308972195, 0.01600000075995922, -0.19200000911951065, 1.0400000493973494, 0.0, 0.0, 0.0, 0.0, 0.0, 1.7103880379004283E9, 0.0, 2024-03-13 20:47:17.900
2.0, -754.3883097120561, 39.12309343647212, -485.7213766952045, -74.59604451619089, 0.01600000075995922, -0.19200000911951065, 1.0400000493973494, 0.0, 0.0, 0.0, 0.0, 0.0, 1.7103880379161644E9, 0.0, 2024-03-13 20:47:17.916
2.0, -901.8282556151971, 177.2375988001004, -632.2600067090243, 42.496483196504414, 0.01600000075995922, -0.19200000911951065, 1.0400000493973494, 0.0, 0.0, 0.0, 0.0, 0.0, 1.7103880379161644E9, 0.0, 2024-03-13 20:47:17.916
3.0, -801.01551240962, 125.11461311765015, -522.523862209171, -53.45439006667584, 0.01600000075995922, -0.19200000911951065, 1.0400000493973494, 0.0, 0.0, 0.0, 0.0, 0.0, 1.710388037916872E9, 0.0, 2024-03-13 20:47:17.916
3.0, -711.1812455239706, 32.346394716762006, -438.16854875860736, -106.02242384385318, 0.01600000075995922, -0.19200000911951065, 1.0400000493973494, 0.0, 0.0, 0.0, 0.0, 0.0, 1.710388037916872E9, 0.0, 2024-03-13 20:47:17.916
4.0, -556.8580137523822, -34.79789913771674, -293.2623850754462, -151.5388762545772, 0.01600000075995922, -0.19200000911951065, 1.0400000493973494, 0.0, 0.0, 0.0, 0.0, 0.0, 1.7103880379304252E9, 0.0, 2024-03-13 20:47:17.930
4.0, -746.633627153933, -209.44561721850187, -474.8289180742577, -382.4758285684511, 0.01600000075995922, -0.19200000911951065, 1.0400000493973494, 0.0, 0.0, 0.0, 0.0, 0.0, 1.7103880379304252E9, 0.0, 2024-03-13 20:47:17.930
5.0, -584.8025462212972, -321.53415879048407, -314.96128461835906, -480.9286949019879, 0.01600000075995922, -0.19200000911951065, 1.0400000493973494, 0.0, 0.0, 0.0, 0.0, 0.0, 1.7103880379462047E9, 0.0, 2024-03-13 20:47:17.946
5.0, -700.9040004457347, -289.3897186713293, -430.20630175294355, -395.550518813543, 0.01600000075995922, -0.19200000911951065, 1.0400000493973494, 0.0, 0.0, 0.0, 0.0, 0.0, 1.7103880379462047E9, 0.0, 2024-03-13 20:47:17.946
6.0, -785.2144350968301, -196.81223516818136, -508.0242700809613, -342.21580554544926, 0.01600000075995922, -0.19200000911951065, 1.0400000493973494, 0.0, 0.0, 0.0, 0.0, 0.0, 1.7103880379468677E9, 0.0, 2024-03-13 20:47:17.946
6.0, -929.6044925861061, -111.82487862510607, -652.5078250691295, -278.2205074536614, 0.01600000075995922, -0.19200000911951065, 1.0400000493973494, 0.0, 0.0, 0.0, 0.0, 0.0, 1.7103880379468677E9, 0.0, 2024-03-13 20:47:17.946
7.0, -757.2044543786906, 37.94876485038549, -478.36873338231817, -71.81729884911329, 0.01600000075995922, -0.19200000911951065, 1.0400000493973494, 0.0, 0.0, 0.0, 0.0, 0.0, 1.710388037960385E9, 0.0, 2024-03-13 20:47:17.960
7.0, -897.149640770629, 178.46802588552237, -621.5526731358841, 49.81920730974525, 0.01600000075995922, -0.19200000911951065, 1.0400000493973494, 0.0, 0.0, 0.0, 0.0, 0.0, 1.710388037960385E9, 0.0, 2024-03-13 20:47:17.960
8.0, -813.7947505582124, 117.67969200573862, -525.0295951794833, -58.574313106015325, 0.01600000075995922, -0.19200000911951065, 1.0400000493973494, 0.0, 0.0, 0.0, 0.0, 0.0, 1.7103880379764144E9, 0.0, 2024-03-13 20:47:17.976
8.0, -717.7260704464279, 28.161446666345, -443.87189619103447, -106.60958813689649, 0.01600000075995922, -0.19200000911951065, 1.0400000493973494, 0.0, 0.0, 0.0, 0.0, 0.0, 1.7103880379764144E9, 0.0, 2024-03-13 20:47:17.976
9.0, -563.156005277764, -50.79719114815816, -296.8639087327756, -166.1394456815906, 0.01600000075995922, -0.19200000911951065, 1.0400000493973494, 0.0, 0.0, 0.0, 0.0, 0.0, 1.7103880379770265E9, 0.0, 2024-03-13 20:47:17.977
9.0, -751.5478556957096, -215.92686384171247, -474.21183458156884, -387.61819100752473, 0.01600000075995922, -0.19200000911951065, 1.0400000493973494, 0.0, 0.0, 0.0, 0.0, 0.0, 1.7103880379770265E9, 0.0, 2024-03-13 20:47:17.977
10.0, -596.8973826779984, -334.81454353313893, -324.85705990111455, -496.48293881770223, 0.01600000075995922, -0.19200000911951065, 1.0400000493973494, 0.0, 0.0, 0.0, 0.0, 0.0, 1.7103880379904735E9, 0.0, 2024-03-13 20:47:17.990
10.0, -707.9237926625647, -302.20635581947863, -442.31609780946746, -409.96035334281623, 0.01600000075995922, -0.19200000911951065, 1.0400000493973494, 0.0, 0.0, 0.0, 0.0, 0.0, 1.7103880379904735E9, 0.0, 2024-03-13 20:47:17.990
11.0, -799.3325574295595, -205.97125015966594, -519.569341244176, -354.2769829025492, 0.01600000075995922, -0.20800000987946987, 1.0400000493973494, 0.0, 0.0, 0.0, 0.0, 0.0, 1.710388038006235E9, 0.0, 2024-03-13 20:47:18.006
11.0, -937.577959291637, -121.02503251610324, -664.6774595249444, -285.3300572694279, 0.01600000075995922, -0.20800000987946987, 1.0400000493973494, 0.0, 0.0, 0.0, 0.0, 0.0, 1.710388038006235E9, 0.0, 2024-03-13 20:47:18.006
12.0, -761.1687483317219, 28.703732159920037, -488.8703724578954, -82.0758444275707, 0.01600000075995922, -0.20800000987946987, 1.0400000493973494, 0.0, 0.0, 0.0, 0.0, 0.0, 1.710388038007108E9, 0.0, 2024-03-13 20:47:18.007
12.0, -909.8952198196203, 165.0791840441525, -632.6003376049921, 40.080507825128734, 0.01600000075995922, -0.20800000987946987, 1.0400000493973494, 0.0, 0.0, 0.0, 0.0, 0.0, 1.710388038007108E9, 0.0, 2024-03-13 20:47:18.007
13.0, -817.9198602093384, 113.3488878570497, -531.581899901852, -58.604232305660844, 0.01600000075995922, -0.20800000987946987, 1.0400000493973494, 0.0, 0.0, 0.0, 0.0, 0.0, 1.7103880380203843E9, 0.0, 2024-03-13 20:47:18.020
13.0, -719.1921112290584, 18.47884568106383, -444.91158837871626, -118.62588669452816, 0.01600000075995922, -0.20800000987946987, 1.0400000493973494, 0.0, 0.0, 0.0, 0.0, 0.0, 1.7103880380203843E9, 0.0, 2024-03-13 20:47:18.020
14.0, -572.9208840620704, -61.06695642648265, -306.2099187220447, -178.85136563098058, 0.01600000075995922, -0.20800000987946987, 1.0400000493973494, 0.0, 0.0, 0.0, 0.0, 0.0, 1.7103880380364738E9, 0.0, 2024-03-13 20:47:18.036
14.0, -748.1969053354114, -213.14437827467918, -474.825178174302, -389.0393529906869, 0.01600000075995922, -0.20800000987946987, 1.0400000493973494, 0.0, 0.0, 0.0, 0.0, 0.0, 1.7103880380364738E9, 0.0, 2024-03-13 20:47:18.036
15.0, -598.0268324646167, -332.2676716633141, -322.994589723181, -495.80975682567805, 0.01600000075995922, -0.20800000987946987, 1.0400000493973494, 0.0, 0.0, 0.0, 0.0, 0.0, 1.7103880380369124E9, 0.0, 2024-03-13 20:47:18.036
15.0, -708.5371362552978, -312.34896449930966, -444.8293105796911, -421.1688335100189, 0.01600000075995922, -0.20800000987946987, 1.0400000493973494, 0.0, 0.0, 0.0, 0.0, 0.0, 1.7103880380369124E9, 0.0, 2024-03-13 20:47:18.036
16.0, -796.6660087611526, -210.07766031101346, -525.2278098771349, -359.71105753816664, 0.01600000075995922, -0.20800000987946987, 1.0400000493973494, 0.0, 0.0, 0.0, 0.0, 0.0, 1.7103880380505033E9, 0.0, 2024-03-13 20:47:18.050
16.0, -937.9519492872059, -111.54064622847363, -657.6726269079372, -285.3749360688962, 0.01600000075995922, -0.20800000987946987, 1.0400000493973494, 0.0, 0.0, 0.0, 0.0, 0.0, 1.7103880380505033E9, 0.0, 2024-03-13 20:47:18.050
17.0, -763.3603297057562, 24.829195805825293, -492.89824471017346, -92.25959200691432, 0.01600000075995922, -0.20800000987946987, 1.0400000493973494, 0.0, 0.0, 0.0, 0.0, 0.0, 1.7103880380661583E9, 0.0, 2024-03-13 20:47:18.066
17.0, -910.6768589103594, 156.15952264983207, -652.1300951736048, 22.686233131214976, 0.01600000075995922, -0.20800000987946987, 1.0400000493973494, 0.0, 0.0, 0.0, 0.0, 0.0, 1.7103880380661583E9, 0.0, 2024-03-13 20:47:18.066
18.0, -810.1633077012375, 113.1656327592209, -540.7745739929378, -67.9203230952844, 0.01600000075995922, -0.20800000987946987, 1.0400000493973494, 0.0, 0.0, 0.0, 0.0, 0.0, 1.7103880380668464E9, 0.0, 2024-03-13 20:47:18.066
18.0, -719.2295102286153, 17.379315094090998, -456.51649794122204, -127.32489399146289, 0.01600000075995922, -0.20800000987946987, 1.0400000493973494, 0.0, 0.0, 0.0, 0.0, 0.0, 1.7103880380668464E9, 0.0, 2024-03-13 20:47:18.066
19.0, -584.9783215192147, -71.10484790755436, -316.5320425997488, -189.86537100048736, 0.01600000075995922, -0.20800000987946987, 1.0400000493973494, 0.0, 0.0, 0.0, 0.0, 0.0, 1.7103880380804608E9, 0.0, 2024-03-13 20:47:18.080
19.0, -754.0087098665535, -217.995028517209, -484.5676175588742, -397.9590143850073, 0.01600000075995922, -0.20800000987946987, 1.0400000493973494, 0.0, 0.0, 0.0, 0.0, 0.0, 1.7103880380804608E9, 0.0, 2024-03-13 20:47:18.080
20.0, -596.0559051879682, -337.7915038978681, -332.68467050837353, -507.59044168610126, 0.01600000075995922, -0.20800000987946987, 1.0400000493973494, 0.0, 0.0, 0.0, 0.0, 0.0, 1.7103880380961468E9, 0.0, 2024-03-13 20:47:18.096
20.0, -712.852980804164, -306.0771522736177, -451.3479562024586, -427.0217769406736, 0.01600000075995922, -0.20800000987946987, 1.0400000493973494, 0.0, 0.0, 0.0, 0.0, 0.0, 1.7103880380961468E9, 0.0, 2024-03-13 20:47:18.096
21.0, -796.3107182653621, -207.3998919427395, -526.6190526606515, -364.74496287852526, 0.01600000075995922, -0.19200000911951065, 1.0400000493973494, 0.0, 0.0, 0.0, 0.0, 0.0, 1.7103880380968258E9, 0.0, 2024-03-13 20:47:18.096
21.0, -928.1571513032541, -100.91185055440292, -656.5581367211416, -281.17502841865644, 0.01600000075995922, -0.19200000911951065, 1.0400000493973494, 0.0, 0.0, 0.0, 0.0, 0.0, 1.7103880380968258E9, 0.0, 2024-03-13 20:47:18.096
22.0, -767.0553508619778, 23.658607119694352, -501.5822924072854, -93.119768996723, 0.01600000075995922, -0.19200000911951065, 1.0400000493973494, 0.0, 0.0, 0.0, 0.0, 0.0, 1.7103880381106353E9, 0.0, 2024-03-13 20:47:18.110
22.0, -911.3014222029597, 158.4109424231574, -645.615189450793, 29.31333585269749, 0.01600000075995922, -0.19200000911951065, 1.0400000493973494, 0.0, 0.0, 0.0, 0.0, 0.0, 1.7103880381106353E9, 0.0, 2024-03-13 20:47:18.110
23.0, -805.3986751576886, 116.90179281495512, -536.7691411403939, -61.12118497584015, 0.01600000075995922, -0.19200000911951065, 1.0400000493973494, 0.0, 0.0, 0.0, 0.0, 0.0, 1.7103880381264837E9, 0.0, 2024-03-13 20:47:18.126
23.0, -713.817874992732, 18.273151183500886, -450.88046870799735, -123.09880704153329, 0.01600000075995922, -0.19200000911951065, 1.0400000493973494, 0.0, 0.0, 0.0, 0.0, 0.0, 1.7103880381264837E9, 0.0, 2024-03-13 20:47:18.126
24.0, -580.7597143691964, -76.946571638342, -317.70263128587976, -190.35903779463843, 0.01600000075995922, -0.19200000911951065, 1.0400000493973494, 0.0, 0.0, 0.0, 0.0, 0.0, 1.7103880381270409E9, 0.0, 2024-03-13 20:47:18.127
24.0, -746.2072785589844, -216.2484952379018, -477.4879869427532, -388.87479739263654, 0.01600000075995922, -0.19200000911951065, 1.0400000493973494, 0.0, 0.0, 0.0, 0.0, 0.0, 1.7103880381270409E9, 0.0, 2024-03-13 20:47:18.127
25.0, -602.5296720112674, -329.57494369521737, -326.75318917864934, -493.58825625199825, 0.01600000075995922, -0.19200000911951065, 1.0400000493973494, 0.0, 0.0, 0.0, 0.0, 0.0, 1.71038803814077E9, 0.0, 2024-03-13 20:47:18.140
25.0, -712.8268015044741, -308.23133464809507, -446.09713666466996, -418.5696030408144, 0.01600000075995922, -0.19200000911951065, 1.0400000493973494, 0.0, 0.0, 0.0, 0.0, 0.0, 1.71038803814077E9, 0.0, 2024-03-13 20:47:18.140
26.0, -787.8398448657244, -195.95205817837268, -521.2186371246353, -352.89321991894394, 0.01600000075995922, -0.19200000911951065, 1.0400000493973494, 0.0, 0.0, 0.0, 0.0, 0.0, 1.7103880381561306E9, 0.0, 2024-03-13 20:47:18.156
26.0, -928.3478862009943, -99.2513349740766, -656.0495103271678, -278.2242473536171, 0.01600000075995922, -0.19200000911951065, 1.0400000493973494, 0.0, 0.0, 0.0, 0.0, 0.0, 1.7103880381561306E9, 0.0, 2024-03-13 20:47:18.156
27.0, -748.7148814792745, 38.816421640105546, -492.1128657194786, -90.01939193345606, 0.01600000075995922, -0.19200000911951065, 1.0400000493973494, 0.0, 0.0, 0.0, 0.0, 0.0, 1.7103880381568322E9, 0.0, 2024-03-13 20:47:18.156
27.0, -901.914273314178, 172.35702935792506, -636.8002452552319, 34.73245088849217, 0.01600000075995922, -0.19200000911951065, 1.0400000493973494, 0.0, 0.0, 0.0, 0.0, 0.0, 1.7103880381568322E9, 0.0, 2024-03-13 20:47:18.156
28.0, -801.01551240962, 128.47678317781538, -531.3425463046879, -55.41409764345735, 0.01600000075995922, -0.19200000911951065, 1.0400000493973494, 0.0, 0.0, 0.0, 0.0, 0.0, 1.7103880381704936E9, 0.0, 2024-03-13 20:47:18.170
28.0, -711.5402759197168, 28.808449358679354, -449.65378152253106, -115.00940343737602, 0.01600000075995922, -0.19200000911951065, 1.0400000493973494, 0.0, 0.0, 0.0, 0.0, 0.0, 1.7103880381704936E9, 0.0, 2024-03-13 20:47:18.170
29.0, -571.2229694821872, -71.65461320104077, -318.9854169706814, -188.38437061803415, 0.01600000075995922, -0.19200000911951065, 1.0400000493973494, 0.0, 0.0, 0.0, 0.0, 0.0, 1.7103880381861048E9, 0.0, 2024-03-13 20:47:18.186
29.0, -762.2813685685396, -220.38482458889484, -485.7419461449608, -390.2884795758873, 0.01600000075995922, -0.19200000911951065, 1.0400000493973494, 0.0, 0.0, 0.0, 0.0, 0.0, 1.7103880381861048E9, 0.0, 2024-03-13 20:47:18.186
30.0, -590.618090652395, -326.46334693208337, -317.30620189057663, -489.0741970054805, 0.01600000075995922, -0.19200000911951065, 1.0400000493973494, 0.0, 0.0, 0.0, 0.0, 0.0, 1.7103880381870444E9, 0.0, 2024-03-13 20:47:18.187
30.0, -702.2354048299603, -304.31191949453205, -441.72893351642415, -414.3135968912393, 0.01600000075995922, -0.19200000911951065, 1.0400000493973494, 0.0, 0.0, 0.0, 0.0, 0.0, 1.7103880381870444E9, 0.0, 2024-03-13 20:47:18.187
31.0, -793.3599372003227, -194.66553259361535, -518.5034697568044, -348.768110267818, 0.01600000075995922, -0.19200000911951065, 1.0400000493973494, 0.0, 0.0, 0.0, 0.0, 0.0, 1.710388038200419E9, 0.0, 2024-03-13 20:47:18.200
31.0, -921.2009373856708, -88.21489020483568, -649.643061703071, -265.598345103208, 0.01600000075995922, -0.19200000911951065, 1.0400000493973494, 0.0, 0.0, 0.0, 0.0, 0.0, 1.710388038200419E9, 0.0, 2024-03-13 20:47:18.200
32.0, -759.9719803459011, 26.56076948530972, -499.8768980274908, -97.5253711445257, 0.01600000075995922, -0.19200000911951065, 1.0400000493973494, 0.0, 0.0, 0.0, 0.0, 0.0, 1.7103880382160892E9, 0.0, 2024-03-13 20:47:18.216
32.0, -921.7993213785812, 156.19318174943328, -649.3737889062613, 21.927033440209925, 0.01600000075995922, -0.19200000911951065, 1.0400000493973494, 0.0, 0.0, 0.0, 0.0, 0.0, 1.7103880382160892E9, 0.0, 2024-03-13 20:47:18.216
33.0, -812.7924573700875, 124.00386283081025, -528.3506263401359, -52.62787217646837, 0.01600000075995922, -0.19200000911951065, 1.0400000493973494, 0.0, 0.0, 0.0, 0.0, 0.0, 1.7103880382168324E9, 0.0, 2024-03-13 20:47:18.216
33.0, -708.1519265598617, 27.682739472016692, -441.5606380184181, -114.18662544712424, 0.01600000075995922, -0.19200000911951065, 1.0400000493973494, 0.0, 0.0, 0.0, 0.0, 0.0, 1.7103880382168324E9, 0.0, 2024-03-13 20:47:18.216
34.0, -590.9135427488945, -78.57716801902279, -322.89735232433304, -196.76922631869093, 0.01600000075995922, -0.19200000911951065, 1.0400000493973494, 0.0, 0.0, 0.0, 0.0, 0.0, 1.7103880382304325E9, 0.0, 2024-03-13 20:47:18.230
34.0, -751.4356586970389, -214.46456295903772, -475.65169606450945, -380.20570929534733, 0.01600000075995922, -0.19200000911951065, 1.0400000493973494, 0.0, 0.0, 0.0, 0.0, 0.0, 1.7103880382304325E9, 0.0, 2024-03-13 20:47:18.230
35.0, -572.3262399691157, -311.27187331207097, -304.95705223688856, -471.0329196192324, 0.01600000075995922, -0.19200000911951065, 1.0400000493973494, 0.0, 0.0, 0.0, 0.0, 0.0, 1.7103880382461152E9, 0.0, 2024-03-13 20:47:18.246
35.0, -707.2431308706291, -304.71956858970225, -440.24793313397095, -413.7488719979301, 0.01600000075995922, -0.19200000911951065, 1.0400000493973494, 0.0, 0.0, 0.0, 0.0, 0.0, 1.7103880382461152E9, 0.0, 2024-03-13 20:47:18.246
36.0, -791.7592600192875, -195.06196198891848, -520.8259476292878, -350.8811537427828, 0.01600000075995922, -0.19200000911951065, 1.0400000493973494, 0.0, 0.0, 0.0, 0.0, 0.0, 1.7103880382468204E9, 0.0, 2024-03-13 20:47:18.246
36.0, -912.490710388869, -82.11885327706113, -647.4776596287265, -262.35211194166914, 0.01600000075995922, -0.19200000911951065, 1.0400000493973494, 0.0, 0.0, 0.0, 0.0, 0.0, 1.7103880382468204E9, 0.0, 2024-03-13 20:47:18.246
37.0, -752.0508722397499, 36.16857247147709, -488.960130056832, -85.92420148197562, 0.01600000075995922, -0.19200000911951065, 1.0400000493973494, 0.0, 0.0, 0.0, 0.0, 0.0, 1.7103880382606916E9, 0.0, 2024-03-13 20:47:18.260
37.0, -908.1486865403131, 162.3004383770749, -647.3168439306319, 29.193659054115415, 0.01600000075995922, -0.19200000911951065, 1.0400000493973494, 0.0, 0.0, 0.0, 0.0, 0.0, 1.7103880382606916E9, 0.0, 2024-03-13 20:47:18.260
38.0, -796.6473092613742, 141.57765272259712, -523.0100492034107, -42.15241240058094, 0.01600000075995922, -0.19200000911951065, 1.0400000493973494, 0.0, 0.0, 0.0, 0.0, 0.0, 1.7103880382761135E9, 0.0, 2024-03-13 20:47:18.276
38.0, -698.1439542784356, 41.1688187122345, -435.24020709330216, -104.4217466628179, 0.01600000075995922, -0.19200000911951065, 1.0400000493973494, 0.0, 0.0, 0.0, 0.0, 0.0, 1.7103880382761135E9, 0.0, 2024-03-13 20:47:18.276
39.0, -572.4533965676092, -64.99011148000136, -309.6880256808363, -181.05042680492625, 0.01600000075995922, -0.19200000911951065, 1.0400000493973494, 0.0, 0.0, 0.0, 0.0, 0.0, 1.710388038276822E9, 0.0, 2024-03-13 20:47:18.276
39.0, -743.2826767936349, -197.60509395878762, -468.97971454355866, -371.89565159380436, 0.01600000075995922, -0.19200000911951065, 1.0400000493973494, 0.0, 0.0, 0.0, 0.0, 0.0, 1.710388038276822E9, 0.0, 2024-03-13 20:47:18.276
40.0, -580.2922268747352, -308.20889524836093, -307.22717150999233, -470.4158361265436, 0.01600000075995922, -0.19200000911951065, 1.0400000493973494, 0.0, 0.0, 0.0, 0.0, 0.0, 1.7103880382906926E9, 0.0, 2024-03-13 20:47:18.290
40.0, -706.6784059773199, -304.9140433873981, -439.8215845390223, -416.14240796957165, 0.01600000075995922, -0.19200000911951065, 1.0400000493973494, 0.0, 0.0, 0.0, 0.0, 0.0, 1.7103880382906926E9, 0.0, 2024-03-13 20:47:18.290
41.0, -790.8542042300105, -196.24751027487218, -517.7031311662868, -349.40389326028526, 0.01600000075995922, -0.20800000987946987, 1.0400000493973494, 0.0, 0.0, 0.0, 0.0, 0.0, 1.7103880383063405E9, 0.0, 2024-03-13 20:47:18.306
41.0, -918.968217112124, -81.722423881758, -642.7766053844243, -259.1881565791555, 0.01600000075995922, -0.20800000987946987, 1.0400000493973494, 0.0, 0.0, 0.0, 0.0, 0.0, 1.7103880383063405E9, 0.0, 2024-03-13 20:47:18.306
42.0, -726.915004637558, 70.91224305983633, -455.2337122564204, -48.97772981971502, 0.01600000075995922, -0.20800000987946987, 1.0400000493973494, 0.0, 0.0, 0.0, 0.0, 0.0, 1.7103880383069243E9, 0.0, 2024-03-13 20:47:18.306
42.0, -922.562260969542, 146.2936665667221, -640.8729963069782, 21.560523244552314, 0.01600000075995922, -0.20800000987946987, 1.0400000493973494, 0.0, 0.0, 0.0, 0.0, 0.0, 1.7103880383069243E9, 0.0, 2024-03-13 20:47:18.306
43.0, -820.0179440844804, 106.78536343481392, -540.3669248977676, -63.06219305284321, 0.01600000075995922, -0.20800000987946987, 1.0400000493973494, 0.0, 0.0, 0.0, 0.0, 0.0, 1.7103880383204083E9, 0.0, 2024-03-13 20:47:18.320
43.0, -688.5772901917808, 62.02250086516142, -415.6693106251769, -71.45452855341136, 0.01600000075995922, -0.20800000987946987, 1.0400000493973494, 0.0, 0.0, 0.0, 0.0, 0.0, 1.7103880383204083E9, 0.0, 2024-03-13 20:47:18.320
44.0, -564.3378136637621, -58.61358205555007, -292.6453015827574, -169.03038834733889, 0.01600000075995922, -0.20800000987946987, 1.0400000493973494, 0.0, 0.0, 0.0, 0.0, 0.0, 1.7103880383361309E9, 0.0, 2024-03-13 20:47:18.336
44.0, -769.7237694803625, -237.86885688174516, -487.9671866185963, -404.3729428090155, 0.01600000075995922, -0.20800000987946987, 1.0400000493973494, 0.0, 0.0, 0.0, 0.0, 0.0, 1.7103880383361309E9, 0.0, 2024-03-13 20:47:18.336
45.0, -577.8837313032709, -300.0372138451785, -303.37133465567604, -460.19468954764307, 0.01600000075995922, -0.20800000987946987, 1.0400000493973494, 0.0, 0.0, 0.0, 0.0, 0.0, 1.7103880383367968E9, 0.0, 2024-03-13 20:47:18.336
45.0, -679.807224795688, -278.1961981039494, -419.551326779183, -391.0738585665822, 0.01600000075995922, -0.20800000987946987, 1.0400000493973494, 0.0, 0.0, 0.0, 0.0, 0.0, 1.7103880383367968E9, 0.0, 2024-03-13 20:47:18.336
46.0, -793.3150584008545, -218.97114240564406, -529.9064247217029, -366.1661248616874, 0.01600000075995922, -0.20800000987946987, 1.0400000493973494, 0.0, 0.0, 0.0, 0.0, 0.0, 1.7103880383504748E9, 0.0, 2024-03-13 20:47:18.350
46.0, -920.0041693998501, -87.79602140979841, -656.9358666166663, -267.745047677774, 0.01600000075995922, -0.20800000987946987, 1.0400000493973494, 0.0, 0.0, 0.0, 0.0, 0.0, 1.7103880383504748E9, 0.0, 2024-03-13 20:47:18.350
47.0, -716.9369515557773, 81.60835693310946, -462.96408546483144, -44.512289272621274, 0.01600000075995922, -0.20800000987946987, 1.0400000493973494, 0.0, 0.0, 0.0, 0.0, 0.0, 1.7103880383661275E9, 0.0, 2024-03-13 20:47:18.366
47.0, -897.3852544678375, 166.07025753241032, -639.3845161246136, 29.676106148399413, 0.01600000075995922, -0.20800000987946987, 1.0400000493973494, 0.0, 0.0, 0.0, 0.0, 0.0, 1.7103880383661275E9, 0.0, 2024-03-13 20:47:18.366
48.0, -805.3126574587077, 119.6506192823872, -537.7714343285188, -61.48021537158638, 0.01600000075995922, -0.20800000987946987, 1.0400000493973494, 0.0, 0.0, 0.0, 0.0, 0.0, 1.71038803836681E9, 0.0, 2024-03-13 20:47:18.366
48.0, -681.7931116721593, 66.72729500941932, -424.01302742632106, -80.16849545016885, 0.01600000075995922, -0.20800000987946987, 1.0400000493973494, 0.0, 0.0, 0.0, 0.0, 0.0, 1.71038803836681E9, 0.0, 2024-03-13 20:47:18.366
49.0, -559.0458552264608, -55.84605608833954, -303.2067790576257, -177.31426674919203, 0.01600000075995922, -0.20800000987946987, 1.0400000493973494, 0.0, 0.0, 0.0, 0.0, 0.0, 1.7103880383805735E9, 0.0, 2024-03-13 20:47:18.380
49.0, -758.5489484127611, -226.65289691463113, -489.95307349506766, -401.13418944738805, 0.01600000075995922, -0.20800000987946987, 1.0400000493973494, 0.0, 0.0, 0.0, 0.0, 0.0, 1.7103880383805735E9, 0.0, 2024-03-13 20:47:18.380
50.0, -562.1387524898164, -281.4199918657541, -299.2686644042842, -456.8512189872563, 0.01600000075995922, -0.20800000987946987, 1.0400000493973494, 0.0, 0.0, 0.0, 0.0, 0.0, 1.7103880383963573E9, 0.0, 2024-03-13 20:47:18.396
50.0, -675.7681328435428, -268.90254671406, -420.28060727054253, -392.6371367480606, 0.01600000075995922, -0.20800000987946987, 1.0400000493973494, 0.0, 0.0, 0.0, 0.0, 0.0, 1.7103880383963573E9, 0.0, 2024-03-13 20:47:18.396
51.0, -792.174388914369, -210.64612510427833, -531.4173443038017, -372.9166442817077, 0.01600000075995922, -0.19200000911951065, 1.0400000493973494, 0.0, 0.0, 0.0, 0.0, 0.0, 1.7103880383968627E9, 0.0, 2024-03-13 20:47:18.396
51.0, -928.5984594980255, -95.81436691479757, -659.894127481617, -276.922762169037, 0.01600000075995922, -0.19200000911951065, 1.0400000493973494, 0.0, 0.0, 0.0, 0.0, 0.0, 1.7103880383968627E9, 0.0, 2024-03-13 20:47:18.396
52.0, -730.6436848933809, 63.398784048855305, -474.4567980286665, -61.86542506702244, 0.01600000075995922, -0.19200000911951065, 1.0400000493973494, 0.0, 0.0, 0.0, 0.0, 0.0, 1.710388038410428E9, 0.0, 2024-03-13 20:47:18.410
52.0, -917.0272090351209, 141.6262714220211, -649.4448470054194, 13.987225834280252, 0.01600000075995922, -0.19200000911951065, 1.0400000493973494, 0.0, 0.0, 0.0, 0.0, 0.0, 1.710388038410428E9, 0.0, 2024-03-13 20:47:18.410
53.0, -811.0459240907803, 113.3488878570497, -539.5404070075601, -61.98884176556021, 0.01600000075995922, -0.19200000911951065, 1.0400000493973494, 0.0, 0.0, 0.0, 0.0, 0.0, 1.7103880384262817E9, 0.0, 2024-03-13 20:47:18.426
53.0, -691.1279019615613, 55.62727194093168, -420.2581678708084, -83.27635231334716, 0.01600000075995922, -0.19200000911951065, 1.0400000493973494, 0.0, 0.0, 0.0, 0.0, 0.0, 1.7103880384262817E9, 0.0, 2024-03-13 20:47:18.426
54.0, -564.2592757646926, -63.91302029276267, -307.3131892089732, -182.5875256867148, 0.01600000075995922, -0.19200000911951065, 1.0400000493973494, 0.0, 0.0, 0.0, 0.0, 0.0, 1.7103880384268951E9, 0.0, 2024-03-13 20:47:18.426
54.0, -760.6470322879031, -237.6669022841379, -495.09917583409697, -409.29465115070343, 0.01600000075995922, -0.19200000911951065, 1.0400000493973494, 0.0, 0.0, 0.0, 0.0, 0.0, 1.7103880384268951E9, 0.0, 2024-03-13 20:47:18.426
55.0, -566.2376828412525, -292.66961093246937, -302.3877409673296, -463.1005918132141, 0.01600000075995922, -0.19200000911951065, 1.0400000493973494, 0.0, 0.0, 0.0, 0.0, 0.0, 1.7103880384404948E9, 0.0, 2024-03-13 20:47:18.440
55.0, -686.5764437154867, -288.2378294849768, -427.54349298449233, -401.28378544561565, 0.01600000075995922, -0.19200000911951065, 1.0400000493973494, 0.0, 0.0, 0.0, 0.0, 0.0, 1.7103880384404948E9, 0.0, 2024-03-13 20:47:18.440
56.0, -796.6884481608868, -217.96510931756347, -531.8212534990162, -369.1393453264609, 0.01600000075995922, -0.19200000911951065, 1.0400000493973494, 0.0, 0.0, 0.0, 0.0, 0.0, 1.7103880384560747E9, 0.0, 2024-03-13 20:47:18.456
56.0, -915.0712413582951, -84.5385685483925, -651.8757819766179, -262.4680488402955, 0.01600000075995922, -0.19200000911951065, 1.0400000493973494, 0.0, 0.0, 0.0, 0.0, 0.0, 1.7103880384560747E9, 0.0, 2024-03-13 20:47:18.456
57.0, -722.4682635902427, 72.6625162390992, -465.06590923992917, -56.898837925866246, 0.01600000075995922, -0.19200000911951065, 1.0400000493973494, 0.0, 0.0, 0.0, 0.0, 0.0, 1.7103880384568913E9, 0.0, 2024-03-13 20:47:18.456
57.0, -903.5934883942828, 152.28124639578164, -647.60481622722, 16.369542106054723, 0.01600000075995922, -0.19200000911951065, 1.0400000493973494, 0.0, 0.0, 0.0, 0.0, 0.0, 1.7103880384568913E9, 0.0, 2024-03-13 20:47:18.456
58.0, -812.8373361695558, 118.32295479811728, -535.9538429500535, -56.37151203211397, 0.01600000075995922, -0.19200000911951065, 1.0400000493973494, 0.0, 0.0, 0.0, 0.0, 0.0, 1.710388038470424E9, 0.0, 2024-03-13 20:47:18.470
58.0, -691.4308338579722, 60.74345508031547, -415.83012632327154, -81.63827613275498, 0.01600000075995922, -0.19200000911951065, 1.0400000493973494, 0.0, 0.0, 0.0, 0.0, 0.0, 1.710388038470424E9, 0.0, 2024-03-13 20:47:18.470
59.0, -574.674897141289, -73.73773747636005, -310.74641736829653, -188.91543641174212, 0.01600000075995922, -0.19200000911951065, 1.0400000493973494, 0.0, 0.0, 0.0, 0.0, 0.0, 1.7103880384861016E9, 0.0, 2024-03-13 20:47:18.486
59.0, -772.2856009500101, -239.61539016105235, -500.6753666680306, -409.7546588452533, 0.01600000075995922, -0.19200000911951065, 1.0400000493973494, 0.0, 0.0, 0.0, 0.0, 0.0, 1.7103880384861016E9, 0.0, 2024-03-13 20:47:18.486
60.0, -572.5132349669002, -298.89654435869306, -307.81059590307996, -465.6998222824186, 0.01600000075995922, -0.19200000911951065, 1.0400000493973494, 0.0, 0.0, 0.0, 0.0, 0.0, 1.710388038486796E9, 0.0, 2024-03-13 20:47:18.486
60.0, -689.5459242803045, -294.37500531226397, -430.50175384944305, -408.09414326492697, 0.01600000075995922, -0.19200000911951065, 1.0400000493973494, 0.0, 0.0, 0.0, 0.0, 0.0, 1.710388038486796E9, 0.0, 2024-03-13 20:47:18.486
61.0, -814.3220764519647, -233.45951483398676, -545.0044008428231, -389.2487873882055, 0.01600000075995922, -0.19200000911951065, 1.0400000493973494, 0.0, 0.0, 0.0, 0.0, 0.0, 1.7103880385005815E9, 0.0, 2024-03-13 20:47:18.500
61.0, -936.6616838024929, -103.49612142378464, -663.2263783421367, -281.1937279184349, 0.01600000075995922, -0.19200000911951065, 1.0400000493973494, 0.0, 0.0, 0.0, 0.0, 0.0, 1.7103880385005815E9, 0.0, 2024-03-13 20:47:18.500
62.0, -736.6088253227063, 47.91933813225478, -481.2933351476677, -75.13459010981023, 0.01600000075995922, -0.19200000911951065, 1.0400000493973494, 0.0, 0.0, 0.0, 0.0, 0.0, 1.7103880385161583E9, 0.0, 2024-03-13 20:47:18.516
62.0, -929.5857930863276, 126.8013079976663, -661.775297159329, -1.9971065763384104, 0.01600000075995922, -0.19200000911951065, 1.0400000493973494, 0.0, 0.0, 0.0, 0.0, 0.0, 1.7103880385161583E9, 0.0, 2024-03-13 20:47:18.516
63.0, -820.2647774815559, 109.81094249896705, -546.6237775236368, -68.40651008952409, 0.01600000075995922, -0.19200000911951065, 1.0400000493973494, 0.0, 0.0, 0.0, 0.0, 0.0, 1.710388038516837E9, 0.0, 2024-03-13 20:47:18.516
63.0, -688.1359819970094, 55.8030472388491, -417.9543894981034, -84.68255469668657, 0.01600000075995922, -0.19200000911951065, 1.0400000493973494, 0.0, 0.0, 0.0, 0.0, 0.0, 1.710388038516837E9, 0.0, 2024-03-13 20:47:18.516
64.0, -582.573565847706, -86.38607912650332, -317.44457818893716, -195.62107703229412, 0.01600000075995922, -0.19200000911951065, 1.0400000493973494, 0.0, 0.0, 0.0, 0.0, 0.0, 1.7103880385305448E9, 0.0, 2024-03-13 20:47:18.530
64.0, -774.8960511190817, -246.2611923823133, -500.43975297082216, -410.7943510329351, 0.01600000075995922, -0.19200000911951065, 1.0400000493973494, 0.0, 0.0, 0.0, 0.0, 0.0, 1.7103880385305448E9, 0.0, 2024-03-13 20:47:18.530
65.0, -578.8935042913072, -307.16920306067914, -310.44722537184134, -467.9587218556553, 0.01600000075995922, -0.19200000911951065, 1.0400000493973494, 0.0, 0.0, 0.0, 0.0, 0.0, 1.7103880385463572E9, 0.0, 2024-03-13 20:47:18.546
65.0, -703.5069708148949, -305.41892988141626, -439.0848242477514, -417.2456784565002, 0.01600000075995922, -0.19200000911951065, 1.0400000493973494, 0.0, 0.0, 0.0, 0.0, 0.0, 1.7103880385463572E9, 0.0, 2024-03-13 20:47:18.546
66.0, -825.4183596204966, -245.93956098612398, -555.0684716235846, -393.01860654354095, 0.01600000075995922, -0.19200000911951065, 1.0400000493973494, 0.0, 0.0, 0.0, 0.0, 0.0, 1.71038803854693E9, 0.0, 2024-03-13 20:47:18.546
66.0, -936.0109412102029, -100.40696406038478, -667.9947507856414, -278.05221195565537, 0.01600000075995922, -0.19200000911951065, 1.0400000493973494, 0.0, 0.0, 0.0, 0.0, 0.0, 1.71038803854693E9, 0.0, 2024-03-13 20:47:18.546
67.0, -748.0192600875162, 43.91764517966658, -480.1713651609607, -73.64237002748996, 0.01600000075995922, -0.19200000911951065, 1.0400000493973494, 0.0, 0.0, 0.0, 0.0, 0.0, 1.7103880385608E9, 0.0, 2024-03-13 20:47:18.560
67.0, -940.5362201565877, 122.16009215265512, -667.9087330866605, -0.7442400911822915, 0.01600000075995922, -0.19200000911951065, 1.0400000493973494, 0.0, 0.0, 0.0, 0.0, 0.0, 1.7103880385608E9, 0.0, 2024-03-13 20:47:18.560
68.0, -813.5628767609596, 113.10953425988555, -542.6370441708714, -64.25896103866398, 0.01600000075995922, -0.19200000911951065, 1.0400000493973494, 0.0, 0.0, 0.0, 0.0, 0.0, 1.71038803857628E9, 0.0, 2024-03-13 20:47:18.576
68.0, -691.9132809522562, 60.82199297938496, -421.53347375569865, -88.88246234692633, 0.01600000075995922, -0.19200000911951065, 1.0400000493973494, 0.0, 0.0, 0.0, 0.0, 0.0, 1.71038803857628E9, 0.0, 2024-03-13 20:47:18.576
69.0, -575.3405993334018, -77.43275863258168, -310.6865789690055, -193.9643013519235, 0.01600000075995922, -0.19200000911951065, 1.0400000493973494, 0.0, 0.0, 0.0, 0.0, 0.0, 1.710388038576779E9, 0.0, 2024-03-13 20:47:18.576
69.0, -775.5019149119034, -246.855836475268, -497.5301108052954, -410.1623079404235, 0.01600000075995922, -0.19200000911951065, 1.0400000493973494, 0.0, 0.0, 0.0, 0.0, 0.0, 1.710388038576779E9, 0.0, 2024-03-13 20:47:18.576
70.0, -579.3273326861672, -305.3777909819037, -301.6883796756156, -463.137990812771, 0.01600000075995922, -0.19200000911951065, 1.0400000493973494, 0.0, 0.0, 0.0, 0.0, 0.0, 1.710388038590803E9, 0.0, 2024-03-13 20:47:18.590
70.0, -705.9678249857388, -306.664316566661, -430.65134984767064, -415.76841797400266, 0.01600000075995922, -0.19200000911951065, 1.0400000493973494, 0.0, 0.0, 0.0, 0.0, 0.0, 1.710388038590803E9, 0.0, 2024-03-13 20:47:18.590
71.0, -814.16126075387, -231.61200425587595, -537.3263862337917, -377.68127682525665, 0.01600000075995922, -0.19200000911951065, 1.0400000493973494, 0.0, 0.0, 0.0, 0.0, 0.0, 1.7103880386065228E9, 0.0, 2024-03-13 20:47:18.606
71.0, -921.8367203781381, -82.1300729769282, -641.5125191994011, -252.35161946015432, 0.01600000075995922, -0.19200000911951065, 1.0400000493973494, 0.0, 0.0, 0.0, 0.0, 0.0, 1.7103880386065228E9, 0.0, 2024-03-13 20:47:18.606
72.0, -729.0542274122126, 67.7370679974556, -460.21525899739936, -53.60024616494775, 0.01600000075995922, -0.19200000911951065, 1.0400000493973494, 0.0, 0.0, 0.0, 0.0, 0.0, 1.710388038606926E9, 0.0, 2024-03-13 20:47:18.606
72.0, -911.6155737992376, 151.02837991062552, -644.7250932613388, 23.071442826651037, 0.01600000075995922, -0.19200000911951065, 1.0400000493973494, 0.0, 0.0, 0.0, 0.0, 0.0, 1.710388038606926E9, 0.0, 2024-03-13 20:47:18.606
73.0, -805.2154200598598, 132.40367813128978, -527.0042623560876, -41.39695260953158, 0.01600000075995922, -0.19200000911951065, 1.0400000493973494, 0.0, 0.0, 0.0, 0.0, 0.0, 1.710388038620392E9, 0.0, 2024-03-13 20:47:18.620
73.0, -670.4873941061087, 85.45297408755869, -400.7658093017526, -59.355952196754515, 0.01600000075995922, -0.19200000911951065, 1.0400000493973494, 0.0, 0.0, 0.0, 0.0, 0.0, 1.710388038620392E9, 0.0, 2024-03-13 20:47:18.620
74.0, -563.4439775743522, -60.68922653095797, -302.3092030682601, -179.25901472615078, 0.01600000075995922, -0.19200000911951065, 1.0400000493973494, 0.0, 0.0, 0.0, 0.0, 0.0, 1.7103880386360772E9, 0.0, 2024-03-13 20:47:18.636
74.0, -758.5900873122737, -218.1446245154366, -485.8878022432327, -388.6578831952065, 0.01600000075995922, -0.19200000911951065, 1.0400000493973494, 0.0, 0.0, 0.0, 0.0, 0.0, 1.7103880386360772E9, 0.0, 2024-03-13 20:47:18.636
75.0, -563.3056012759916, -280.0511884819716, -292.9818925787695, -441.9551974637434, 0.01600000075995922, -0.19200000911951065, 1.0400000493973494, 0.0, 0.0, 0.0, 0.0, 0.0, 1.7103880386368165E9, 0.0, 2024-03-13 20:47:18.636
75.0, -685.2899181307293, -293.3914116239175, -428.403669974301, -406.9684333782643, 0.01600000075995922, -0.19200000911951065, 1.0400000493973494, 0.0, 0.0, 0.0, 0.0, 0.0, 1.7103880386368165E9, 0.0, 2024-03-13 20:47:18.636
76.0, -810.1072092019022, -226.87729091197252, -537.1281715361401, -371.04669430386275, 0.01600000075995922, -0.19200000911951065, 1.0400000493973494, 0.0, 0.0, 0.0, 0.0, 0.0, 1.7103880386503901E9, 0.0, 2024-03-13 20:47:18.650
76.0, -918.003322923556, -78.2779760225676, -642.8476634835824, -245.30190804367885, 0.01600000075995922, -0.19200000911951065, 1.0400000493973494, 0.0, 0.0, 0.0, 0.0, 0.0, 1.7103880386503901E9, 0.0, 2024-03-13 20:47:18.650
77.0, -725.7593755512498, 67.01900720596313, -459.48223860608414, -52.156644782051444, 0.01600000075995922, -0.19200000911951065, 1.0400000493973494, 0.0, 0.0, 0.0, 0.0, 0.0, 1.7103880386664016E9, 0.0, 2024-03-13 20:47:18.666
77.0, -918.6129266163334, 141.1774834273383, -650.6603144910187, 18.613482079468668, 0.01600000075995922, -0.19200000911951065, 1.0400000493973494, 0.0, 0.0, 0.0, 0.0, 0.0, 1.7103880386664016E9, 0.0, 2024-03-13 20:47:18.666
78.0, -815.7993369344622, 135.7284491918981, -523.2381831007078, -39.79253552854061, 0.01600000075995922, -0.19200000911951065, 1.0400000493973494, 0.0, 0.0, 0.0, 0.0, 0.0, 1.710388038667024E9, 0.0, 2024-03-13 20:47:18.667
78.0, -678.6590755092911, 74.00888022314757, -407.5836469209753, -66.79835310857743, 0.01600000075995922, -0.19200000911951065, 1.0400000493973494, 0.0, 0.0, 0.0, 0.0, 0.0, 1.710388038667024E9, 0.0, 2024-03-13 20:47:18.667
79.0, -577.2442084108479, -73.80131577560678, -310.3574677729048, -187.68874922627583, 0.01600000075995922, -0.19200000911951065, 1.0400000493973494, 0.0, 0.0, 0.0, 0.0, 0.0, 1.710388038680411E9, 0.0, 2024-03-13 20:47:18.680
79.0, -775.4645159123465, -238.91976876929402, -497.4291335064918, -399.941161361523, 0.01600000075995922, -0.19200000911951065, 1.0400000493973494, 0.0, 0.0, 0.0, 0.0, 0.0, 1.710388038680411E9, 0.0, 2024-03-13 20:47:18.680
80.0, -574.5589602426626, -294.8050938071683, -299.5304574011825, -454.8391528110951, 0.01600000075995922, -0.19200000911951065, 1.0400000493973494, 0.0, 0.0, 0.0, 0.0, 0.0, 1.7103880386963103E9, 0.0, 2024-03-13 20:47:18.696
80.0, -710.9643313265406, -310.90162321645766, -437.14007627079263, -419.62425482831895, 0.01600000075995922, -0.19200000911951065, 1.0400000493973494, 0.0, 0.0, 0.0, 0.0, 0.0, 1.7103880386963103E9, 0.0, 2024-03-13 20:47:18.696
81.0, -814.1986597534269, -238.12690997868776, -539.312273110263, -383.5192606560886, 0.01600000075995922, -0.19200000911951065, 1.0400000493973494, 0.0, 0.0, 0.0, 0.0, 0.0, 1.710388038696834E9, 0.0, 2024-03-13 20:47:18.696
81.0, -927.4353506118059, -83.33432076266035, -647.5711571276188, -253.87001884216443, 0.01600000075995922, -0.19200000911951065, 1.0400000493973494, 0.0, 0.0, 0.0, 0.0, 0.0, 1.710388038696834E9, 0.0, 2024-03-13 20:47:18.696
82.0, -726.866385938134, 68.10357819311321, -459.84126900183037, -57.64681791700423, 0.01600000075995922, -0.19200000911951065, 1.0400000493973494, 0.0, 0.0, 0.0, 0.0, 0.0, 1.710388038710703E9, 0.0, 2024-03-13 20:47:18.710
82.0, -924.8398600425571, 138.8811848545447, -654.0150047512725, 9.484386287629604, 0.01600000075995922, -0.19200000911951065, 1.0400000493973494, 0.0, 0.0, 0.0, 0.0, 0.0, 1.710388038710703E9, 0.0, 2024-03-13 20:47:18.710
83.0, -806.9095947397873, 131.6220390405506, -532.9357436858118, -43.52121578436345, 0.01600000075995922, -0.19200000911951065, 1.0400000493973494, 0.0, 0.0, 0.0, 0.0, 0.0, 1.710388038726482E9, 0.0, 2024-03-13 20:47:18.726
83.0, -678.6254164096899, 72.50918034091592, -408.8477331059985, -71.12915725726634, 0.01600000075995922, -0.19200000911951065, 1.0400000493973494, 0.0, 0.0, 0.0, 0.0, 0.0, 1.710388038726482E9, 0.0, 2024-03-13 20:47:18.726
84.0, -583.9872480309568, -87.44821071391925, -318.4319117772393, -205.30741791753098, 0.01600000075995922, -0.19200000911951065, 1.0400000493973494, 0.0, 0.0, 0.0, 0.0, 0.0, 1.7103880387269516E9, 0.0, 2024-03-13 20:47:18.726
84.0, -768.8336732909083, -227.41957640554756, -494.5045317411423, -398.02633258420974, 0.01600000075995922, -0.19200000911951065, 1.0400000493973494, 0.0, 0.0, 0.0, 0.0, 0.0, 1.7103880387269516E9, 0.0, 2024-03-13 20:47:18.726
85.0, -554.35228078207, -281.56210806407034, -292.6116424831562, -444.2178369369358, 0.01600000075995922, -0.19200000911951065, 1.0400000493973494, 0.0, 0.0, 0.0, 0.0, 0.0, 1.7103880387407963E9, 0.0, 2024-03-13 20:47:18.740
85.0, -695.3726884112693, -299.76046124845743, -431.4516884381883, -411.5011921245605, 0.01600000075995922, -0.19200000911951065, 1.0400000493973494, 0.0, 0.0, 0.0, 0.0, 0.0, 1.7103880387407963E9, 0.0, 2024-03-13 20:47:18.740
86.0, -812.2838309761137, -228.5153670925647, -544.1404839530587, -377.82713292352855, 0.01600000075995922, -0.19200000911951065, 1.0400000493973494, 0.0, 0.0, 0.0, 0.0, 0.0, 1.71038803875646E9, 0.0, 2024-03-13 20:47:18.756
86.0, -918.6877246154472, -78.3153750221245, -646.0377981457859, -254.50206193467602, 0.01600000075995922, -0.19200000911951065, 1.0400000493973494, 0.0, 0.0, 0.0, 0.0, 0.0, 1.71038803875646E9, 0.0, 2024-03-13 20:47:18.756
87.0, -733.5047083594836, 56.65948432870209, -468.7684101960622, -72.02299334667623, 0.01600000075995922, -0.19200000911951065, 1.0400000493973494, 0.0, 0.0, 0.0, 0.0, 0.0, 1.7103880387571087E9, 0.0, 2024-03-13 20:47:18.757
87.0, -932.2373821549118, 126.19170430488884, -661.5247238622978, -0.2730126967653632, 0.01600000075995922, -0.19200000911951065, 1.0400000493973494, 0.0, 0.0, 0.0, 0.0, 0.0, 1.7103880387571087E9, 0.0, 2024-03-13 20:47:18.757
88.0, -814.703546247445, 131.38642534334213, -534.4391834679991, -51.82753358595073, 0.01600000075995922, -0.19200000911951065, 1.0400000493973494, 0.0, 0.0, 0.0, 0.0, 0.0, 1.710388038786765E9, 0.0, 2024-03-13 20:47:18.786
88.0, -677.7091409205459, 68.79919958487153, -408.3877254114486, -75.16450930945575, 0.01600000075995922, -0.19200000911951065, 1.0400000493973494, 0.0, 0.0, 0.0, 0.0, 0.0, 1.710388038786765E9, 0.0, 2024-03-13 20:47:18.786
89.0, -574.2261091466062, -82.4666639729403, -313.4578448361717, -198.21282770158723, 0.01600000075995922, -0.19200000911951065, 1.0400000493973494, 0.0, 0.0, 0.0, 0.0, 0.0, 1.71038803878748E9, 0.0, 2024-03-13 20:47:18.787
89.0, -758.9341581081972, -229.80189267732203, -489.17891420423985, -395.707594611682, 0.01600000075995922, -0.19200000911951065, 1.0400000493973494, 0.0, 0.0, 0.0, 0.0, 0.0, 1.71038803878748E9, 0.0, 2024-03-13 20:47:18.787
90.0, -555.8033619648777, -277.93440510705113, -284.1071099839173, -442.3852859586477, 0.01600000075995922, -0.19200000911951065, 1.0400000493973494, 0.0, 0.0, 0.0, 0.0, 0.0, 1.7103880387883267E9, 0.0, 2024-03-13 20:47:18.788
90.0, -688.3304567947052, -301.20032273139805, -426.97502819122747, -415.0952359819785, 0.01600000075995922, -0.19200000911951065, 1.0400000493973494, 0.0, 0.0, 0.0, 0.0, 0.0, 1.7103880387883267E9, 0.0, 2024-03-13 20:47:18.788
91.0, -803.7605989770964, -222.72600196115673, -535.1983831590042, -374.90627105813473, 0.01600000075995922, -0.19200000911951065, 1.0400000493973494, 0.0, 0.0, 0.0, 0.0, 0.0, 1.7103880388004737E9, 0.0, 2024-03-13 20:47:18.800
91.0, -905.0445695770904, -62.738691706676036, -637.3799297483638, -240.10344710526988, 0.01600000075995922, -0.19200000911951065, 1.0400000493973494, 0.0, 0.0, 0.0, 0.0, 0.0, 1.7103880388004737E9, 0.0, 2024-03-13 20:47:18.800
92.0, -726.3614994441159, 66.19248931575567, -456.77829093812034, -60.63125808164477, 0.01600000075995922, -0.19200000911951065, 1.0400000493973494, 0.0, 0.0, 0.0, 0.0, 0.0, 1.7103880388161595E9, 0.0, 2024-03-13 20:47:18.816
92.0, -918.3847927190363, 138.89240455441177, -654.0524037508294, 9.346009989269078, 0.01600000075995922, -0.19200000911951065, 1.0400000493973494, 0.0, 0.0, 0.0, 0.0, 0.0, 1.7103880388161595E9, 0.0, 2024-03-13 20:47:18.816
93.0, -800.3797294171527, 142.5911656105891, -520.4706571334973, -29.545209649950266, 0.01600000075995922, -0.19200000911951065, 1.0400000493973494, 0.0, 0.0, 0.0, 0.0, 0.0, 1.710388038816868E9, 0.0, 2024-03-13 20:47:18.816
93.0, -657.6782367578708, 88.7814850481227, -390.050995928701, -54.090173059143126, 0.01600000075995922, -0.19200000911951065, 1.0400000493973494, 0.0, 0.0, 0.0, 0.0, 0.0, 1.710388038816868E9, 0.0, 2024-03-13 20:47:18.816
94.0, -575.6547509296797, -79.4635243085213, -309.4673715834506, -189.6970755024813, 0.01600000075995922, -0.19200000911951065, 1.0400000493973494, 0.0, 0.0, 0.0, 0.0, 0.0, 1.710388038830685E9, 0.0, 2024-03-13 20:47:18.830
94.0, -760.2693023923784, -223.54504005145282, -490.226086191833, -386.6196377193555, 0.01600000075995922, -0.19200000911951065, 1.0400000493973494, 0.0, 0.0, 0.0, 0.0, 0.0, 1.710388038830685E9, 0.0, 2024-03-13 20:47:18.830
95.0, -552.4972904040478, -268.8763674143702, -281.7509730118327, -431.3525810893625, 0.01600000075995922, -0.19200000911951065, 1.0400000493973494, 0.0, 0.0, 0.0, 0.0, 0.0, 1.7103880388463013E9, 0.0, 2024-03-13 20:47:18.846
95.0, -688.1958203963004, -297.5763596743345, -425.90541680390015, -406.7178600812331, 0.01600000075995922, -0.19200000911951065, 1.0400000493973494, 0.0, 0.0, 0.0, 0.0, 0.0, 1.7103880388463013E9, 0.0, 2024-03-13 20:47:18.846
96.0, -810.1745274011046, -226.2602074192837, -536.9748356379569, -372.0676869917661, 0.01600000075995922, -0.19200000911951065, 1.0400000493973494, 0.0, 0.0, 0.0, 0.0, 0.0, 1.7103880388470635E9, 0.0, 2024-03-13 20:47:18.847
96.0, -909.0761817293242, -60.311496635433286, -629.959968236275, -231.9392455019988, 0.01600000075995922, -0.19200000911951065, 1.0400000493973494, 0.0, 0.0, 0.0, 0.0, 0.0, 1.7103880388470635E9, 0.0, 2024-03-13 20:47:18.847
97.0, -717.6176133477129, 68.69074248615652, -453.0458707823418, -53.58902646508068, 0.01600000075995922, -0.19200000911951065, 1.0400000493973494, 0.0, 0.0, 0.0, 0.0, 0.0, 1.7103880388604877E9, 0.0, 2024-03-13 20:47:18.860
97.0, -933.6996830375865, 134.99542880058289, -659.7146122837439, 5.688387832604349, 0.01600000075995922, -0.19200000911951065, 1.0400000493973494, 0.0, 0.0, 0.0, 0.0, 0.0, 1.7103880388604877E9, 0.0, 2024-03-13 20:47:18.860
98.0, -798.2479864424095, 142.65100400988013, -528.7171365357935, -37.29428235813975, 0.01600000075995922, -0.19200000911951065, 1.0400000493973494, 0.0, 0.0, 0.0, 0.0, 0.0, 1.710388038876288E9, 0.0, 2024-03-13 20:47:18.876
98.0, -667.4767746417783, 78.47058087028563, -406.18866423750296, -70.59435156360269, 0.01600000075995922, -0.19200000911951065, 1.0400000493973494, 0.0, 0.0, 0.0, 0.0, 0.0, 1.710388038876288E9, 0.0, 2024-03-13 20:47:18.876
99.0, -572.1467247712426, -80.06938810134307, -315.18567861570045, -200.14261607872322, 0.01600000075995922, -0.19200000911951065, 1.0400000493973494, 0.0, 0.0, 0.0, 0.0, 0.0, 1.710388038876932E9, 0.0, 2024-03-13 20:47:18.876
99.0, -763.3921188553795, -216.82069993112236, -487.3875021254644, -387.75656730588526, 0.01600000075995922, -0.19200000911951065, 1.0400000493973494, 0.0, 0.0, 0.0, 0.0, 0.0, 1.710388038876932E9, 0.0, 2024-03-13 20:47:18.876
100.0, -548.7835697480477, -264.47824506647885, -278.2579064532183, -430.85517439525574, 0.01600000075995922, -0.19200000911951065, 1.0400000493973494, 0.0, 0.0, 0.0, 0.0, 0.0, 1.7103880388914149E9, 0.0, 2024-03-13 20:47:18.891
100.0, -694.1684406255372, -303.93792949896306, -433.2318808170967, -421.85323520191014, 0.01600000075995922, -0.19200000911951065, 1.0400000493973494, 0.0, 0.0, 0.0, 0.0, 0.0, 1.7103880388914149E9, 0.0, 2024-03-13 20:47:18.891
0.0, -321.98668668512255, 260.56069986289367, -53.51422846596688, 112.2587070199661, 0.01600000075995922, -0.19200000911951065, 1.0400000493973494, 0.0, 0.0, 0.0, 0.0, 0.0, 1.7103880388919609E9, 0.0, 2024-03-13 20:47:18.891
1.0, -413.3487027026713, 427.2050320385024, -144.43119638878852, 249.858976139687, 0.01600000075995922, -0.19200000911951065, 1.0400000493973494, 0.0, 0.0, 0.0, 0.0, 0.0, 1.7103880389054432E9, 0.0, 2024-03-13 20:47:18.905
1.0, -240.0623082057573, 544.3480484005995, 18.506894930731505, 412.5053552626632, 0.01600000075995922, -0.19200000911951065, 1.0400000493973494, 0.0, 0.0, 0.0, 0.0, 0.0, 1.7103880389054432E9, 0.0, 2024-03-13 20:47:18.905
2.0, -437.90114591177553, 610.3759821183048, -183.6814464237541, 478.2453166837804, 0.01600000075995922, -0.19200000911951065, 1.0400000493973494, 0.0, 0.0, 0.0, 0.0, 0.0, 1.7103880389211018E9, 0.0, 2024-03-13 20:47:18.921
2.0, -316.6610691482201, 627.523423415143, -41.78216230496764, 448.2774983388372, 0.01600000075995922, -0.19200000911951065, 1.0400000493973494, 0.0, 0.0, 0.0, 0.0, 0.0, 1.7103880389211018E9, 0.0, 2024-03-13 20:47:18.921
3.0, -183.19712937949225, 561.0616613025777, 85.60070013580844, 415.5907727261074, 0.01600000075995922, -0.19200000911951065, 1.0400000493973494, 0.0, 0.0, 0.0, 0.0, 0.0, 1.7103880389218285E9, 0.0, 2024-03-13 20:47:18.921
3.0, -91.15445157000795, 397.7794991871342, 172.28036140883341, 281.92487835977226, 0.01600000075995922, -0.19200000911951065, 1.0400000493973494, 0.0, 0.0, 0.0, 0.0, 0.0, 1.7103880389218285E9, 0.0, 2024-03-13 20:47:18.921
4.0, -274.92004574276507, 266.64551709080115, -2.8759830659255385, 98.57067318214104, 0.01600000075995922, -0.19200000911951065, 1.0400000493973494, 0.0, 0.0, 0.0, 0.0, 0.0, 1.710388038935584E9, 0.0, 2024-03-13 20:47:18.935
4.0, -61.541923720855266, 221.69191962340847, 204.2303267302923, 51.74338583694771, 0.01600000075995922, -0.19200000911951065, 1.0400000493973494, 0.0, 0.0, 0.0, 0.0, 0.0, 1.710388038935584E9, 0.0, 2024-03-13 20:47:18.935
5.0, -207.4503805921413, 181.6226314981468, 48.05958438059315, 58.51634465670213, 0.01600000075995922, -0.19200000911951065, 1.0400000493973494, 0.0, 0.0, 0.0, 0.0, 0.0, 1.71038803895124E9, 0.0, 2024-03-13 20:47:18.951
5.0, -317.80173863470554, 258.6533508854918, -56.25183523353189, 106.66755658620968, 0.01600000075995922, -0.19200000911951065, 1.0400000493973494, 0.0, 0.0, 0.0, 0.0, 0.0, 1.71038803895124E9, 0.0, 2024-03-13 20:47:18.951
6.0, -424.58710206951946, 424.26173077337444, -158.89712941739708, 243.87887611053884, 0.01600000075995922, -0.19200000911951065, 1.0400000493973494, 0.0, 0.0, 0.0, 0.0, 0.0, 1.7103880389518597E9, 0.0, 2024-03-13 20:47:18.951
6.0, -242.14917238103226, 548.4694181517698, 22.448749484028667, 422.0645395494066, 0.01600000075995922, -0.19200000911951065, 1.0400000493973494, 0.0, 0.0, 0.0, 0.0, 0.0, 1.7103880389518597E9, 0.0, 2024-03-13 20:47:18.951
7.0, -436.45006472896785, 613.3454626831226, -176.05205051414669, 483.6270327200182, 0.01600000075995922, -0.19200000911951065, 1.0400000493973494, 0.0, 0.0, 0.0, 0.0, 0.0, 1.7103880389654803E9, 0.0, 2024-03-13 20:47:18.965
7.0, -308.5155670447275, 636.1177135133184, -36.90907266270369, 453.6816537748091, 0.01600000075995922, -0.19200000911951065, 1.0400000493973494, 0.0, 0.0, 0.0, 0.0, 0.0, 1.7103880389654803E9, 0.0, 2024-03-13 20:47:18.965
8.0, -174.9581297771074, 567.6887640240602, 86.24770282814279, 422.53576694382355, 0.01600000075995922, -0.19200000911951065, 1.0400000493973494, 0.0, 0.0, 0.0, 0.0, 0.0, 1.7103880389975424E9, 0.0, 2024-03-13 20:47:18.997
8.0, -97.19065009849146, 393.38885663915426, 168.19265075726435, 283.2001842446625, 0.01600000075995922, -0.19200000911951065, 1.0400000493973494, 0.0, 0.0, 0.0, 0.0, 0.0, 1.7103880389975424E9, 0.0, 2024-03-13 20:47:18.997
9.0, -265.0242704600096, 270.3966367463581, -0.4899268941953778, 107.75960737327114, 0.01600000075995922, -0.19200000911951065, 1.0400000493973494, 0.0, 0.0, 0.0, 0.0, 0.0, 1.710388038998171E9, 0.0, 2024-03-13 20:47:18.998
9.0, -64.04391679121181, 231.06784881232306, 212.68998043006286, 68.18024614220485, 0.01600000075995922, -0.19200000911951065, 1.0400000493973494, 0.0, 0.0, 0.0, 0.0, 0.0, 1.710388038998171E9, 0.0, 2024-03-13 20:47:18.998
10.0, -203.3402305408381, 180.3286261134781, 54.46603300468996, 71.84908799873665, 0.01600000075995922, -0.19200000911951065, 1.0400000493973494, 0.0, 0.0, 0.0, 0.0, 0.0, 1.7103880389994397E9, 0.0, 2024-03-13 20:47:18.999
10.0, -324.28672515787184, 260.0371138690971, -55.03636774793267, 118.2575065488927, 0.01600000075995922, -0.19200000911951065, 1.0400000493973494, 0.0, 0.0, 0.0, 0.0, 0.0, 1.7103880389994397E9, 0.0, 2024-03-13 20:47:18.999
11.0, -420.9481794126332, 426.11298125144094, -147.35953805409372, 251.91218121536076, 0.01600000075995922, -0.19200000911951065, 1.0400000493973494, 0.0, 0.0, 0.0, 0.0, 0.0, 1.7103880389999766E9, 0.0, 2024-03-13 20:47:18.999
11.0, -241.44981108931825, 549.1463400437497, 27.374197725672275, 420.8939508632757, 0.01600000075995922, -0.19200000911951065, 1.0400000493973494, 0.0, 0.0, 0.0, 0.0, 0.0, 1.7103880389999766E9, 0.0, 2024-03-13 20:47:18.999
12.0, -451.26380845345557, 601.123469627928, -184.58276231307536, 475.7919423128478, 0.01600000075995922, -0.19200000911951065, 1.0400000493973494, 0.0, 0.0, 0.0, 0.0, 0.0, 1.7103880390104876E9, 0.0, 2024-03-13 20:47:19.010
12.0, -324.66071515344083, 626.2294180304743, -41.7223239056766, 456.0452705468051, 0.01600000075995922, -0.19200000911951065, 1.0400000493973494, 0.0, 0.0, 0.0, 0.0, 0.0, 1.7103880390104876E9, 0.0, 2024-03-13 20:47:19.010
13.0, -179.35251222504303, 566.8398067341186, 88.8731125970371, 425.3668712102808, 0.01600000075995922, -0.19200000911951065, 1.0400000493973494, 0.0, 0.0, 0.0, 0.0, 0.0, 1.7103880390254955E9, 0.0, 2024-03-13 20:47:19.025
13.0, -95.49273551860824, 393.5534122372046, 172.16442451020703, 282.48212345317006, 0.01600000075995922, -0.19200000911951065, 1.0400000493973494, 0.0, 0.0, 0.0, 0.0, 0.0, 1.7103880390254955E9, 0.0, 2024-03-13 20:47:19.025
14.0, -282.11935315746814, 264.71198881370947, 2.5954905692487955, 106.42446308908984, 0.01600000075995922, -0.19200000911951065, 1.0400000493973494, 0.0, 0.0, 0.0, 0.0, 0.0, 1.710388039041462E9, 0.0, 2024-03-13 20:47:19.041
14.0, -62.24502491252497, 214.6010693074204, 214.85164260445163, 61.36614842293784, 0.01600000075995922, -0.19200000911951065, 1.0400000493973494, 0.0, 0.0, 0.0, 0.0, 0.0, 1.710388039041462E9, 0.0, 2024-03-13 20:47:19.041
15.0, -220.2670177402906, 166.58823367627338, 52.46144662844017, 62.68259320734069, 0.01600000075995922, -0.19200000911951065, 1.0400000493973494, 0.0, 0.0, 0.0, 0.0, 0.0, 1.7103880390419395E9, 0.0, 2024-03-13 20:47:19.041
15.0, -324.7841318519786, 253.18935705022886, -55.93768363725394, 111.7762599256821, 0.01600000075995922, -0.19200000911951065, 1.0400000493973494, 0.0, 0.0, 0.0, 0.0, 0.0, 1.7103880390419395E9, 0.0, 2024-03-13 20:47:19.041
16.0, -422.14868729840964, 433.19261186756194, -141.12512482795864, 256.9647860554978, 0.01600000075995922, -0.19200000911951065, 1.0400000493973494, 0.0, 0.0, 0.0, 0.0, 0.0, 1.7103880390557888E9, 0.0, 2024-03-13 20:47:19.055
16.0, -235.3163751619868, 547.5830618622713, 29.001054206397384, 422.68910284200683, 0.01600000075995922, -0.19200000911951065, 1.0400000493973494, 0.0, 0.0, 0.0, 0.0, 0.0, 1.7103880390557888E9, 0.0, 2024-03-13 20:47:19.055
17.0, -450.81876035872847, 606.213473467622, -175.21431292407215, 483.2754821241833, 0.01600000075995922, -0.19200000911951065, 1.0400000493973494, 0.0, 0.0, 0.0, 0.0, 0.0, 1.7103880390713563E9, 0.0, 2024-03-13 20:47:19.071
17.0, -304.5811922913417, 643.3245007279329, -27.211512077599764, 470.9861708697863, 0.01600000075995922, -0.19200000911951065, 1.0400000493973494, 0.0, 0.0, 0.0, 0.0, 0.0, 1.7103880390713563E9, 0.0, 2024-03-13 20:47:19.071
18.0, -174.56170038180426, 573.0816997601651, 88.77213529823348, 426.1522502009757, 0.01600000075995922, -0.19200000911951065, 1.0400000493973494, 0.0, 0.0, 0.0, 0.0, 0.0, 1.7103880390718615E9, 0.0, 2024-03-13 20:47:19.071
18.0, -102.04504024097696, 394.02463963162154, 162.69873772235587, 276.4683643244207, 0.01600000075995922, -0.19200000911951065, 1.0400000493973494, 0.0, 0.0, 0.0, 0.0, 0.0, 1.7103880390718615E9, 0.0, 2024-03-13 20:47:19.071
19.0, -280.4588375771418, 261.5143743515946, -8.47087339963764, 92.53821455361322, 0.01600000075995922, -0.19200000911951065, 1.0400000493973494, 0.0, 0.0, 0.0, 0.0, 0.0, 1.710388039085508E9, 0.0, 2024-03-13 20:47:19.085
19.0, -66.96477865660563, 227.3840473559685, 211.22393964743242, 56.081669785548, 0.01600000075995922, -0.19200000911951065, 1.0400000493973494, 0.0, 0.0, 0.0, 0.0, 0.0, 1.710388039085508E9, 0.0, 2024-03-13 20:47:19.085
20.0, -206.62012280197814, 180.60163881024346, 53.59463631501421, 58.6397613552399, 0.01600000075995922, -0.19200000911951065, 1.0400000493973494, 0.0, 0.0, 0.0, 0.0, 0.0, 1.7103880391011808E9, 0.0, 2024-03-13 20:47:19.101
20.0, -325.1581218475476, 258.50001498730853, -59.729942192323506, 109.52110025240108, 0.01600000075995922, -0.19200000911951065, 1.0400000493973494, 0.0, 0.0, 0.0, 0.0, 0.0, 1.7103880391011808E9, 0.0, 2024-03-13 20:47:19.101
21.0, -417.5785295525566, 436.29298893082887, -144.19932259153575, 259.8183297216892, 0.01600000075995922, -0.19200000911951065, 1.0400000493973494, 0.0, 0.0, 0.0, 0.0, 0.0, 1.7103880391018803E9, 0.0, 2024-03-13 20:47:19.101
21.0, -233.99619047762826, 548.1515266555361, 23.16681027552113, 417.3298262055032, 0.01600000075995922, -0.19200000911951065, 1.0400000493973494, 0.0, 0.0, 0.0, 0.0, 0.0, 1.7103880391018803E9, 0.0, 2024-03-13 20:47:19.101
22.0, -447.60244639683515, 604.7474326849915, -186.69954568799585, 479.00077647482976, 0.01600000075995922, -0.19200000911951065, 1.0400000493973494, 0.0, 0.0, 0.0, 0.0, 0.0, 1.7103880391153889E9, 0.0, 2024-03-13 20:47:19.115
22.0, -304.4764750925824, 639.5060628731735, -35.14757978357375, 465.11452793935314, 0.01600000075995922, -0.19200000911951065, 1.0400000493973494, 0.0, 0.0, 0.0, 0.0, 0.0, 1.7103880391153889E9, 0.0, 2024-03-13 20:47:19.115
23.0, -180.70261610904709, 572.8012072634883, 97.19438999844715, 428.2914729756303, 0.01600000075995922, -0.19200000911951065, 1.0400000493973494, 0.0, 0.0, 0.0, 0.0, 0.0, 1.7103880391311364E9, 0.0, 2024-03-13 20:47:19.131
23.0, -106.48430148838088, 384.30837954673916, 160.840007444378, 271.8682873789221, 0.01600000075995922, -0.19200000911951065, 1.0400000493973494, 0.0, 0.0, 0.0, 0.0, 0.0, 1.7103880391311364E9, 0.0, 2024-03-13 20:47:19.131
24.0, -275.3239549379796, 269.3419849588536, 1.7353135794401169, 106.8470717840828, 0.01600000075995922, -0.19200000911951065, 1.0400000493973494, 0.0, 0.0, 0.0, 0.0, 0.0, 1.710388039131843E9, 0.0, 2024-03-13 20:47:19.131
24.0, -56.07792988559231, 229.3175756330602, 212.4880258324556, 67.89227384561673, 0.01600000075995922, -0.19200000911951065, 1.0400000493973494, 0.0, 0.0, 0.0, 0.0, 0.0, 1.710388039131843E9, 0.0, 2024-03-13 20:47:19.131
25.0, -208.59105007862672, 170.88911862531677, 50.58775675063953, 55.176613996271044, 0.01600000075995922, -0.19200000911951065, 1.0400000493973494, 0.0, 0.0, 0.0, 0.0, 0.0, 1.710388039145734E9, 0.0, 2024-03-13 20:47:19.145
25.0, -321.4967597909272, 259.4649091758765, -56.913797525689006, 113.1488032094203, 0.01600000075995922, -0.19200000911951065, 1.0400000493973494, 0.0, 0.0, 0.0, 0.0, 0.0, 1.710388039145734E9, 0.0, 2024-03-13 20:47:19.145
26.0, -406.7889181803912, 441.9140585642308, -139.142977851443, 266.381854143925, 0.01600000075995922, -0.19200000911951065, 1.0400000493973494, 0.0, 0.0, 0.0, 0.0, 0.0, 1.7103880391612484E9, 0.0, 2024-03-13 20:47:19.161
26.0, -231.5764752062969, 544.5013842987828, 28.451288912910968, 416.98201550962403, 0.01600000075995922, -0.19200000911951065, 1.0400000493973494, 0.0, 0.0, 0.0, 0.0, 0.0, 1.7103880391612484E9, 0.0, 2024-03-13 20:47:19.161
27.0, -457.0307341851294, 595.7342737917788, -188.85372806247324, 470.1783524793573, 0.01600000075995922, -0.19200000911951065, 1.0400000493973494, 0.0, 0.0, 0.0, 0.0, 0.0, 1.7103880391619077E9, 0.0, 2024-03-13 20:47:19.161
27.0, -320.0793377077207, 638.0662013902329, -39.224070735275745, 458.0947357225232, 0.01600000075995922, -0.19200000911951065, 1.0400000493973494, 0.0, 0.0, 0.0, 0.0, 0.0, 1.7103880391619077E9, 0.0, 2024-03-13 20:47:19.161
28.0, -177.94256994174793, 570.549787490163, 87.43699101405218, 421.13330446043983, 0.01600000075995922, -0.19200000911951065, 1.0400000493973494, 0.0, 0.0, 0.0, 0.0, 0.0, 1.7103880391754155E9, 0.0, 2024-03-13 20:47:19.175
28.0, -109.69313565036282, 372.56509368587285, 151.39676005626097, 255.35288917459548, 0.01600000075995922, -0.19200000911951065, 1.0400000493973494, 0.0, 0.0, 0.0, 0.0, 0.0, 1.7103880391754155E9, 0.0, 2024-03-13 20:47:19.175
29.0, -277.646432810463, 258.30180028965697, -6.02871872857213, 95.1748440223746, 0.01600000075995922, -0.19200000911951065, 1.0400000493973494, 0.0, 0.0, 0.0, 0.0, 0.0, 1.7103880391914434E9, 0.0, 2024-03-13 20:47:19.191
29.0, -63.27349740033969, 223.65162720018998, 210.36376265762374, 60.24043853627518, 0.01600000075995922, -0.19200000911951065, 1.0400000493973494, 0.0, 0.0, 0.0, 0.0, 0.0, 1.7103880391914434E9, 0.0, 2024-03-13 20:47:19.191
30.0, -213.92414741544053, 166.9510039719753, 47.15826849127188, 49.98937275772914, 0.01600000075995922, -0.19200000911951065, 1.0400000493973494, 0.0, 0.0, 0.0, 0.0, 0.0, 1.7103880391919746E9, 0.0, 2024-03-13 20:47:19.191
30.0, -334.126401941292, 240.78784879716113, -72.03795294649899, 90.03622148325667, 0.01600000075995922, -0.19200000911951065, 1.0400000493973494, 0.0, 0.0, 0.0, 0.0, 0.0, 1.7103880391919746E9, 0.0, 2024-03-13 20:47:19.191
31.0, -425.4659785591066, 431.4273790884763, -146.22634836751968, 252.17771411221474, 0.01600000075995922, -0.19200000911951065, 1.0400000493973494, 0.0, 0.0, 0.0, 0.0, 0.0, 1.7103880392058084E9, 0.0, 2024-03-13 20:47:19.205
31.0, -242.99812967097387, 529.725039573852, 15.675790664274246, 402.7329966784455, 0.01600000075995922, -0.19200000911951065, 1.0400000493973494, 0.0, 0.0, 0.0, 0.0, 0.0, 1.7103880392058084E9, 0.0, 2024-03-13 20:47:19.205
32.0, -458.52669416740537, 586.4855012013577, -193.3116888096556, 466.6516268211417, 0.01600000075995922, -0.19200000911951065, 1.0400000493973494, 0.0, 0.0, 0.0, 0.0, 0.0, 1.7103880392210908E9, 0.0, 2024-03-13 20:47:19.221
32.0, -307.16172326076776, 631.0838081729598, -41.93549820315093, 460.1292412984185, 0.01600000075995922, -0.19200000911951065, 1.0400000493973494, 0.0, 0.0, 0.0, 0.0, 0.0, 1.7103880392210908E9, 0.0, 2024-03-13 20:47:19.221
33.0, -179.90601741848513, 568.82569361059, 80.80614839261398, 420.5947588668205, 0.01600000075995922, -0.19200000911951065, 1.0400000493973494, 0.0, 0.0, 0.0, 0.0, 0.0, 1.7103880392222023E9, 0.0, 2024-03-13 20:47:19.222
33.0, -101.46909564780071, 377.97672892175615, 150.28974966937676, 257.98577874340117, 0.01600000075995922, -0.19200000911951065, 1.0400000493973494, 0.0, 0.0, 0.0, 0.0, 0.0, 1.7103880392222023E9, 0.0, 2024-03-13 20:47:19.222
34.0, -283.15530544519424, 259.8015001718886, -17.211019596084952, 90.02126188343391, 0.01600000075995922, -0.19200000911951065, 1.0400000493973494, 0.0, 0.0, 0.0, 0.0, 0.0, 1.7103880392354457E9, 0.0, 2024-03-13 20:47:19.235
34.0, -51.0440245452337, 221.81907622190192, 208.80796427605674, 54.86246239999309, 0.01600000075995922, -0.19200000911951065, 1.0400000493973494, 0.0, 0.0, 0.0, 0.0, 0.0, 1.7103880392354457E9, 0.0, 2024-03-13 20:47:19.235
35.0, -217.10680227773264, 160.06958805350587, 41.223047261592, 45.456614011432976, 0.01600000075995922, -0.19200000911951065, 1.0400000493973494, 0.0, 0.0, 0.0, 0.0, 0.0, 1.7103880392511735E9, 0.0, 2024-03-13 20:47:19.251
35.0, -336.4114808142185, 245.26450904412195, -68.48504798859358, 97.60203909361735, 0.01600000075995922, -0.19200000911951065, 1.0400000493973494, 0.0, 0.0, 0.0, 0.0, 0.0, 1.7103880392511735E9, 0.0, 2024-03-13 20:47:19.251
36.0, -412.2603918155655, 438.9557976992801, -140.66511713340878, 264.2463712692261, 0.01600000075995922, -0.19200000911951065, 1.0400000493973494, 0.0, 0.0, 0.0, 0.0, 0.0, 1.7103880392521145E9, 0.0, 2024-03-13 20:47:19.252
36.0, -231.85696770297363, 542.2948433249258, 28.073559017386287, 417.1353514078073, 0.01600000075995922, -0.19200000911951065, 1.0400000493973494, 0.0, 0.0, 0.0, 0.0, 0.0, 1.7103880392521145E9, 0.0, 2024-03-13 20:47:19.252
37.0, -454.3679254166782, 598.0866708639078, -188.0197303723544, 471.9099261588417, 0.01600000075995922, -0.19200000911951065, 1.0400000493973494, 0.0, 0.0, 0.0, 0.0, 0.0, 1.7103880392655146E9, 0.0, 2024-03-13 20:47:19.265
37.0, -307.3748975582421, 645.0672941072844, -27.046956479549408, 475.8031620127149, 0.01600000075995922, -0.19200000911951065, 1.0400000493973494, 0.0, 0.0, 0.0, 0.0, 0.0, 1.7103880392655146E9, 0.0, 2024-03-13 20:47:19.265
38.0, -178.9560828297399, 579.8770979796536, 101.8094265437685, 429.6640162593685, 0.01600000075995922, -0.19200000911951065, 1.0400000493973494, 0.0, 0.0, 0.0, 0.0, 0.0, 1.7103880392813418E9, 0.0, 2024-03-13 20:47:19.281
38.0, -105.8447785959579, 377.7037162249908, 164.04884160635993, 268.8240088149905, 0.01600000075995922, -0.19200000911951065, 1.0400000493973494, 0.0, 0.0, 0.0, 0.0, 0.0, 1.7103880392813418E9, 0.0, 2024-03-13 20:47:19.281
39.0, -278.43929160106927, 270.000207351055, 6.548564822413027, 111.42844922980294, 0.01600000075995922, -0.19200000911951065, 1.0400000493973494, 0.0, 0.0, 0.0, 0.0, 0.0, 1.710388039281921E9, 0.0, 2024-03-13 20:47:19.281
39.0, -56.80721037695184, 237.76974953291938, 229.63546712929383, 81.46063088485971, 0.01600000075995922, -0.19200000911951065, 1.0400000493973494, 0.0, 0.0, 0.0, 0.0, 0.0, 1.710388039281921E9, 0.0, 2024-03-13 20:47:19.281
40.0, -203.51600583875552, 168.23004975682124, 62.439499710220844, 59.79539044154808, 0.01600000075995922, -0.19200000911951065, 1.0400000493973494, 0.0, 0.0, 0.0, 0.0, 0.0, 1.7103880392957518E9, 0.0, 2024-03-13 20:47:19.295
40.0, -327.4170214207843, 252.6620311564766, -55.290680944919586, 112.10537112178281, 0.01600000075995922, -0.19200000911951065, 1.0400000493973494, 0.0, 0.0, 0.0, 0.0, 0.0, 1.7103880392957518E9, 0.0, 2024-03-13 20:47:19.295
41.0, -406.5907034827396, 451.7612151475623, -127.34359349124134, 282.8411538489163, 0.01600000075995922, -0.19200000911951065, 1.0400000493973494, 0.0, 0.0, 0.0, 0.0, 0.0, 1.7103880393111696E9, 0.0, 2024-03-13 20:47:19.311
41.0, -235.55572875915095, 551.2631234186701, 35.62441702792421, 422.3225926463492, 0.01600000075995922, -0.19200000911951065, 1.0400000493973494, 0.0, 0.0, 0.0, 0.0, 0.0, 1.7103880393111696E9, 0.0, 2024-03-13 20:47:19.311
42.0, -466.5824386719614, 592.6974750277586, -190.83961493894458, 470.1409534798004, 0.01600000075995922, -0.19200000911951065, 1.0400000493973494, 0.0, 0.0, 0.0, 0.0, 0.0, 1.7103880393118272E9, 0.0, 2024-03-13 20:47:19.311
42.0, -300.1045320443809, 640.9683637558483, -31.946225421503186, 471.7640700605698, 0.01600000075995922, -0.19200000911951065, 1.0400000493973494, 0.0, 0.0, 0.0, 0.0, 0.0, 1.7103880393118272E9, 0.0, 2024-03-13 20:47:19.311
43.0, -176.24091546190903, 573.8446393511258, 97.48236229503527, 432.06503203092143, 0.01600000075995922, -0.19200000911951065, 1.0400000493973494, 0.0, 0.0, 0.0, 0.0, 0.0, 1.7103880393258605E9, 0.0, 2024-03-13 20:47:19.325
43.0, -115.4787608818151, 370.0219617160037, 152.14847994735464, 254.7881642812863, 0.01600000075995922, -0.19200000911951065, 1.0400000493973494, 0.0, 0.0, 0.0, 0.0, 0.0, 1.7103880393258605E9, 0.0, 2024-03-13 20:47:19.325
44.0, -292.5013154344633, 261.9182835468091, -10.520338575355709, 101.03526725294068, 0.01600000075995922, -0.19200000911951065, 1.0400000493973494, 0.0, 0.0, 0.0, 0.0, 0.0, 1.7103880393414507E9, 0.0, 2024-03-13 20:47:19.341
44.0, -536.5671865427867, 233.73813738068566, 223.52073070174083, 68.19146584207192, 0.01600000075995922, -0.19200000911951065, 1.0400000493973494, 0.0, 0.0, 0.0, 0.0, 0.0, 1.7103880393414507E9, 0.0, 2024-03-13 20:47:19.341
45.0, -714.1338965389878, 149.19395898235962, 38.05161209916696, 33.69088875083253, 0.01600000075995922, -0.19200000911951065, 1.0400000493973494, 0.0, 0.0, 0.0, 0.0, 0.0, 1.7103880393419516E9, 0.0, 2024-03-13 20:47:19.341
45.0, -820.6518571269698, 238.0577218295075, -74.94385521207005, 93.43953044293448, 0.01600000075995922, -0.19200000911951065, 1.0400000493973494, 0.0, 0.0, 0.0, 0.0, 0.0, 1.7103880393419516E9, 0.0, 2024-03-13 20:47:19.341
46.0, -897.4918416165747, 450.0969596672803, -135.82942649070174, 272.8331815674901, 0.01600000075995922, -0.19200000911951065, 1.0400000493973494, 0.0, 0.0, 0.0, 0.0, 0.0, 1.71038803935583E9, 0.0, 2024-03-13 20:47:19.355
46.0, -721.2097872551531, 549.7634235364385, 31.297352779190987, 417.8496722993441, 0.01600000075995922, -0.19200000911951065, 1.0400000493973494, 0.0, 0.0, 0.0, 0.0, 0.0, 1.71038803935583E9, 0.0, 2024-03-13 20:47:19.355
47.0, -952.8012220612727, 588.351711279247, -195.6154671823606, 458.868895013351, 0.01600000075995922, -0.19200000911951065, 1.0400000493973494, 0.0, 0.0, 0.0, 0.0, 0.0, 1.7103880393711123E9, 0.0, 2024-03-13 20:47:19.371
47.0, -793.0214762543328, 650.2320959460922, -31.299222729168832, 470.19331207918003, 0.01600000075995922, -0.19200000911951065, 1.0400000493973494, 0.0, 0.0, 0.0, 0.0, 0.0, 1.7103880393711123E9, 0.0, 2024-03-13 20:47:19.371
48.0, -663.6228077374399, 576.2718344223686, 96.86901870230213, 428.46724827354774, 0.01600000075995922, -0.19200000911951065, 1.0400000493973494, 0.0, 0.0, 0.0, 0.0, 0.0, 1.7103880393718076E9, 0.0, 2024-03-13 20:47:19.371
48.0, -604.9213380329311, 369.5170752219856, 153.92119252635166, 255.68948017060757, 0.01600000075995922, -0.19200000911951065, 1.0400000493973494, 0.0, 0.0, 0.0, 0.0, 0.0, 1.7103880393718076E9, 0.0, 2024-03-13 20:47:19.371
49.0, -759.7962050479837, 273.0407460150309, -5.871642930433154, 104.96964200632647, 0.01600000075995922, -0.19200000911951065, 1.0400000493973494, 0.0, 0.0, 0.0, 0.0, 0.0, 1.7103880393854284E9, 0.0, 2024-03-13 20:47:19.385
49.0, -543.6355974590406, 246.00500923534855, 225.58141557732597, 76.4603846441023, 0.01600000075995922, -0.19200000911951065, 1.0400000493973494, 0.0, 0.0, 0.0, 0.0, 0.0, 1.7103880393854284E9, 0.0, 2024-03-13 20:47:19.385
50.0, -703.7631539618596, 165.9150516842492, 48.47471327567473, 48.725286572705954, 0.01600000075995922, -0.19200000911951065, 1.0400000493973494, 0.0, 0.0, 0.0, 0.0, 0.0, 1.7103880394011157E9, 0.0, 2024-03-13 20:47:19.401
50.0, -826.5982980565168, 249.7710884907283, -67.63235079869628, 101.52893404709175, 0.01600000075995922, -0.19200000911951065, 1.0400000493973494, 0.0, 0.0, 0.0, 0.0, 0.0, 1.7103880394011157E9, 0.0, 2024-03-13 20:47:19.401
51.0, -897.3123264187016, 448.74311588332057, -136.3604922844097, 269.601908005774, 0.01600000075995922, -0.19200000911951065, 1.0400000493973494, 0.0, 0.0, 0.0, 0.0, 0.0, 1.710388039401853E9, 0.0, 2024-03-13 20:47:19.401
51.0, -728.4801527690142, 532.2906109434552, 21.857845291029662, 407.2021771254949, 0.01600000075995922, -0.19200000911951065, 1.0400000493973494, 0.0, 0.0, 0.0, 0.0, 0.0, 1.710388039401853E9, 0.0, 2024-03-13 20:47:19.401
52.0, -955.2471166322939, 577.1432311120443, -204.8044013734907, 452.94863338349387, 0.01600000075995922, -0.19200000911951065, 1.0400000493973494, 0.0, 0.0, 0.0, 0.0, 0.0, 1.7103880394154594E9, 0.0, 2024-03-13 20:47:19.415
52.0, -804.9255778132938, 642.0304953432642, -35.89181987475604, 465.59697503363714, 0.01600000075995922, -0.19200000911951065, 1.0400000493973494, 0.0, 0.0, 0.0, 0.0, 0.0, 1.7103880394154594E9, 0.0, 2024-03-13 20:47:19.415
53.0, -659.351841988042, 574.7758744400926, 95.29452082095668, 427.98106127930805, 0.01600000075995922, -0.19200000911951065, 1.0400000493973494, 0.0, 0.0, 0.0, 0.0, 0.0, 1.7103880394311311E9, 0.0, 2024-03-13 20:47:19.431
53.0, -610.157197970897, 355.15211949218065, 144.750957835, 244.90734859835356, 0.01600000075995922, -0.19200000911951065, 1.0400000493973494, 0.0, 0.0, 0.0, 0.0, 0.0, 1.7103880394311311E9, 0.0, 2024-03-13 20:47:19.431
54.0, -780.2123189060949, 254.31132703693584, -12.536144651472569, 96.76056160358712, 0.01600000075995922, -0.19200000911951065, 1.0400000493973494, 0.0, 0.0, 0.0, 0.0, 0.0, 1.710388039431975E9, 0.0, 2024-03-13 20:47:19.431
54.0, -541.4926347844303, 233.39780648471788, 221.99859141977504, 69.51539042638615, 0.01600000075995922, -0.19200000911951065, 1.0400000493973494, 0.0, 0.0, 0.0, 0.0, 0.0, 1.710388039431975E9, 0.0, 2024-03-13 20:47:19.431
55.0, -702.9964744709432, 151.03024986060336, 48.11942277988419, 38.223647497128695, 0.01600000075995922, -0.19200000911951065, 1.0400000493973494, 0.0, 0.0, 0.0, 0.0, 0.0, 1.7103880394454904E9, 0.0, 2024-03-13 20:47:19.445
55.0, -837.2831922299229, 230.8322351151146, -73.27959973178804, 89.23214299278334, 0.01600000075995922, -0.19200000911951065, 1.0400000493973494, 0.0, 0.0, 0.0, 0.0, 0.0, 1.7103880394454904E9, 0.0, 2024-03-13 20:47:19.445
56.0, -903.6851159431972, 445.0331351272762, -142.44904941227287, 265.00183106027544, 0.01600000075995922, -0.19200000911951065, 1.0400000493973494, 0.0, 0.0, 0.0, 0.0, 0.0, 1.7103880394615324E9, 0.0, 2024-03-13 20:47:19.461
56.0, -737.4521727627143, 526.9051550072618, 21.90272409049794, 402.29542838362977, 0.01600000075995922, -0.19200000911951065, 1.0400000493973494, 0.0, 0.0, 0.0, 0.0, 0.0, 1.7103880394615324E9, 0.0, 2024-03-13 20:47:19.461
57.0, -967.4130111881532, 564.3452934636734, -209.33716011978686, 444.05889118881896, 0.01600000075995922, -0.19200000911951065, 1.0400000493973494, 0.0, 0.0, 0.0, 0.0, 0.0, 1.710388039461969E9, 0.0, 2024-03-13 20:47:19.461
57.0, -806.8142272909172, 634.0682483376004, -41.77468250505626, 462.67237326828763, 0.01600000075995922, -0.19200000911951065, 1.0400000493973494, 0.0, 0.0, 0.0, 0.0, 0.0, 1.710388039461969E9, 0.0, 2024-03-13 20:47:19.461
58.0, -665.7994295116514, 564.4500106624328, 86.63291252357885, 415.04848723253235, 0.01600000075995922, -0.19200000911951065, 1.0400000493973494, 0.0, 0.0, 0.0, 0.0, 0.0, 1.7103880394757159E9, 0.0, 2024-03-13 20:47:19.475
58.0, -614.4281637202948, 347.9528120774776, 140.36779508693144, 236.84038439393044, 0.01600000075995922, -0.19200000911951065, 1.0400000493973494, 0.0, 0.0, 0.0, 0.0, 0.0, 1.7103880394757159E9, 0.0, 2024-03-13 20:47:19.475
59.0, -782.1234077834524, 259.75662137242034, -14.447233528830111, 95.88916491391137, 0.01600000075995922, -0.19200000911951065, 1.0400000493973494, 0.0, 0.0, 0.0, 0.0, 0.0, 1.7103880394913735E9, 0.0, 2024-03-13 20:47:19.491
59.0, -1024.9588518063538, 243.97424355940893, 228.13576724706218, 74.86344736302271, 0.01600000075995922, -0.19200000911951065, 1.0400000493973494, 0.0, 0.0, 0.0, 0.0, 0.0, 1.7103880394913735E9, 0.0, 2024-03-13 20:47:19.491
60.0, -1201.5008292146958, 143.6402075481601, 38.676175391767174, 33.59739125194028, 0.01600000075995922, -0.19200000911951065, 1.0400000493973494, 0.0, 0.0, 0.0, 0.0, 0.0, 1.7103880394919708E9, 0.0, 2024-03-13 20:47:19.491
60.0, -1319.8443534625694, 238.5813078233041, -71.08053855784237, 99.35231227288023, 0.01600000075995922, -0.19200000911951065, 1.0400000493973494, 0.0, 0.0, 0.0, 0.0, 0.0, 1.7103880394919708E9, 0.0, 2024-03-13 20:47:19.491
61.0, -1380.2624372467399, 461.6644702302292, -126.89854539651424, 285.8854324128479, 0.01600000075995922, -0.19200000911951065, 1.0400000493973494, 0.0, 0.0, 0.0, 0.0, 0.0, 1.7103880395056975E9, 0.0, 2024-03-13 20:47:19.505
61.0, -1213.3750115740113, 543.0951819154434, 31.828418572898954, 410.66906438441947, 0.01600000075995922, -0.19200000911951065, 1.0400000493973494, 0.0, 0.0, 0.0, 0.0, 0.0, 1.7103880395056975E9, 0.0, 2024-03-13 20:47:19.505
62.0, -1441.5855768201873, 583.5908186356537, -199.80789503268898, 459.43735980661586, 0.01600000075995922, -0.19200000911951065, 1.0400000493973494, 0.0, 0.0, 0.0, 0.0, 0.0, 1.7103880395211613E9, 0.0, 2024-03-13 20:47:19.521
62.0, -1285.1941803731024, 658.7141890455969, -25.517337397672236, 488.1074328669347, 0.01600000075995922, -0.19200000911951065, 1.0400000493973494, 0.0, 0.0, 0.0, 0.0, 0.0, 1.7103880395211613E9, 0.0, 2024-03-13 20:47:19.521
63.0, -1132.065846637357, 589.159529669676, 108.63100406294689, 441.2614460219629, 0.01600000075995922, -0.19200000911951065, 1.0400000493973494, 0.0, 0.0, 0.0, 0.0, 0.0, 1.710388039522074E9, 0.0, 2024-03-13 20:47:19.522
63.0, -1087.1309486697428, 364.0904803862795, 149.20891858218238, 255.99989186692983, 0.01600000075995922, -0.19200000911951065, 1.0400000493973494, 0.0, 0.0, 0.0, 0.0, 0.0, 1.710388039522074E9, 0.0, 2024-03-13 20:47:19.522
64.0, -1258.1509637935087, 269.9291492518969, -0.7218006914481521, 107.27342037903145, 0.01600000075995922, -0.19200000911951065, 1.0400000493973494, 0.0, 0.0, 0.0, 0.0, 0.0, 1.7103880395354428E9, 0.0, 2024-03-13 20:47:19.535
64.0, -1502.9124562935904, 250.98281607637182, 232.02900310093537, 88.0615543066524, 0.01600000075995922, -0.19200000911951065, 1.0400000493973494, 0.0, 0.0, 0.0, 0.0, 0.0, 1.7103880395354428E9, 0.0, 2024-03-13 20:47:19.535
65.0, -1689.2978503853083, 148.89850688586012, 41.13328966265544, 33.96390144759789, 0.01600000075995922, -0.19200000911951065, 1.0400000493973494, 0.0, 0.0, 0.0, 0.0, 0.0, 1.7103880395513768E9, 0.0, 2024-03-13 20:47:19.551
