%OpenBCI Raw EXG Data
%Number of channels = 4
%Sample Rate = 200 Hz
%Board = OpenBCI_GUI$BoardGanglionBLE
Sample Index, EXG Channel 0, EXG Channel 1, EXG Channel 2, EXG Channel 3, Accel Channel 0, Accel Channel 1, Accel Channel 2, Other, Other, Other, Other, Other, Timestamp, Other, Timestamp (Formatted)
2.0, -151.85863770078868, 99.56174667039886, -136.9887954769656, 80.74257009336725, 0.01600000075995922, 0.0, 0.0, 0.0, 0.0, 0.0, 0.0, 0.0, 1.7103876808271632E9, 0.0, 2024-03-13 20:41:20.827
2.0, -121.44203136116266, -131.5846400409937, -128.43938417825848, -102.68269318342209, 0.01600000075995922, 0.0, 0.0, 0.0, 0.0, 0.0, 0.0, 0.0, 1.7103876808271632E9, 0.0, 2024-03-13 20:41:20.827
3.0, -25.77165059465915, -184.21999201737344, -12.782978048548102, -201.14677921682596, 0.01600000075995922, 0.0, 0.0, 0.0, 0.0, 0.0, 0.0, 0.0, 1.7103876808417242E9, 0.0, 2024-03-13 20:41:20.841
3.0, 90.55606757709756, -236.72444749530405, 106.83959198417142, -210.18611740972847, 0.01600000075995922, 0.0, 0.0, 0.0, 0.0, 0.0, 0.0, 0.0, 1.7103876808417242E9, 0.0, 2024-03-13 20:41:20.841
4.0, 238.10634052893147, -334.90617108205333, 228.40504004387185, -281.0104728206061, 0.01600000075995922, 0.0, 0.0, 0.0, 0.0, 0.0, 0.0, 0.0, 1.7103876808422377E9, 0.0, 2024-03-13 20:41:20.842
4.0, 22.54785683285445, -531.1630311068147, 28.782270058989525, -49.073097268585116, 0.01600000075995922, 0.0, 0.0, 0.0, 0.0, 0.0, 0.0, 0.0, 1.7103876808422377E9, 0.0, 2024-03-13 20:41:20.842
5.0, 192.329965071287, -615.0489871129394, 201.27954566525295, -125.77844535978511, 0.01600000075995922, 0.0, 0.0, 0.0, 0.0, 0.0, 0.0, 0.0, 1.710387680855961E9, 0.0, 2024-03-13 20:41:20.855
5.0, 105.37729110149667, -572.7881176136434, 88.27846850408241, -29.65179679868743, 0.01600000075995922, 0.0, 0.0, 0.0, 0.0, 0.0, 0.0, 0.0, 1.710387680855961E9, 0.0, 2024-03-13 20:41:20.855
6.0, -2.1616621743887663, -508.7946894718334, -7.105809915810823, -5.548141584265977, 0.01600000075995922, 0.0, 0.0, 0.0, 0.0, 0.0, 0.0, 0.0, 1.710387680871542E9, 0.0, 2024-03-13 20:41:20.871
6.0, -150.05226602219045, -404.48326985770836, -146.7349747614935, 69.57709877565503, 0.01600000075995922, 0.0, 0.0, 0.0, 0.0, 0.0, 0.0, 0.0, 1.710387680871542E9, 0.0, 2024-03-13 20:41:20.871
7.0, 65.38654087530449, -217.5798996221274, 53.60585601488128, 311.0979679641314, 0.01600000075995922, 0.0, 0.0, 0.0, 0.0, 0.0, 0.0, 0.0, 1.7103876808727422E9, 0.0, 2024-03-13 20:41:20.872
7.0, -94.27539808303118, -119.40752578526735, -113.86499405093491, 402.86389317689463, 0.01600000075995922, 0.0, 0.0, 0.0, 0.0, 0.0, 0.0, 0.0, 1.7103876808727422E9, 0.0, 2024-03-13 20:41:20.872
8.0, -18.58356287982315, -178.16509398911148, -13.302824142389, 289.95631351461634, 0.01600000075995922, 0.0, 0.0, 0.0, 0.0, 0.0, 0.0, 0.0, 1.7103876808858988E9, 0.0, 2024-03-13 20:41:20.885
8.0, 111.82113872515038, -219.35261220112443, 110.366317642387, 287.7011538413353, 0.01600000075995922, 0.0, 0.0, 0.0, 0.0, 0.0, 0.0, 0.0, 1.7103876808858988E9, 0.0, 2024-03-13 20:41:20.885
9.0, 248.1741512096487, -323.86224651290104, 231.9093263023533, 214.10927246324718, 0.01600000075995922, 0.0, 0.0, 0.0, 0.0, 0.0, 0.0, 0.0, 1.7103876809015703E9, 0.0, 2024-03-13 20:41:20.901
9.0, 43.32674098666757, -517.7255705660209, 34.26122349407524, 452.79342753533274, 0.01600000075995922, 0.0, 0.0, 0.0, 0.0, 0.0, 0.0, 0.0, 1.7103876809015703E9, 0.0, 2024-03-13 20:41:20.901
10.0, 206.56776420259848, -598.0100029148161, 210.0795302609913, 380.7330351890996, 0.01600000075995922, 0.0, 1.0400000493973494, 0.0, 0.0, 0.0, 0.0, 0.0, 1.7103876809022815E9, 0.0, 2024-03-13 20:41:20.902
10.0, 121.31300481269136, -547.6447702115402, 105.63160429848358, 479.010126224719, 0.01600000075995922, 0.0, 1.0400000493973494, 0.0, 0.0, 0.0, 0.0, 0.0, 1.7103876809022815E9, 0.0, 2024-03-13 20:41:20.902
11.0, 13.007372045889497, -495.0580369345844, 0.8900961894541979, 495.77609772607684, 0.01600000075995922, -0.19200000911951065, 1.0400000493973494, 0.0, 0.0, 0.0, 0.0, 0.0, 1.7103876809159184E9, 0.0, 2024-03-13 20:41:20.915
11.0, -130.37665235530585, -388.58869504602626, -127.08554039429873, 575.8791449270211, 0.01600000075995922, -0.19200000911951065, 1.0400000493973494, 0.0, 0.0, 0.0, 0.0, 0.0, 1.7103876809159184E9, 0.0, 2024-03-13 20:41:20.915
12.0, 62.92942660441622, -213.9559365650639, 55.554343891795725, 804.1607682723552, 0.01600000075995922, -0.19200000911951065, 1.0400000493973494, 0.0, 0.0, 0.0, 0.0, 0.0, 1.7103876809315765E9, 0.0, 2024-03-13 20:41:20.931
12.0, -93.89018838759512, -112.77668316382915, -108.58051541354507, 898.4960047546774, 0.01600000075995922, -0.19200000911951065, 1.0400000493973494, 0.0, 0.0, 0.0, 0.0, 0.0, 1.7103876809315765E9, 0.0, 2024-03-13 20:41:20.931
13.0, -34.48935739137232, -182.07328944280744, -12.700700249522924, 784.5150738051161, 0.01600000075995922, -0.19200000911951065, 1.0400000493973494, 0.0, 0.0, 0.0, 0.0, 0.0, 1.710387680932325E9, 0.0, 2024-03-13 20:41:20.932
13.0, 81.56160818366334, -229.7719734776765, 110.23542114393786, 774.6005990225822, 0.01600000075995922, -0.19200000911951065, 1.0400000493973494, 0.0, 0.0, 0.0, 0.0, 0.0, 1.710387680932325E9, 0.0, 2024-03-13 20:41:20.932
14.0, 233.58854138245806, -333.8515192945488, 223.70024589961395, 701.334088940639, 0.01600000075995922, -0.19200000911951065, 1.0400000493973494, 0.0, 0.0, 0.0, 0.0, 0.0, 1.7103876809462664E9, 0.0, 2024-03-13 20:41:20.946
14.0, 25.143347402103245, -524.2030772892758, 35.80954207573086, 941.5029842951335, 0.01600000075995922, -0.19200000911951065, 1.0400000493973494, 0.0, 0.0, 0.0, 0.0, 0.0, 1.7103876809462664E9, 0.0, 2024-03-13 20:41:20.946
15.0, 192.87225056486204, -596.6038005314767, 218.1240550656803, 869.5809682472609, 0.01600000075995922, -0.19200000911951065, 1.0400000493973494, 0.0, 0.0, 0.0, 0.0, 0.0, 1.710387680961786E9, 0.0, 2024-03-13 20:41:20.961
15.0, 112.00813372293487, -554.3915497316048, 103.79157352028415, 962.4688634467311, 0.01600000075995922, -0.19200000911951065, 1.0400000493973494, 0.0, 0.0, 0.0, 0.0, 0.0, 1.710387680961786E9, 0.0, 2024-03-13 20:41:20.961
16.0, -6.8215775191783905, -505.1969057144597, -8.42599460016936, 976.1082785851322, 0.01600000075995922, -0.19200000911951065, 1.0400000493973494, 0.0, 0.0, 0.0, 0.0, 0.0, 1.7103876809623957E9, 0.0, 2024-03-13 20:41:20.962
16.0, -154.46908786986023, -392.70258499728516, -134.1801306102425, 1060.2279783384874, 0.01600000075995922, -0.19200000911951065, 1.0400000493973494, 0.0, 0.0, 0.0, 0.0, 0.0, 1.7103876809623957E9, 0.0, 2024-03-13 20:41:20.962
17.0, 53.923747511114925, -214.60667915735394, 63.31463629985228, 1298.670909863431, 0.01600000075995922, -0.19200000911951065, 1.0400000493973494, 0.0, 0.0, 0.0, 0.0, 0.0, 1.7103876809763474E9, 0.0, 2024-03-13 20:41:20.976
17.0, -77.54308568127453, -120.0956673771143, -116.55398211907595, 1384.266000149306, 0.01600000075995922, -0.19200000911951065, 1.0400000493973494, 0.0, 0.0, 0.0, 0.0, 0.0, 1.7103876809763474E9, 0.0, 2024-03-13 20:41:20.976
18.0, -6.7019007205963135, -174.37283543404192, -12.008818757720292, 1284.923037626315, 0.01600000075995922, -0.19200000911951065, 1.0400000493973494, 0.0, 0.0, 0.0, 0.0, 0.0, 1.7103876809919589E9, 0.0, 2024-03-13 20:41:20.991
18.0, 84.32165435096249, -230.9201227640733, 101.60747194616124, 1258.8970738346688, 0.01600000075995922, -0.19200000911951065, 1.0400000493973494, 0.0, 0.0, 0.0, 0.0, 0.0, 1.7103876809919589E9, 0.0, 2024-03-13 20:41:20.991
19.0, 236.49444364802912, -332.811827106867, 224.66514008818194, 1187.941821925342, 0.01600000075995922, -0.19200000911951065, 1.0400000493973494, 0.0, 0.0, 0.0, 0.0, 0.0, 1.710387680992607E9, 0.0, 2024-03-13 20:41:20.992
19.0, 40.428318521007895, -519.7712958417833, 36.34808766935021, 943.559929270763, 0.01600000075995922, -0.19200000911951065, 1.0400000493973494, 0.0, 0.0, 0.0, 0.0, 0.0, 1.710387680992607E9, 0.0, 2024-03-13 20:41:20.992
20.0, 203.13079614331946, -595.5865477435291, 221.59468222456053, 875.815381473396, 0.01600000075995922, -0.19200000911951065, 1.0400000493973494, 0.0, 0.0, 0.0, 0.0, 0.0, 1.7103876810059433E9, 0.0, 2024-03-13 20:41:21.005
20.0, 108.14107716875151, -559.2870787736028, 103.6980760213919, 967.8655390827917, 0.01600000075995922, -0.19200000911951065, 1.0400000493973494, 0.0, 0.0, 0.0, 0.0, 0.0, 1.7103876810059433E9, 0.0, 2024-03-13 20:41:21.005
21.0, -8.160461703315377, -499.25794458482414, 6.986133117228746, 992.2048079944216, 0.01600000075995922, -0.19200000911951065, 1.0400000493973494, 0.0, 0.0, 0.0, 0.0, 0.0, 1.7103876810215397E9, 0.0, 2024-03-13 20:41:21.021
21.0, -155.4040628587827, -388.70463194465265, -125.77657540980726, 1067.337528154254, 0.01600000075995922, -0.19200000911951065, 1.0400000493973494, 0.0, 0.0, 0.0, 0.0, 0.0, 1.7103876810215397E9, 0.0, 2024-03-13 20:41:21.021
22.0, 65.28182367654517, -211.07247369922698, 73.9060329743661, 1306.1694092745893, 0.01600000075995922, -0.19200000911951065, 1.0400000493973494, 0.0, 0.0, 0.0, 0.0, 0.0, 1.7103876810222623E9, 0.0, 2024-03-13 20:41:21.022
22.0, -109.08166200760752, -123.86922643240541, -112.70562506467104, 1384.434295647312, 0.01600000075995922, -0.19200000911951065, 1.0400000493973494, 0.0, 0.0, 0.0, 0.0, 0.0, 1.7103876810222623E9, 0.0, 2024-03-13 20:41:21.022
23.0, -14.828703324310482, -164.2227469542995, 2.6665486684069037, 1289.807346968446, 0.01600000075995922, -0.19200000911951065, 1.0400000493973494, 0.0, 0.0, 0.0, 0.0, 0.0, 1.7103876810359151E9, 0.0, 2024-03-13 20:41:21.035
23.0, 103.63075782218948, -221.02434748131782, 117.35619065957144, 1267.7307175300084, 0.01600000075995922, -0.19200000911951065, 1.0400000493973494, 0.0, 0.0, 0.0, 0.0, 0.0, 1.7103876810359151E9, 0.0, 2024-03-13 20:41:21.035
24.0, 249.5055555938743, -334.09087289171293, 223.32625590404496, 1187.0891247354448, 0.01600000075995922, -0.19200000911951065, 1.0400000493973494, 0.0, 0.0, 0.0, 0.0, 0.0, 1.7103876810515208E9, 0.0, 2024-03-13 20:41:21.051
24.0, 35.06156208459288, -515.4778906926513, 41.48671020846814, 947.4082863251679, 0.01600000075995922, -0.19200000911951065, 1.0400000493973494, 0.0, 0.0, 0.0, 0.0, 0.0, 1.7103876810515208E9, 0.0, 2024-03-13 20:41:21.051
25.0, 188.0328200221993, -590.533942903392, 227.46632515499368, 878.9793368359096, 0.01600000075995922, -0.19200000911951065, 1.0400000493973494, 0.0, 0.0, 0.0, 0.0, 0.0, 1.7103876810522356E9, 0.0, 2024-03-13 20:41:21.052
25.0, 122.05724490387365, -551.4744277661666, 106.3646246897988, 966.8856852944009, 0.01600000075995922, -0.19200000911951065, 1.0400000493973494, 0.0, 0.0, 0.0, 0.0, 0.0, 1.7103876810522356E9, 0.0, 2024-03-13 20:41:21.052
26.0, 8.900961894541979, -488.8161439085379, -0.7330203913152218, 990.4657545150258, 0.01600000075995922, -0.19200000911951065, 1.0400000493973494, 0.0, 0.0, 0.0, 0.0, 0.0, 1.7103876810659263E9, 0.0, 2024-03-13 20:41:21.065
26.0, -140.86333183106035, -380.70124603947625, -128.93679087236524, 1070.1536728208885, 0.01600000075995922, -0.19200000911951065, 1.0400000493973494, 0.0, 0.0, 0.0, 0.0, 0.0, 1.7103876810659263E9, 0.0, 2024-03-13 20:41:21.065
27.0, 67.82121574645862, -207.5794071406126, 65.76427077082917, 1302.2948729204945, 0.01600000075995922, -0.19200000911951065, 1.0400000493973494, 0.0, 0.0, 0.0, 0.0, 0.0, 1.7103876810815043E9, 0.0, 2024-03-13 20:41:21.081
27.0, -93.92384748719633, -110.81697558704764, -114.17914564721286, 1385.578705033753, 0.01600000075995922, -0.19200000911951065, 1.0400000493973494, 0.0, 0.0, 0.0, 0.0, 0.0, 1.7103876810815043E9, 0.0, 2024-03-13 20:41:21.081
28.0, -11.129942268133163, -160.01909940410405, -3.137776062823832, 1286.0824066125788, 0.01600000075995922, -0.19200000911951065, 1.0400000493973494, 0.0, 0.0, 0.0, 0.0, 0.0, 1.7103876810822997E9, 0.0, 2024-03-13 20:41:21.082
28.0, 100.97542885364965, -207.93095773644745, 117.1467562620528, 1276.9720103205182, 0.01600000075995922, -0.19200000911951065, 1.0400000493973494, 0.0, 0.0, 0.0, 0.0, 0.0, 1.7103876810822997E9, 0.0, 2024-03-13 20:41:21.082
29.0, 257.4004844003357, -317.1379063925706, 233.54740248294547, 1193.888262854889, 0.01600000075995922, -0.19200000911951065, 1.0400000493973494, 0.0, 0.0, 0.0, 0.0, 0.0, 1.7103876810959456E9, 0.0, 2024-03-13 20:41:21.095
29.0, 55.743208839558065, -505.2455244138837, 40.31238162238151, 948.9079862073995, 0.01600000075995922, -0.19200000911951065, 1.0400000493973494, 0.0, 0.0, 0.0, 0.0, 0.0, 1.7103876810959456E9, 0.0, 2024-03-13 20:41:21.095
30.0, 197.1843552137725, -591.5063168918714, 218.21007276466116, 872.8309413087554, 0.01600000075995922, -0.19200000911951065, 1.0400000493973494, 0.0, 0.0, 0.0, 0.0, 0.0, 1.7103876811118765E9, 0.0, 2024-03-13 20:41:21.111
30.0, 111.60422452772036, -563.6552819218487, 101.46161584788933, 959.3049080842175, 0.01600000075995922, -0.19200000911951065, 1.0400000493973494, 0.0, 0.0, 0.0, 0.0, 0.0, 1.7103876811118765E9, 0.0, 2024-03-13 20:41:21.111
31.0, 7.737853008322418, -494.95331973582506, 2.1878414740785956, 985.3794905752875, 0.01600000075995922, -0.19200000911951065, 1.0400000493973494, 0.0, 0.0, 0.0, 0.0, 0.0, 1.7103876811124024E9, 0.0, 2024-03-13 20:41:21.112
31.0, -143.08109250478446, -386.2437777738087, -129.34817986749113, 1066.1856389679015, 0.01600000075995922, -0.19200000911951065, 1.0400000493973494, 0.0, 0.0, 0.0, 0.0, 0.0, 1.7103876811124024E9, 0.0, 2024-03-13 20:41:21.112
32.0, 58.14609456108883, -217.04883382841945, 55.03075789799914, 1286.0150884133764, 0.01600000075995922, -0.19200000911951065, 1.0400000493973494, 0.0, 0.0, 0.0, 0.0, 0.0, 1.7103876811259284E9, 0.0, 2024-03-13 20:41:21.125
32.0, -108.65157351270318, -123.29328183922917, -117.54879550728947, 1381.0122871878557, 0.01600000075995922, -0.19200000911951065, 1.0400000493973494, 0.0, 0.0, 0.0, 0.0, 0.0, 1.7103876811259284E9, 0.0, 2024-03-13 20:41:21.125
33.0, -29.43301265127957, -167.98508630972356, -11.313197365961969, 1283.1690245470963, 0.01600000075995922, -0.19200000911951065, 1.0400000493973494, 0.0, 0.0, 0.0, 0.0, 0.0, 1.7103876811418867E9, 0.0, 2024-03-13 20:41:21.141
33.0, 95.17858392233029, -225.82637902442366, 101.95154274208471, 1261.451425504405, 0.01600000075995922, -0.19200000911951065, 1.0400000493973494, 0.0, 0.0, 0.0, 0.0, 0.0, 1.7103876811418867E9, 0.0, 2024-03-13 20:41:21.141
34.0, 247.60568641638383, -335.44845657562837, 222.54835671326146, 1184.1046845708042, 0.01600000075995922, -0.19200000911951065, 1.0400000493973494, 0.0, 0.0, 0.0, 0.0, 0.0, 1.710387681142496E9, 0.0, 2024-03-13 20:41:21.142
34.0, 46.82354744523764, -520.2649626359344, 33.255190405994654, 944.9773513539694, 0.01600000075995922, -0.19200000911951065, 1.0400000493973494, 0.0, 0.0, 0.0, 0.0, 0.0, 1.710387681142496E9, 0.0, 2024-03-13 20:41:21.142
35.0, 204.69407432479784, -585.2569440659136, 225.39816047949716, 881.7506027030759, 0.01600000075995922, -0.19200000911951065, 1.0400000493973494, 0.0, 0.0, 0.0, 0.0, 0.0, 1.7103876811559122E9, 0.0, 2024-03-13 20:41:21.155
35.0, 97.9535896894522, -558.0903107877821, 102.61350503424183, 959.9219915769063, 0.01600000075995922, -0.19200000911951065, 1.0400000493973494, 0.0, 0.0, 0.0, 0.0, 0.0, 1.7103876811559122E9, 0.0, 2024-03-13 20:41:21.155
36.0, 0.2505732970312238, -485.6110496465117, -4.360723348334432, 990.4694944149815, 0.01600000075995922, -0.19200000911951065, 1.0400000493973494, 0.0, 0.0, 0.0, 0.0, 0.0, 1.7103876811715944E9, 0.0, 2024-03-13 20:41:21.171
36.0, -161.69457458425313, -381.07149613508955, -138.3613387607038, 1066.118320768699, 0.01600000075995922, -0.19200000911951065, 1.0400000493973494, 0.0, 0.0, 0.0, 0.0, 0.0, 1.7103876811715944E9, 0.0, 2024-03-13 20:41:21.171
37.0, 49.00203916942701, -205.9525506598875, 58.93895335169509, 1297.0515331826173, 0.01600000075995922, -0.19200000911951065, 1.0400000493973494, 0.0, 0.0, 0.0, 0.0, 0.0, 1.7103876811722896E9, 0.0, 2024-03-13 20:41:21.172
37.0, -98.11253543756902, -115.39835303276777, -118.03498250152916, 1381.2703402847983, 0.01600000075995922, -0.19200000911951065, 1.0400000493973494, 0.0, 0.0, 0.0, 0.0, 0.0, 1.7103876811722896E9, 0.0, 2024-03-13 20:41:21.172
38.0, -12.46508655231446, -160.37812979985029, -11.118722568266094, 1284.1937571349554, 0.01600000075995922, -0.19200000911951065, 1.0400000493973494, 0.0, 0.0, 0.0, 0.0, 0.0, 1.7103876811859035E9, 0.0, 2024-03-13 20:41:21.185
38.0, 95.04394752392545, -227.30363950692117, 103.6232780222781, 1255.314249677118, 0.01600000075995922, -0.19200000911951065, 1.0400000493973494, 0.0, 0.0, 0.0, 0.0, 0.0, 1.7103876811859035E9, 0.0, 2024-03-13 20:41:21.185
39.0, 231.63257370563224, -348.8971368162893, 209.16699467180297, 1166.4336572801694, 0.01600000075995922, -0.19200000911951065, 1.0400000493973494, 0.0, 0.0, 0.0, 0.0, 0.0, 1.710387681201664E9, 0.0, 2024-03-13 20:41:21.201
39.0, 28.19136586599052, -523.6533119957894, 27.544363173656166, 933.6604140880518, 0.01600000075995922, -0.19200000911951065, 1.0400000493973494, 0.0, 0.0, 0.0, 0.0, 0.0, 1.710387681201664E9, 0.0, 2024-03-13 20:41:21.201
40.0, 193.4781143576838, -592.2206377834082, 223.09438210679218, 872.8945196080022, 0.01600000075995922, -0.19200000911951065, 1.0400000493973494, 0.0, 0.0, 0.0, 0.0, 0.0, 1.7103876812024195E9, 0.0, 2024-03-13 20:41:21.202
40.0, 99.15409757522866, -567.4924192763865, 96.01632151240483, 950.7704563853331, 0.01600000075995922, -0.19200000911951065, 1.0400000493973494, 0.0, 0.0, 0.0, 0.0, 0.0, 1.7103876812024195E9, 0.0, 2024-03-13 20:41:21.202
41.0, 0.3814697954803705, -507.37352748867124, -9.196413991041481, 971.9233305347152, 0.01600000075995922, -0.19200000911951065, 1.0400000493973494, 0.0, 0.0, 0.0, 0.0, 0.0, 1.7103876812158728E9, 0.0, 2024-03-13 20:41:21.215
41.0, -148.15613674465567, -393.4318654886447, -134.0267947120592, 1057.4305331716314, 0.01600000075995922, -0.19200000911951065, 1.0400000493973494, 0.0, 0.0, 0.0, 0.0, 0.0, 1.7103876812158728E9, 0.0, 2024-03-13 20:41:21.215
42.0, 47.99600608134642, -233.0780450385064, 58.46772595727816, 1280.9437840734608, 0.01600000075995922, -0.19200000911951065, 1.0400000493973494, 0.0, 0.0, 0.0, 0.0, 0.0, 1.7103876812315497E9, 0.0, 2024-03-13 20:41:21.231
42.0, -113.9061329504475, -136.16975738666952, -123.0576681420207, 1371.3259463026188, 0.01600000075995922, -0.19200000911951065, 1.0400000493973494, 0.0, 0.0, 0.0, 0.0, 0.0, 1.7103876812315497E9, 0.0, 2024-03-13 20:41:21.231
43.0, -26.886140781454742, -176.28766421135515, -3.8820161540061235, 1280.001329284627, 0.01600000075995922, -0.19200000911951065, 1.0400000493973494, 0.0, 0.0, 0.0, 0.0, 0.0, 1.7103876812322633E9, 0.0, 2024-03-13 20:41:21.232
43.0, 77.26072323461995, -230.59849136788398, 112.38960351841524, 1260.5875086146407, 0.01600000075995922, -0.19200000911951065, 1.0400000493973494, 0.0, 0.0, 0.0, 0.0, 0.0, 1.7103876812322633E9, 0.0, 2024-03-13 20:41:21.232
44.0, 216.99834517901763, -342.0643395972438, 224.21635209349915, 1176.9539958555251, 0.01600000075995922, -0.19200000911951065, 1.0400000493973494, 0.0, 0.0, 0.0, 0.0, 0.0, 1.7103876812462387E9, 0.0, 2024-03-13 20:41:21.246
44.0, 19.70927276648581, -525.6317190723494, 36.07881487254053, 935.5303640658967, 0.01600000075995922, -0.19200000911951065, 1.0400000493973494, 0.0, 0.0, 0.0, 0.0, 0.0, 1.7103876812462387E9, 0.0, 2024-03-13 20:41:21.246
45.0, 201.39922246383503, -598.1371595133096, 228.45365874329582, 871.0918878293596, 0.01600000075995922, -0.19200000911951065, 1.0400000493973494, 0.0, 0.0, 0.0, 0.0, 0.0, 1.7103876812617328E9, 0.0, 2024-03-13 20:41:21.261
45.0, 102.01138114137575, -573.2406455082819, 116.25292017264292, 953.7922955495305, 0.01600000075995922, -0.19200000911951065, 1.0400000493973494, 0.0, 0.0, 0.0, 0.0, 0.0, 1.7103876812617328E9, 0.0, 2024-03-13 20:41:21.261
46.0, -19.552196968346834, -511.44253864046186, -1.0696113873273134, 969.4063778645359, 0.01600000075995922, -0.19200000911951065, 1.0400000493973494, 0.0, 0.0, 0.0, 0.0, 0.0, 1.710387681262324E9, 0.0, 2024-03-13 20:41:21.262
46.0, -157.0720582390204, -388.04266965249553, -130.45519025437534, 1058.1261545633897, 0.01600000075995922, -0.19200000911951065, 1.0400000493973494, 0.0, 0.0, 0.0, 0.0, 0.0, 1.710387681262324E9, 0.0, 2024-03-13 20:41:21.262
47.0, 58.55374365625903, -213.95967646501958, 73.88733347458765, 1297.6985358749516, 0.01600000075995922, -0.19200000911951065, 1.0400000493973494, 0.0, 0.0, 0.0, 0.0, 0.0, 1.7103876812762551E9, 0.0, 2024-03-13 20:41:21.276
47.0, -99.7506116181612, -121.4644707608968, -97.66748734284192, 1387.8899632063694, 0.01600000075995922, -0.19200000911951065, 1.0400000493973494, 0.0, 0.0, 0.0, 0.0, 0.0, 1.7103876812762551E9, 0.0, 2024-03-13 20:41:21.276
48.0, -5.710827232338488, -159.54039220977575, 3.380869559943676, 1287.9186974908225, 0.01600000075995922, -0.19200000911951065, 1.0400000493973494, 0.0, 0.0, 0.0, 0.0, 0.0, 1.7103876812919405E9, 0.0, 2024-03-13 20:41:21.291
48.0, 114.48768739355728, -212.2131431857124, 125.56901096226647, 1270.2140111005865, 0.01600000075995922, -0.19200000911951065, 1.0400000493973494, 0.0, 0.0, 0.0, 0.0, 0.0, 1.7103876812919405E9, 0.0, 2024-03-13 20:41:21.291
49.0, 226.24337786948308, -346.41758314566687, 219.02163105504587, 1168.875811951235, 0.01600000075995922, -0.19200000911951065, 1.0400000493973494, 0.0, 0.0, 0.0, 0.0, 0.0, 1.710387681292394E9, 0.0, 2024-03-13 20:41:21.292
49.0, 28.703732159920037, -519.2252704482526, 40.96686411462724, 943.9114798665978, 0.01600000075995922, -0.19200000911951065, 1.0400000493973494, 0.0, 0.0, 0.0, 0.0, 0.0, 1.710387681292394E9, 0.0, 2024-03-13 20:41:21.292
50.0, 193.09290466224775, -584.8567747706547, 240.52605580026284, 883.6392521806993, 0.01600000075995922, -0.19200000911951065, 1.0400000493973494, 0.0, 0.0, 0.0, 0.0, 0.0, 1.7103876813059244E9, 0.0, 2024-03-13 20:41:21.305
50.0, 100.53038075892255, -566.3255704902112, 106.86951118381694, 954.944184735883, 0.01600000075995922, -0.19200000911951065, 1.0400000493973494, 0.0, 0.0, 0.0, 0.0, 0.0, 1.7103876813059244E9, 0.0, 2024-03-13 20:41:21.305
51.0, 6.077337427996099, -497.305716807954, -0.8227779902517796, 983.6815759954043, 0.01600000075995922, -0.19200000911951065, 1.0400000493973494, 0.0, 0.0, 0.0, 0.0, 0.0, 1.7103876813218553E9, 0.0, 2024-03-13 20:41:21.321
51.0, -127.21269699279219, -373.9694261192344, -121.03812216594815, 1076.178651649505, 0.01600000075995922, -0.19200000911951065, 1.0400000493973494, 0.0, 0.0, 0.0, 0.0, 0.0, 1.7103876813218553E9, 0.0, 2024-03-13 20:41:21.321
52.0, 51.23101954301819, -222.38567106518894, 59.05115035036579, 1283.8983050384559, 0.01600000075995922, -0.19200000911951065, 1.0400000493973494, 0.0, 0.0, 0.0, 0.0, 0.0, 1.7103876813227353E9, 0.0, 2024-03-13 20:41:21.322
52.0, -122.97913024295121, -123.67101173475385, -118.51368969585747, 1372.9677623831667, 0.01600000075995922, -0.19200000911951065, 1.0400000493973494, 0.0, 0.0, 0.0, 0.0, 0.0, 1.7103876813227353E9, 0.0, 2024-03-13 20:41:21.322
53.0, -36.404186168685555, -163.82631755899638, -6.369049624539912, 1279.1187128950842, 0.01600000075995922, -0.19200000911951065, 1.0400000493973494, 0.0, 0.0, 0.0, 0.0, 0.0, 1.7103876813358855E9, 0.0, 2024-03-13 20:41:21.335
53.0, 107.36317797796801, -212.00370878819376, 113.29091940773651, 1265.6214139549993, 0.01600000075995922, -0.19200000911951065, 1.0400000493973494, 0.0, 0.0, 0.0, 0.0, 0.0, 1.7103876813358855E9, 0.0, 2024-03-13 20:41:21.335
54.0, 248.37610580725595, -325.26844889624044, 231.7597303041257, 1186.337404844351, 0.01600000075995922, -0.19200000911951065, 1.0400000493973494, 0.0, 0.0, 0.0, 0.0, 0.0, 1.710387681351652E9, 0.0, 2024-03-13 20:41:21.351
54.0, 38.17315884772688, -496.28472412005067, 50.30539430398494, 959.4956429819576, 0.01600000075995922, -0.19200000911951065, 1.0400000493973494, 0.0, 0.0, 0.0, 0.0, 0.0, 1.710387681351652E9, 0.0, 2024-03-13 20:41:21.351
55.0, 220.61108853621408, -563.2700722264126, 243.25244286796078, 896.2314953315072, 0.01600000075995922, -0.19200000911951065, 1.0400000493973494, 0.0, 0.0, 0.0, 0.0, 0.0, 1.7103876813524156E9, 0.0, 2024-03-13 20:41:21.352
55.0, 115.35908408323303, -550.6179906763136, 116.17812217352912, 967.9253774820827, 0.01600000075995922, -0.19200000911951065, 1.0400000493973494, 0.0, 0.0, 0.0, 0.0, 0.0, 1.7103876813524156E9, 0.0, 2024-03-13 20:41:21.352
56.0, 1.5632781814783812, -498.80541669018567, -6.006279328837991, 980.4091635341756, 0.01600000075995922, -0.19200000911951065, 1.0400000493973494, 0.0, 0.0, 0.0, 0.0, 0.0, 1.7103876813658936E9, 0.0, 2024-03-13 20:41:21.365
56.0, -127.8746592849493, -369.06641727732494, -106.61706793680787, 1084.668224548921, 0.01600000075995922, -0.19200000911951065, 1.0400000493973494, 0.0, 0.0, 0.0, 0.0, 0.0, 1.7103876813658936E9, 0.0, 2024-03-13 20:41:21.365
57.0, 66.0111041679047, -204.0639011822641, 75.78720265207812, 1306.943568565417, 0.01600000075995922, -0.19200000911951065, 1.0400000493973494, 0.0, 0.0, 0.0, 0.0, 0.0, 1.7103876813816247E9, 0.0, 2024-03-13 20:41:21.381
57.0, -95.14305487275124, -117.33936110977083, -109.54166970215738, 1387.545892410446, 0.01600000075995922, -0.19200000911951065, 1.0400000493973494, 0.0, 0.0, 0.0, 0.0, 0.0, 1.7103876813816247E9, 0.0, 2024-03-13 20:41:21.381
58.0, -23.834382417611778, -155.53495935723186, 3.814697954803705, 1298.405376966577, 0.01600000075995922, -0.19200000911951065, 1.0400000493973494, 0.0, 0.0, 0.0, 0.0, 0.0, 1.710387681382455E9, 0.0, 2024-03-13 20:41:21.382
58.0, 120.45282782288268, -191.7596303280443, 143.32979585183784, 1300.625007590279, 0.01600000075995922, -0.19200000911951065, 1.0400000493973494, 0.0, 0.0, 0.0, 0.0, 0.0, 1.710387681382455E9, 0.0, 2024-03-13 20:41:21.382
59.0, 247.53462831722572, -332.19100371422246, 232.99015738954768, 1185.5763352033682, 0.01600000075995922, -0.19200000911951065, 1.0400000493973494, 0.0, 0.0, 0.0, 0.0, 0.0, 1.7103876813959765E9, 0.0, 2024-03-13 20:41:21.395
59.0, 36.20597147103399, -516.7344970777631, 37.597214254550636, 948.4423686629161, 0.01600000075995922, -0.19200000911951065, 1.0400000493973494, 0.0, 0.0, 0.0, 0.0, 0.0, 1.7103876813959765E9, 0.0, 2024-03-13 20:41:21.395
60.0, 226.49769106647, -572.9264939120039, 241.5395686882548, 894.0343041075394, 0.01600000075995922, -0.19200000911951065, 1.0400000493973494, 0.0, 0.0, 0.0, 0.0, 0.0, 1.7103876814119048E9, 0.0, 2024-03-13 20:41:21.411
60.0, 115.32916488358751, -561.4450010480359, 110.31395904300734, 958.4989596437663, 0.01600000075995922, -0.19200000911951065, 1.0400000493973494, 0.0, 0.0, 0.0, 0.0, 0.0, 1.7103876814119048E9, 0.0, 2024-03-13 20:41:21.411
61.0, -9.24877259042114, -501.62156135682017, 4.865609842352569, 986.2003986155614, 0.01600000075995922, -0.19200000911951065, 1.0400000493973494, 0.0, 0.0, 0.0, 0.0, 0.0, 1.71038768141231E9, 0.0, 2024-03-13 20:41:21.412
61.0, -134.7710348032415, -363.55006484268233, -100.93989980407059, 1092.2583515089937, 0.01600000075995922, -0.19200000911951065, 1.0400000493973494, 0.0, 0.0, 0.0, 0.0, 0.0, 1.71038768141231E9, 0.0, 2024-03-13 20:41:21.412
62.0, 63.643747495952994, -215.13400505110621, 69.74726422363892, 1295.3031299533322, 0.01600000075995922, -0.19200000911951065, 1.0400000493973494, 0.0, 0.0, 0.0, 0.0, 0.0, 1.710387681425885E9, 0.0, 2024-03-13 20:41:21.425
62.0, -125.60080011188984, -147.2211617557332, -127.52684858907014, 1360.0632375860587, 0.01600000075995922, -0.19200000911951065, 1.0400000493973494, 0.0, 0.0, 0.0, 0.0, 0.0, 1.710387681425885E9, 0.0, 2024-03-13 20:41:21.425
63.0, -34.13032699562609, -182.50711783766747, -13.67681413795799, 1278.7017140500247, 0.01600000075995922, -0.19200000911951065, 1.0400000493973494, 0.0, 0.0, 0.0, 0.0, 0.0, 1.710387681441656E9, 0.0, 2024-03-13 20:41:21.441
63.0, 89.2097035930492, -226.32004581857473, 123.31759118894115, 1272.837550919503, 0.01600000075995922, -0.19200000911951065, 1.0400000493973494, 0.0, 0.0, 0.0, 0.0, 0.0, 1.710387681441656E9, 0.0, 2024-03-13 20:41:21.441
64.0, 191.76150027802214, -375.25221180403605, 212.80217742873356, 1154.8941959668882, 0.01600000075995922, -0.19200000911951065, 1.0400000493973494, 0.0, 0.0, 0.0, 0.0, 0.0, 1.7103876814425335E9, 0.0, 2024-03-13 20:41:21.442
64.0, -7.502239311113954, -537.1954897353426, 26.246617889031768, 928.3329266011715, 0.01600000075995922, -0.19200000911951065, 1.0400000493973494, 0.0, 0.0, 0.0, 0.0, 0.0, 1.7103876814425335E9, 0.0, 2024-03-13 20:41:21.442
65.0, 173.6229854929261, -594.875966751948, 234.28416277421638, 882.2872783467174, 0.01600000075995922, -0.19200000911951065, 1.0400000493973494, 0.0, 0.0, 0.0, 0.0, 0.0, 1.7103876814559247E9, 0.0, 2024-03-13 20:41:21.455
65.0, 76.97275093803182, -579.0412303395569, 109.28174665523693, 949.9420685451478, 0.01600000075995922, -0.19200000911951065, 1.0400000493973494, 0.0, 0.0, 0.0, 0.0, 0.0, 1.7103876814559247E9, 0.0, 2024-03-13 20:41:21.455
66.0, -25.31538280006498, -511.2892027422786, -6.42514812387526, 972.1047156825662, 0.01600000075995922, -0.19200000911951065, 1.0400000493973494, 0.0, 0.0, 0.0, 0.0, 0.0, 1.710387681471657E9, 0.0, 2024-03-13 20:41:21.471
66.0, -160.8493571942672, -377.44379317807034, -112.36529416870326, 1076.793865192216, 0.01600000075995922, -0.19200000911951065, 1.0400000493973494, 0.0, 0.0, 0.0, 0.0, 0.0, 1.710387681471657E9, 0.0, 2024-03-13 20:41:21.471
67.0, 44.05789142800495, -217.49388192314655, 67.41356665128842, 1292.1765735903755, 0.01600000075995922, -0.19200000911951065, 1.0400000493973494, 0.0, 0.0, 0.0, 0.0, 0.0, 1.7103876814723315E9, 0.0, 2024-03-13 20:41:21.472
67.0, -128.45060387812555, -157.65922253206372, -133.36857231985778, 1354.8311175480485, 0.01600000075995922, -0.19200000911951065, 1.0400000493973494, 0.0, 0.0, 0.0, 0.0, 0.0, 1.7103876814723315E9, 0.0, 2024-03-13 20:41:21.472
68.0, -26.18677948974073, -171.2275795713067, -7.25540591403842, 1279.071964145638, 0.01600000075995922, -0.19200000911951065, 1.0400000493973494, 0.0, 0.0, 0.0, 0.0, 0.0, 1.7103876814858637E9, 0.0, 2024-03-13 20:41:21.485
68.0, 88.95539039606228, -226.2190685197711, 112.97302791150287, 1258.992441283539, 0.01600000075995922, -0.19200000911951065, 1.0400000493973494, 0.0, 0.0, 0.0, 0.0, 0.0, 1.7103876814858637E9, 0.0, 2024-03-13 20:41:21.485
69.0, 230.3123890212737, -353.2204611650668, 214.0438242140226, 1166.618782327976, 0.01600000075995922, -0.19200000911951065, 1.0400000493973494, 0.0, 0.0, 0.0, 0.0, 0.0, 1.7103876815016205E9, 0.0, 2024-03-13 20:41:21.501
69.0, 35.270996482111514, -517.2356436718255, 35.44677178002894, 945.0988981025293, 0.01600000075995922, -0.19200000911951065, 1.0400000493973494, 0.0, 0.0, 0.0, 0.0, 0.0, 1.7103876815016205E9, 0.0, 2024-03-13 20:41:21.501
70.0, 217.52193117281422, -568.0272249700502, 241.11695999326184, 896.8093098746613, 0.01600000075995922, -0.19200000911951065, 1.0400000493973494, 0.0, 0.0, 0.0, 0.0, 0.0, 1.7103876815023992E9, 0.0, 2024-03-13 20:41:21.502
70.0, 104.16182361589745, -564.2873250143602, 107.1799228801392, 953.5585518022999, 0.01600000075995922, -0.19200000911951065, 1.0400000493973494, 0.0, 0.0, 0.0, 0.0, 0.0, 1.7103876815023992E9, 0.0, 2024-03-13 20:41:21.502
71.0, -20.363755258731544, -521.6225463198498, -17.71590609010309, 962.362276297994, 0.01600000075995922, -0.19200000911951065, 1.0400000493973494, 0.0, 0.0, 0.0, 0.0, 0.0, 1.7103876815158684E9, 0.0, 2024-03-13 20:41:21.515
71.0, -133.89589821361005, -362.1438624593429, -110.30834919307381, 1085.9304407839663, 0.01600000075995922, -0.19200000911951065, 1.0400000493973494, 0.0, 0.0, 0.0, 0.0, 0.0, 1.7103876815158684E9, 0.0, 2024-03-13 20:41:21.515
72.0, 66.07842236710712, -203.34584039077163, 78.16203912394121, 1299.4207598045468, 0.01600000075995922, -0.19200000911951065, 1.0400000493973494, 0.0, 0.0, 0.0, 0.0, 0.0, 1.7103876815318172E9, 0.0, 2024-03-13 20:41:21.531
72.0, -123.15116564091295, -137.33286627288908, -128.78345497418195, 1363.5637839445844, 0.01600000075995922, -0.19200000911951065, 1.0400000493973494, 0.0, 0.0, 0.0, 0.0, 0.0, 1.7103876815318172E9, 0.0, 2024-03-13 20:41:21.531
73.0, -6.675721420906484, -153.3732971828431, 0.8564370898529887, 1294.7720641596243, 0.01600000075995922, -0.19200000911951065, 1.0400000493973494, 0.0, 0.0, 0.0, 0.0, 0.0, 1.7103876815323164E9, 0.0, 2024-03-13 20:41:21.532
73.0, 100.2872872618027, -200.73539022170007, 125.23615986621007, 1283.5149652929977, 0.01600000075995922, -0.19200000911951065, 1.0400000493973494, 0.0, 0.0, 0.0, 0.0, 0.0, 1.7103876815323164E9, 0.0, 2024-03-13 20:41:21.532
74.0, 214.4514733091928, -340.01487442152575, 217.28257757565007, 1169.3227299959399, 0.01600000075995922, -0.19200000911951065, 1.0400000493973494, 0.0, 0.0, 0.0, 0.0, 0.0, 1.7103876815458724E9, 0.0, 2024-03-13 20:41:21.545
74.0, 12.012558657675982, -511.7155513372272, 33.67779910098761, 949.396043151617, 0.01600000075995922, -0.19200000911951065, 1.0400000493973494, 0.0, 0.0, 0.0, 0.0, 0.0, 1.7103876815458724E9, 0.0, 2024-03-13 20:41:21.545
75.0, 218.0903959660791, -555.8538506142795, 246.24062293255702, 906.738744257018, 0.01600000075995922, -0.19200000911951065, 1.0400000493973494, 0.0, 0.0, 0.0, 0.0, 0.0, 1.710387681561634E9, 0.0, 2024-03-13 20:41:21.561
75.0, 132.65612137829885, -549.058452394791, 120.2620929251425, 970.7059930991381, 0.01600000075995922, -0.19200000911951065, 1.0400000493973494, 0.0, 0.0, 0.0, 0.0, 0.0, 1.710387681561634E9, 0.0, 2024-03-13 20:41:21.561
76.0, 15.68140051420778, -489.5229850001633, 1.7764524789527059, 991.2941423552111, 0.01600000075995922, -0.19200000911951065, 1.0400000493973494, 0.0, 0.0, 0.0, 0.0, 0.0, 1.7103876815624287E9, 0.0, 2024-03-13 20:41:21.562
76.0, -115.27493633423, -340.3626851174049, -100.47989210952073, 1108.209024820011, 0.01600000075995922, -0.19200000911951065, 1.0400000493973494, 0.0, 0.0, 0.0, 0.0, 0.0, 1.7103876815624287E9, 0.0, 2024-03-13 20:41:21.562
77.0, 84.12343965331092, -185.39806050341576, 84.29547505127266, 1317.147885594517, 0.01600000075995922, -0.19200000911951065, 1.0400000493973494, 0.0, 0.0, 0.0, 0.0, 0.0, 1.7103876815762656E9, 0.0, 2024-03-13 20:41:21.576
77.0, -105.33428225200623, -124.92387821990997, -121.46073086094111, 1376.6347342897207, 0.01600000075995922, -0.19200000911951065, 1.0400000493973494, 0.0, 0.0, 0.0, 0.0, 0.0, 1.7103876815762656E9, 0.0, 2024-03-13 20:41:21.576
78.0, -4.783332043327391, -145.6616234742105, 0.321631396189332, 1304.4023065455258, 0.01600000075995922, -0.19200000911951065, 1.0400000493973494, 0.0, 0.0, 0.0, 0.0, 0.0, 1.7103876815916877E9, 0.0, 2024-03-13 20:41:21.591
78.0, 114.34557119524106, -199.96123093087226, 128.27295863023028, 1284.9997055754066, 0.01600000075995922, -0.19200000911951065, 1.0400000493973494, 0.0, 0.0, 0.0, 0.0, 0.0, 1.7103876815916877E9, 0.0, 2024-03-13 20:41:21.591
79.0, 233.41650598449633, -350.0303265028633, 218.22129246452823, 1168.5448308051564, 0.01600000075995922, -0.19200000911951065, 1.0400000493973494, 0.0, 0.0, 0.0, 0.0, 0.0, 1.7103876815925448E9, 0.0, 2024-03-13 20:41:21.592
79.0, 32.742824112065136, -511.7192912371829, 29.178699454292655, 946.658436384052, 0.01600000075995922, -0.19200000911951065, 1.0400000493973494, 0.0, 0.0, 0.0, 0.0, 0.0, 1.7103876815925448E9, 0.0, 2024-03-13 20:41:21.592
80.0, 230.07677532406524, -562.2229002388194, 240.3166214027442, 898.0322571601719, 0.01600000075995922, -0.19200000911951065, 1.0400000493973494, 0.0, 0.0, 0.0, 0.0, 0.0, 1.7103876816062543E9, 0.0, 2024-03-13 20:41:21.606
80.0, 117.46838765824214, -562.686647833325, 109.23312795581296, 955.7987518757582, 0.01600000075995922, -0.19200000911951065, 1.0400000493973494, 0.0, 0.0, 0.0, 0.0, 0.0, 1.7103876816062543E9, 0.0, 2024-03-13 20:41:21.606
81.0, -14.757645225152373, -512.9010996231809, -18.86779527645558, 969.5653236126527, 0.01600000075995922, -0.19200000911951065, 1.0400000493973494, 0.0, 0.0, 0.0, 0.0, 0.0, 1.7103876816215985E9, 0.0, 2024-03-13 20:41:21.621
81.0, -113.46856465563178, -349.97796790348366, -115.02810293715447, 1094.1432610866614, 0.01600000075995922, -0.19200000911951065, 1.0400000493973494, 0.0, 0.0, 0.0, 0.0, 0.0, 1.7103876816215985E9, 0.0, 2024-03-13 20:41:21.621
82.0, 82.1300729769282, -198.8392609441653, 85.79891483346, 1304.4883242445067, 0.01600000075995922, -0.19200000911951065, 1.0400000493973494, 0.0, 0.0, 0.0, 0.0, 0.0, 1.7103876816222744E9, 0.0, 2024-03-13 20:41:21.622
82.0, -112.11846077162772, -139.41973044816405, -120.36868007387966, 1364.1621679374948, 0.01600000075995922, -0.19200000911951065, 1.0400000493973494, 0.0, 0.0, 0.0, 0.0, 0.0, 1.7103876816222744E9, 0.0, 2024-03-13 20:41:21.622
83.0, 5.740746431984007, -156.0735049508512, -4.596337045542896, 1289.0013985279948, 0.01600000075995922, -0.19200000911951065, 1.0400000493973494, 0.0, 0.0, 0.0, 0.0, 0.0, 1.710387681635882E9, 0.0, 2024-03-13 20:41:21.635
83.0, 119.02044613985345, -200.06594812963158, 134.44753345707431, 1287.019251551479, 0.01600000075995922, -0.19200000911951065, 1.0400000493973494, 0.0, 0.0, 0.0, 0.0, 0.0, 1.710387681635882E9, 0.0, 2024-03-13 20:41:21.635
84.0, 223.63292770041153, -359.87748308619484, 213.22478612372652, 1154.6062236703, 0.01600000075995922, -0.19200000911951065, 1.0400000493973494, 0.0, 0.0, 0.0, 0.0, 0.0, 1.7103876816515872E9, 0.0, 2024-03-13 20:41:21.651
84.0, 28.266163865104318, -521.9965363154188, 23.097622126340866, 936.0670397095382, 0.01600000075995922, -0.19200000911951065, 1.0400000493973494, 0.0, 0.0, 0.0, 0.0, 0.0, 1.7103876816515872E9, 0.0, 2024-03-13 20:41:21.651
85.0, 237.38453983748332, -558.4942199829966, 246.70437052706257, 896.8915876736864, 0.01600000075995922, -0.19200000911951065, 1.0400000493973494, 0.0, 0.0, 0.0, 0.0, 0.0, 1.7103876816524355E9, 0.0, 2024-03-13 20:41:21.652
85.0, 110.67298943875358, -573.2182061085477, 100.91559045435861, 941.3851774465293, 0.01600000075995922, -0.19200000911951065, 1.0400000493973494, 0.0, 0.0, 0.0, 0.0, 0.0, 1.7103876816524355E9, 0.0, 2024-03-13 20:41:21.652
86.0, 6.694420920684934, -506.0570827042684, -7.408741812221706, 972.1234151823446, 0.01600000075995922, -0.19200000911951065, 1.0400000493973494, 0.0, 0.0, 0.0, 0.0, 0.0, 1.710387681665987E9, 0.0, 2024-03-13 20:41:21.665
86.0, -132.49717563018203, -363.17981474706903, -114.59053464233875, 1088.9148809486069, 0.01600000075995922, -0.19200000911951065, 1.0400000493973494, 0.0, 0.0, 0.0, 0.0, 0.0, 1.710387681665987E9, 0.0, 2024-03-13 20:41:21.665
87.0, 66.41127346316352, -206.28914165589958, 73.89107337454334, 1299.6563735017553, 0.01600000075995922, -0.19200000911951065, 1.0400000493973494, 0.0, 0.0, 0.0, 0.0, 0.0, 1.7103876816815665E9, 0.0, 2024-03-13 20:41:21.681
87.0, -112.32041536923498, -144.1020851926878, -133.02076162397861, 1353.6530490620062, 0.01600000075995922, -0.19200000911951065, 1.0400000493973494, 0.0, 0.0, 0.0, 0.0, 0.0, 1.7103876816815665E9, 0.0, 2024-03-13 20:41:21.681
88.0, -7.053451316431165, -159.368356811814, -12.47630625218153, 1281.8656694125384, 0.01600000075995922, -0.19200000911951065, 1.0400000493973494, 0.0, 0.0, 0.0, 0.0, 0.0, 1.7103876816822853E9, 0.0, 2024-03-13 20:41:21.682
88.0, 116.65682936785743, -209.86822591349483, 121.4476412110962, 1270.9115024423227, 0.01600000075995922, -0.19200000911951065, 1.0400000493973494, 0.0, 0.0, 0.0, 0.0, 0.0, 1.7103876816822853E9, 0.0, 2024-03-13 20:41:21.682
89.0, 241.60688688745722, -356.9304419211112, 212.12525553675368, 1157.6205830345862, 0.01600000075995922, -0.19200000911951065, 1.0400000493973494, 0.0, 0.0, 0.0, 0.0, 0.0, 1.7103876816964211E9, 0.0, 2024-03-13 20:41:21.696
89.0, 50.533528201282024, -512.6168672265485, 39.5008233319968, 948.7527803592384, 0.01600000075995922, -0.19200000911951065, 1.0400000493973494, 0.0, 0.0, 0.0, 0.0, 0.0, 1.7103876816964211E9, 0.0, 2024-03-13 20:41:21.696
90.0, 251.56624046945944, -554.8964362256229, 249.71498999139294, 903.5261701950803, 0.01600000075995922, -0.19200000911951065, 1.0400000493973494, 0.0, 0.0, 0.0, 0.0, 0.0, 1.7103876817113492E9, 0.0, 2024-03-13 20:41:21.711
90.0, 106.39828378940001, -584.5575827741995, 100.68371665710583, 939.4853082690388, 0.01600000075995922, -0.19200000911951065, 1.0400000493973494, 0.0, 0.0, 0.0, 0.0, 0.0, 1.7103876817113492E9, 0.0, 2024-03-13 20:41:21.711
91.0, -14.439753728918731, -521.1326194256544, -19.226825672201812, 966.4013682501391, 0.01600000075995922, -0.19200000911951065, 1.0400000493973494, 0.0, 0.0, 0.0, 0.0, 0.0, 1.7103876817268271E9, 0.0, 2024-03-13 20:41:21.726
91.0, -140.79227373190224, -362.80582475150004, -118.54360889550298, 1087.4151810663752, 0.01600000075995922, -0.19200000911951065, 1.0400000493973494, 0.0, 0.0, 0.0, 0.0, 0.0, 1.7103876817268271E9, 0.0, 2024-03-13 20:41:21.726
92.0, 50.296044554095715, -216.78704083152115, 61.29135042382404, 1285.7701249662787, 0.01600000075995922, -0.19200000911951065, 1.0400000493973494, 0.0, 0.0, 0.0, 0.0, 0.0, 1.7103876817275467E9, 0.0, 2024-03-13 20:41:21.727
92.0, -136.98131567705423, -147.72978814970702, -138.94850305374712, 1348.5705250222236, 0.01600000075995922, -0.19200000911951065, 1.0400000493973494, 0.0, 0.0, 0.0, 0.0, 0.0, 1.7103876817275467E9, 0.0, 2024-03-13 20:41:21.727
93.0, -8.231519802473485, -147.06408595759422, -3.3546902602538466, 1295.6434608493, 0.01600000075995922, -0.19200000911951065, 1.0400000493973494, 0.0, 0.0, 0.0, 0.0, 0.0, 1.710387681741604E9, 0.0, 2024-03-13 20:41:21.741
93.0, 127.36042304104194, -199.1272332407534, 130.21396670723334, 1280.9232146237046, 0.01600000075995922, -0.19200000911951065, 1.0400000493973494, 0.0, 0.0, 0.0, 0.0, 0.0, 1.710387681741604E9, 0.0, 2024-03-13 20:41:21.741
94.0, 236.77867604466155, -346.65319684287533, 224.1639934941195, 1167.0339112230577, 0.01600000075995922, -0.19200000911951065, 1.0400000493973494, 0.0, 0.0, 0.0, 0.0, 0.0, 1.7103876817422888E9, 0.0, 2024-03-13 20:41:21.742
94.0, 32.050942620262504, -511.73051093705, 37.54485565517098, 951.9840539209545, 0.01600000075995922, -0.19200000911951065, 1.0400000493973494, 0.0, 0.0, 0.0, 0.0, 0.0, 1.7103876817422888E9, 0.0, 2024-03-13 20:41:21.742
95.0, 237.26860293885693, -555.1619691224769, 247.11201962223276, 904.4237461844459, 0.01600000075995922, -0.19200000911951065, 1.0400000493973494, 0.0, 0.0, 0.0, 0.0, 0.0, 1.7103876817559228E9, 0.0, 2024-03-13 20:41:21.755
95.0, 114.27451309608296, -571.1014227336273, 105.7699805968441, 946.1722493898124, 0.01600000075995922, -0.19200000911951065, 1.0400000493973494, 0.0, 0.0, 0.0, 0.0, 0.0, 1.7103876817559228E9, 0.0, 2024-03-13 20:41:21.755
96.0, -6.593443621881306, -504.78177681937814, -22.11402843799442, 971.0874628946185, 0.01600000075995922, -0.19200000911951065, 1.0400000493973494, 0.0, 0.0, 0.0, 0.0, 0.0, 1.710387681771527E9, 0.0, 2024-03-13 20:41:21.771
96.0, -112.94871856179088, -352.2555669764988, -111.56495557818562, 1092.5650233053602, 0.01600000075995922, -0.19200000911951065, 1.0400000493973494, 0.0, 0.0, 0.0, 0.0, 0.0, 1.710387681771527E9, 0.0, 2024-03-13 20:41:21.771
97.0, 89.38547889096662, -202.0181759065017, 74.10424767201766, 1298.6765197133645, 0.01600000075995922, -0.19200000911951065, 1.0400000493973494, 0.0, 0.0, 0.0, 0.0, 0.0, 1.7103876817722545E9, 0.0, 2024-03-13 20:41:21.772
97.0, -100.98477860353887, -133.81362041458488, -125.25672931596637, 1364.7942110300064, 0.01600000075995922, -0.19200000911951065, 1.0400000493973494, 0.0, 0.0, 0.0, 0.0, 0.0, 1.7103876817722545E9, 0.0, 2024-03-13 20:41:21.772
98.0, 6.769218919798732, -121.45699096098542, 10.43432087637484, 1314.881506221369, 0.01600000075995922, -0.19200000911951065, 1.0400000493973494, 0.0, 0.0, 0.0, 0.0, 0.0, 1.710387681785872E9, 0.0, 2024-03-13 20:41:21.785
98.0, 127.53993823891506, -189.37357415631413, 126.1524353553541, 1286.0244381632656, 0.01600000075995922, -0.19200000911951065, 1.0400000493973494, 0.0, 0.0, 0.0, 0.0, 0.0, 1.710387681785872E9, 0.0, 2024-03-13 20:41:21.785
99.0, 254.56938013387844, -331.45798332290724, 228.0198303484358, 1178.3583282888867, 0.01600000075995922, -0.19200000911951065, 1.0400000493973494, 0.0, 0.0, 0.0, 0.0, 0.0, 1.7103876818016374E9, 0.0, 2024-03-13 20:41:21.801
99.0, 50.548487801104784, -488.0569442175329, 43.41275868564844, 965.7169665582478, 0.01600000075995922, -0.19200000911951065, 1.0400000493973494, 0.0, 0.0, 0.0, 0.0, 0.0, 1.7103876818016374E9, 0.0, 2024-03-13 20:41:21.801
100.0, 235.91475915489718, -550.7077482752502, 235.99703695392236, 902.4640386076644, 0.01600000075995922, -0.19200000911951065, 1.0400000493973494, 0.0, 0.0, 0.0, 0.0, 0.0, 1.7103876818026009E9, 0.0, 2024-03-13 20:41:21.802
100.0, 114.56248539267108, -567.7130733737722, 96.40901100775227, 944.7249081069604, 0.01600000075995922, -0.19200000911951065, 1.0400000493973494, 0.0, 0.0, 0.0, 0.0, 0.0, 1.7103876818026009E9, 0.0, 2024-03-13 20:41:21.802
0.0, -243.47122701536864, 309.1307805874385, -27.60607152292505, 153.3658173829317, 0.01600000075995922, -0.19200000911951065, 1.0400000493973494, 0.0, 0.0, 0.0, 0.0, 0.0, 1.7103876818165972E9, 0.0, 2024-03-13 20:41:21.816
1.0, -359.67739843856543, 470.28493962809443, -120.15737572638318, 276.4103958751075, 0.01600000075995922, -0.19200000911951065, 1.0400000493973494, 0.0, 0.0, 0.0, 0.0, 0.0, 1.710387681817264E9, 0.0, 2024-03-13 20:41:21.817
1.0, -180.77741410816088, 605.8768824716099, 54.72221615165472, 471.17503581754863, 0.01600000075995922, -0.19200000911951065, 1.0400000493973494, 0.0, 0.0, 0.0, 0.0, 0.0, 1.710387681817264E9, 0.0, 2024-03-13 20:41:21.817
2.0, -360.8741664243862, 674.2310339617543, -141.92733336845413, 539.3833312094212, 0.01600000075995922, -0.19200000911951065, 1.0400000493973494, 0.0, 0.0, 0.0, 0.0, 0.0, 1.7103876818310835E9, 0.0, 2024-03-13 20:41:21.831
2.0, -252.95935320295393, 664.2081020805053, -10.178137729410082, 479.7880254155025, 0.01600000075995922, -0.19200000911951065, 1.0400000493973494, 0.0, 0.0, 0.0, 0.0, 0.0, 1.7103876818310835E9, 0.0, 2024-03-13 20:41:21.831
3.0, -130.1129894084297, 607.8964284476824, 111.94642537366599, 453.50026862695813, 0.01600000075995922, -0.19200000911951065, 1.0400000493973494, 0.0, 0.0, 0.0, 0.0, 0.0, 1.7103876818465383E9, 0.0, 2024-03-13 20:41:21.846
3.0, -37.27745280833915, 432.2725964784622, 193.00875691324472, 320.56739465193823, 0.01600000075995922, -0.19200000911951065, 1.0400000493973494, 0.0, 0.0, 0.0, 0.0, 0.0, 1.7103876818465383E9, 0.0, 2024-03-13 20:41:21.846
4.0, -218.30544021353126, 287.06911074882373, 4.3663331982679665, 114.53069624304771, 0.01600000075995922, -0.19200000911951065, 1.0400000493973494, 0.0, 0.0, 0.0, 0.0, 0.0, 1.7103876818472788E9, 0.0, 2024-03-13 20:41:21.847
4.0, -9.02998844301328, 249.55791419325396, 224.09480534493923, 76.63428999204189, 0.01600000075995922, -0.19200000911951065, 1.0400000493973494, 0.0, 0.0, 0.0, 0.0, 0.0, 1.7103876818472788E9, 0.0, 2024-03-13 20:41:21.847
5.0, -139.15232760133222, 222.66055371193215, 68.69074248615652, 103.35587517544627, 0.01600000075995922, -0.19200000911951065, 1.0400000493973494, 0.0, 0.0, 0.0, 0.0, 0.0, 1.7103876818609912E9, 0.0, 2024-03-13 20:41:21.860
5.0, -246.6763212773949, 294.8219233569689, -41.458660958800465, 133.3573526199907, 0.01600000075995922, -0.19200000911951065, 1.0400000493973494, 0.0, 0.0, 0.0, 0.0, 0.0, 1.7103876818609912E9, 0.0, 2024-03-13 20:41:21.860
6.0, -351.9470252301544, 457.3561054812744, -137.77604441763833, 262.52788723958656, 0.01600000075995922, -0.19200000911951065, 1.0400000493973494, 0.0, 0.0, 0.0, 0.0, 0.0, 1.710387681877121E9, 0.0, 2024-03-13 20:41:21.877
6.0, -170.1336588342674, 593.1986216218211, 39.190411635674536, 452.64757143706083, 0.01600000075995922, -0.19200000911951065, 1.0400000493973494, 0.0, 0.0, 0.0, 0.0, 0.0, 1.710387681877121E9, 0.0, 2024-03-13 20:41:21.877
7.0, -358.5741279516369, 659.3537119380198, -165.84773348504677, 519.4384447457269, 0.01600000075995922, -0.19200000911951065, 1.0400000493973494, 0.0, 0.0, 0.0, 0.0, 0.0, 1.7103876818776212E9, 0.0, 2024-03-13 20:41:21.877
7.0, -237.31909158825874, 668.9091563248076, -20.934090001974255, 473.3703570915386, 0.01600000075995922, -0.19200000911951065, 1.0400000493973494, 0.0, 0.0, 0.0, 0.0, 0.0, 1.7103876818776212E9, 0.0, 2024-03-13 20:41:21.877
8.0, -110.72534803813323, 618.1624538260512, 110.5327431904152, 458.0330273732543, 0.01600000075995922, -0.19200000911951065, 1.0400000493973494, 0.0, 0.0, 0.0, 0.0, 0.0, 1.7103876818908813E9, 0.0, 2024-03-13 20:41:21.890
8.0, -6.7000307706184685, 459.57760605495423, 191.29962263349444, 328.6567982560955, 0.01600000075995922, -0.19200000911951065, 1.0400000493973494, 0.0, 0.0, 0.0, 0.0, 0.0, 1.7103876818908813E9, 0.0, 2024-03-13 20:41:21.890
9.0, -200.4324583252892, 300.7982834861614, 5.215290488209575, 114.89720643870533, 0.01600000075995922, -0.19200000911951065, 1.0400000493973494, 0.0, 0.0, 0.0, 0.0, 0.0, 1.7103876819066997E9, 0.0, 2024-03-13 20:41:21.906
9.0, -3.663232006598264, 256.75722160795704, 223.53008045163006, 71.98559434711933, 0.01600000075995922, -0.19200000911951065, 1.0400000493973494, 0.0, 0.0, 0.0, 0.0, 0.0, 1.7103876819066997E9, 0.0, 2024-03-13 20:41:21.906
10.0, -147.33148880442604, 232.92657909030095, 69.89873017184436, 100.84266240522265, 0.01600000075995922, -0.19200000911951065, 1.0400000493973494, 0.0, 0.0, 0.0, 0.0, 0.0, 1.710387681907468E9, 0.0, 2024-03-13 20:41:21.907
10.0, -255.1584143768996, 307.52262360649183, -41.006133064161986, 143.31670620199293, 0.01600000075995922, -0.19200000911951065, 1.0400000493973494, 0.0, 0.0, 0.0, 0.0, 0.0, 1.710387681907468E9, 0.0, 2024-03-13 20:41:21.907
11.0, -362.3626466067508, 466.57869877200574, -125.41941496403888, 272.1543897255324, 0.01600000075995922, -0.19200000911951065, 1.0400000493973494, 0.0, 0.0, 0.0, 0.0, 0.0, 1.7103876819208775E9, 0.0, 2024-03-13 20:41:21.920
11.0, -164.3218543031253, 599.2871787496842, 54.890511649660766, 463.5905187074095, 0.01600000075995922, -0.19200000911951065, 1.0400000493973494, 0.0, 0.0, 0.0, 0.0, 0.0, 1.7103876819208775E9, 0.0, 2024-03-13 20:41:21.920
12.0, -366.6934507554397, 656.156097475905, -159.25428986316547, 521.81328121759, 0.01600000075995922, -0.19200000911951065, 1.0400000493973494, 0.0, 0.0, 0.0, 0.0, 0.0, 1.7103876819367092E9, 0.0, 2024-03-13 20:41:21.936
12.0, -255.01629817858338, 669.5038004177622, -18.74250862793997, 480.9324348019436, 0.01600000075995922, -0.19200000911951065, 1.0400000493973494, 0.0, 0.0, 0.0, 0.0, 0.0, 1.7103876819367092E9, 0.0, 2024-03-13 20:41:21.936
13.0, -141.87123486911878, 598.928148353938, 101.93471319228411, 442.19455106090754, 0.01600000075995922, -0.19200000911951065, 1.0400000493973494, 0.0, 0.0, 0.0, 0.0, 0.0, 1.710387681937578E9, 0.0, 2024-03-13 20:41:21.937
13.0, -35.433682130184025, 432.3548742774874, 179.07388967834413, 311.92448585433885, 0.01600000075995922, -0.19200000911951065, 1.0400000493973494, 0.0, 0.0, 0.0, 0.0, 0.0, 1.710387681937578E9, 0.0, 2024-03-13 20:41:21.937
14.0, -214.38976495992392, 290.6781142060645, 8.805594445671886, 114.95704483799636, 0.01600000075995922, -0.19200000911951065, 1.0400000493973494, 0.0, 0.0, 0.0, 0.0, 0.0, 1.7103876819509044E9, 0.0, 2024-03-13 20:41:21.950
14.0, -12.27622160455212, 248.4322043065913, 231.09215816203505, 76.42485559452325, 0.01600000075995922, -0.19200000911951065, 1.0400000493973494, 0.0, 0.0, 0.0, 0.0, 0.0, 1.7103876819509044E9, 0.0, 2024-03-13 20:41:21.950
15.0, -139.70583279477432, 226.82306236261502, 77.2214542850852, 112.18951887078583, 0.01600000075995922, -0.19200000911951065, 1.0400000493973494, 0.0, 0.0, 0.0, 0.0, 0.0, 1.7103876819665964E9, 0.0, 2024-03-13 20:41:21.966
15.0, -250.92110772710294, 300.633727888111, -34.07609844626859, 142.1087185163051, 0.01600000075995922, -0.19200000911951065, 1.0400000493973494, 0.0, 0.0, 0.0, 0.0, 0.0, 1.7103876819665964E9, 0.0, 2024-03-13 20:41:21.966
16.0, -372.538914386183, 459.8543586516753, -135.51340494444594, 264.59979181503877, 0.01600000075995922, -0.19200000911951065, 1.0400000493973494, 0.0, 0.0, 0.0, 0.0, 0.0, 1.7103876819672651E9, 0.0, 2024-03-13 20:41:21.967
16.0, -190.6694494909607, 588.9613149720244, 30.435305839404464, 448.52246178593487, 0.01600000075995922, -0.19200000911951065, 1.0400000493973494, 0.0, 0.0, 0.0, 0.0, 0.0, 1.7103876819672651E9, 0.0, 2024-03-13 20:41:21.967
17.0, -378.42177701648325, 654.9481097902171, -171.09107322292402, 516.4278252813965, 0.01600000075995922, -0.19200000911951065, 1.0400000493973494, 0.0, 0.0, 0.0, 0.0, 0.0, 1.710387681980872E9, 0.0, 2024-03-13 20:41:21.980
17.0, -255.8577756686136, 662.4765284010209, -25.661323545966297, 468.5496260486543, 0.01600000075995922, -0.19200000911951065, 1.0400000493973494, 0.0, 0.0, 0.0, 0.0, 0.0, 1.710387681980872E9, 0.0, 2024-03-13 20:41:21.980
18.0, -129.39492861693725, 603.4160283007659, 102.73505178280175, 445.3921655230224, 0.01600000075995922, -0.19200000911951065, 1.0400000493973494, 0.0, 0.0, 0.0, 0.0, 0.0, 1.7103876819965272E9, 0.0, 2024-03-13 20:41:21.996
18.0, -27.475175024475902, 434.3145818542689, 177.7537049939856, 312.4218925484456, 0.01600000075995922, -0.19200000911951065, 1.0400000493973494, 0.0, 0.0, 0.0, 0.0, 0.0, 1.7103876819965272E9, 0.0, 2024-03-13 20:41:21.996
19.0, -228.8108191890642, 285.1580218714662, -6.999222767073661, 104.58256236091256, 0.01600000075995922, -0.19200000911951065, 1.0400000493973494, 0.0, 0.0, 0.0, 0.0, 0.0, 1.7103876819972305E9, 0.0, 2024-03-13 20:41:21.997
19.0, -28.993574406486005, 239.86409350810573, 211.1023928988725, 59.0642400002107, 0.01600000075995922, -0.19200000911951065, 1.0400000493973494, 0.0, 0.0, 0.0, 0.0, 0.0, 1.7103876819972305E9, 0.0, 2024-03-13 20:41:21.997
20.0, -151.51269695488736, 217.5630700723268, 70.26524036750197, 95.44224686920643, 0.01600000075995922, -0.19200000911951065, 1.0400000493973494, 0.0, 0.0, 0.0, 0.0, 0.0, 1.710387682011253E9, 0.0, 2024-03-13 20:41:22.011
20.0, -263.9471792727709, 290.3078641104512, -52.39038852928206, 129.52769506536424, 0.01600000075995922, -0.19200000911951065, 1.0400000493973494, 0.0, 0.0, 0.0, 0.0, 0.0, 1.710387682011253E9, 0.0, 2024-03-13 20:41:22.011
21.0, -369.8387066181749, 452.0641470439732, -135.48348574480042, 263.9527891227044, 0.01600000075995922, -0.19200000911951065, 1.0400000493973494, 0.0, 0.0, 0.0, 0.0, 0.0, 1.7103876820266335E9, 0.0, 2024-03-13 20:41:22.026
21.0, -182.94655608246103, 589.3988832668401, 47.20127734076232, 462.80139981675893, 0.01600000075995922, -0.19200000911951065, 1.0400000493973494, 0.0, 0.0, 0.0, 0.0, 0.0, 1.7103876820266335E9, 0.0, 2024-03-13 20:41:22.026
22.0, -385.72206172998995, 648.919391061645, -167.63166576391086, 513.9632312105969, 0.01600000075995922, -0.19200000911951065, 1.0400000493973494, 0.0, 0.0, 0.0, 0.0, 0.0, 1.7103876820273983E9, 0.0, 2024-03-13 20:41:22.027
22.0, -264.0855555711314, 663.8789908844046, -27.99128121836111, 470.87210392113775, 0.01600000075995922, -0.19200000911951065, 1.0400000493973494, 0.0, 0.0, 0.0, 0.0, 0.0, 1.7103876820273983E9, 0.0, 2024-03-13 20:41:22.027
23.0, -129.77265851246193, 612.6311417915858, 105.61103484872729, 452.8532659346238, 0.01600000075995922, -0.19200000911951065, 1.0400000493973494, 0.0, 0.0, 0.0, 0.0, 0.0, 1.7103876820408883E9, 0.0, 2024-03-13 20:41:22.040
23.0, -25.881977643352002, 444.4796299338341, 185.76083079911768, 319.10883366921917, 0.01600000075995922, -0.19200000911951065, 1.0400000493973494, 0.0, 0.0, 0.0, 0.0, 0.0, 1.7103876820408883E9, 0.0, 2024-03-13 20:41:22.040
24.0, -211.6970369918272, 296.7853708337061, 6.584093871992081, 120.92218526732177, 0.01600000075995922, -0.19200000911951065, 1.0400000493973494, 0.0, 0.0, 0.0, 0.0, 0.0, 1.7103876820569544E9, 0.0, 2024-03-13 20:41:22.056
24.0, -14.075113483238965, 246.21818353282288, 213.1406383747235, 69.86133117228746, 0.01600000075995922, -0.19200000911951065, 1.0400000493973494, 0.0, 0.0, 0.0, 0.0, 0.0, 1.7103876820569544E9, 0.0, 2024-03-13 20:41:22.056
25.0, -139.62729489570484, 228.427479443606, 66.4393227128312, 103.09034227859229, 0.01600000075995922, -0.19200000911951065, 1.0400000493973494, 0.0, 0.0, 0.0, 0.0, 0.0, 1.710387682057619E9, 0.0, 2024-03-13 20:41:22.057
25.0, -256.43372026178986, 289.0811769249849, -52.62974212644622, 128.42442457843572, 0.01600000075995922, -0.19200000911951065, 1.0400000493973494, 0.0, 0.0, 0.0, 0.0, 0.0, 1.710387682057619E9, 0.0, 2024-03-13 20:41:22.057
26.0, -374.00869506876916, 456.3276329934597, -136.32496323483065, 270.72574794245884, 0.01600000075995922, -0.19200000911951065, 1.0400000493973494, 0.0, 0.0, 0.0, 0.0, 0.0, 1.7103876820708995E9, 0.0, 2024-03-13 20:41:22.070
26.0, -205.8945822105743, 582.0611995537765, 43.97748357895762, 451.5143817504868, 0.01600000075995922, -0.19200000911951065, 1.0400000493973494, 0.0, 0.0, 0.0, 0.0, 0.0, 1.7103876820708995E9, 0.0, 2024-03-13 20:41:22.070
27.0, -387.1918424125761, 646.121945894789, -163.5402152123861, 515.6387063907459, 0.01600000075995922, -0.19200000911951065, 1.0400000493973494, 0.0, 0.0, 0.0, 0.0, 0.0, 1.710387682086799E9, 0.0, 2024-03-13 20:41:22.086
27.0, -244.95970719773322, 673.1202836749144, -17.97956903697923, 480.80901810340583, 0.01600000075995922, -0.19200000911951065, 1.0400000493973494, 0.0, 0.0, 0.0, 0.0, 0.0, 1.710387682086799E9, 0.0, 2024-03-13 20:41:22.086
28.0, -129.69038071343675, 604.2874249904417, 102.4582991860807, 444.0158823393285, 0.01600000075995922, -0.19200000911951065, 1.0400000493973494, 0.0, 0.0, 0.0, 0.0, 0.0, 1.710387682087636E9, 0.0, 2024-03-13 20:41:22.087
28.0, -35.762793326284736, 428.55513592250645, 174.80292392894626, 306.9391992134042, 0.01600000075995922, -0.19200000911951065, 1.0400000493973494, 0.0, 0.0, 0.0, 0.0, 0.0, 1.710387682087636E9, 0.0, 2024-03-13 20:41:22.087
29.0, -212.31038058456033, 290.54347780765966, 0.08414774900302291, 111.8304884750396, 0.01600000075995922, -0.19200000911951065, 1.0400000493973494, 0.0, 0.0, 0.0, 0.0, 0.0, 1.7103876821008708E9, 0.0, 2024-03-13 20:41:22.100
29.0, -14.097552882973105, 245.49638284137473, 213.2864944729954, 60.919230378232896, 0.01600000075995922, -0.19200000911951065, 1.0400000493973494, 0.0, 0.0, 0.0, 0.0, 0.0, 1.7103876821008708E9, 0.0, 2024-03-13 20:41:22.100
30.0, -142.92962655657902, 211.31369724636897, 61.008987977169454, 87.91008835844696, 0.01600000075995922, -0.19200000911951065, 1.0400000493973494, 0.0, 0.0, 0.0, 0.0, 0.0, 1.7103876821166608E9, 0.0, 2024-03-13 20:41:22.116
30.0, -261.10859520640224, 277.5585451615043, -62.18518651323393, 118.26311639882624, 0.01600000075995922, -0.19200000911951065, 1.0400000493973494, 0.0, 0.0, 0.0, 0.0, 0.0, 1.7103876821166608E9, 0.0, 2024-03-13 20:41:22.116
31.0, -370.766201807186, 446.5889335088432, -146.80790281062946, 255.2537818257697, 0.01600000075995922, -0.19200000911951065, 1.0400000493973494, 0.0, 0.0, 0.0, 0.0, 0.0, 1.71038768211735E9, 0.0, 2024-03-13 20:41:22.117
31.0, -192.46086156973615, 569.9289640975185, 29.859361246228218, 436.2443702314049, 0.01600000075995922, -0.19200000911951065, 1.0400000493973494, 0.0, 0.0, 0.0, 0.0, 0.0, 1.71038768211735E9, 0.0, 2024-03-13 20:41:22.117
32.0, -373.79552077129483, 642.2474095406942, -177.30678694928065, 505.96732510533184, 0.01600000075995922, -0.19200000911951065, 1.0400000493973494, 0.0, 0.0, 0.0, 0.0, 0.0, 1.710387682130864E9, 0.0, 2024-03-13 20:41:22.130
32.0, -259.29474372789264, 658.5084945480339, -37.486887205857784, 464.90322359185666, 0.01600000075995922, -0.19200000911951065, 1.0400000493973494, 0.0, 0.0, 0.0, 0.0, 0.0, 1.710387682130864E9, 0.0, 2024-03-13 20:41:22.130
33.0, -118.56417834525928, 603.4496874003671, 101.94967279210687, 444.8012613300234, 0.01600000075995922, -0.19200000911951065, 1.0400000493973494, 0.0, 0.0, 0.0, 0.0, 0.0, 1.7103876821466691E9, 0.0, 2024-03-13 20:41:22.146
33.0, -41.911188853438944, 416.13492816966027, 156.57465154491365, 291.4934123964049, 0.01600000075995922, -0.19200000911951065, 1.0400000493973494, 0.0, 0.0, 0.0, 0.0, 0.0, 1.7103876821466691E9, 0.0, 2024-03-13 20:41:22.146
34.0, -224.52863373979926, 274.6975216954015, -10.967256620060652, 103.14270087797195, 0.01600000075995922, -0.19200000911951065, 1.0400000493973494, 0.0, 0.0, 0.0, 0.0, 0.0, 1.7103876821473832E9, 0.0, 2024-03-13 20:41:22.147
34.0, 0.6002539428882301, 260.48964176373556, 230.5947514679283, 80.49760664626956, 0.01600000075995922, -0.19200000911951065, 1.0400000493973494, 0.0, 0.0, 0.0, 0.0, 0.0, 1.7103876821473832E9, 0.0, 2024-03-13 20:41:22.147
35.0, -152.75060384022072, 212.44688693294302, 58.910904102027416, 94.86630227603018, 0.01600000075995922, -0.19200000911951065, 1.0400000493973494, 0.0, 0.0, 0.0, 0.0, 0.0, 1.7103876821608517E9, 0.0, 2024-03-13 20:41:22.160
35.0, -265.25988415721804, 284.28288528183475, -52.47640622826293, 130.90771814901382, 0.01600000075995922, -0.19200000911951065, 1.0400000493973494, 0.0, 0.0, 0.0, 0.0, 0.0, 1.7103876821608517E9, 0.0, 2024-03-13 20:41:22.160
36.0, -393.23926064092666, 452.9168442338705, -140.29299708781764, 263.2085490315221, 0.01600000075995922, -0.19200000911951065, 1.0400000493973494, 0.0, 0.0, 0.0, 0.0, 0.0, 1.7103876821768062E9, 0.0, 2024-03-13 20:41:22.176
36.0, -213.43422052124515, 576.9375366144814, 24.95261250436306, 445.78485501836985, 0.01600000075995922, -0.19200000911951065, 1.0400000493973494, 0.0, 0.0, 0.0, 0.0, 0.0, 1.7103876821768062E9, 0.0, 2024-03-13 20:41:22.176
37.0, -352.14523992780596, 651.3391063329764, -170.7619620268233, 517.1309264730662, 0.01600000075995922, -0.19200000911951065, 1.0400000493973494, 0.0, 0.0, 0.0, 0.0, 0.0, 1.7103876821776583E9, 0.0, 2024-03-13 20:41:22.177
37.0, -250.03849133756012, 679.0929039041512, -15.844086162280291, 492.4251473657787, 0.01600000075995922, -0.19200000911951065, 1.0400000493973494, 0.0, 0.0, 0.0, 0.0, 0.0, 1.7103876821776583E9, 0.0, 2024-03-13 20:41:22.177
38.0, -139.2346054003574, 598.3896027603187, 101.57568279653788, 440.23484348412603, 0.01600000075995922, -0.19200000911951065, 1.0400000493973494, 0.0, 0.0, 0.0, 0.0, 0.0, 1.710387682190873E9, 0.0, 2024-03-13 20:41:22.190
38.0, -50.80093104811385, 417.6159285521135, 165.7037473367527, 300.0951822944917, 0.01600000075995922, -0.19200000911951065, 1.0400000493973494, 0.0, 0.0, 0.0, 0.0, 0.0, 1.710387682190873E9, 0.0, 2024-03-13 20:41:22.190
39.0, -219.68546329718083, 306.44179251929745, 16.823939950671047, 136.34553268458694, 0.01600000075995922, -0.19200000911951065, 1.0400000493973494, 0.0, 0.0, 0.0, 0.0, 0.0, 1.7103876822068624E9, 0.0, 2024-03-13 20:41:22.206
39.0, -4.321454398799688, 268.38831047015265, 232.80129244178534, 93.05993059743196, 0.01600000075995922, -0.19200000911951065, 1.0400000493973494, 0.0, 0.0, 0.0, 0.0, 0.0, 1.7103876822068624E9, 0.0, 2024-03-13 20:41:22.206
40.0, -157.6835318817757, 204.58935712603852, 57.792674015276134, 85.0789840919897, 0.01600000075995922, -0.19200000911951065, 1.0400000493973494, 0.0, 0.0, 0.0, 0.0, 0.0, 1.7103876822075453E9, 0.0, 2024-03-13 20:41:22.207
40.0, -268.8015694152564, 290.3041242104955, -46.4102885001339, 136.59610598161817, 0.01600000075995922, -0.19200000911951065, 1.0400000493973494, 0.0, 0.0, 0.0, 0.0, 0.0, 1.7103876822075453E9, 0.0, 2024-03-13 20:41:22.207
41.0, -361.4613307174295, 470.50185382552445, -133.4489801689051, 276.4440549747087, 0.01600000075995922, -0.19200000911951065, 1.0400000493973494, 0.0, 0.0, 0.0, 0.0, 0.0, 1.7103876822208753E9, 0.0, 2024-03-13 20:41:22.220
41.0, -184.5472332634963, 591.3735504434444, 45.320107663050294, 455.50111510325223, 0.01600000075995922, -0.19200000911951065, 1.0400000493973494, 0.0, 0.0, 0.0, 0.0, 0.0, 1.7103876822208753E9, 0.0, 2024-03-13 20:41:22.220
42.0, -386.86273121647537, 647.0606607836671, -179.509588023182, 507.0930349919945, 0.03200000151991844, -0.19200000911951065, 1.0400000493973494, 0.0, 0.0, 0.0, 0.0, 0.0, 1.7103876822365594E9, 0.0, 2024-03-13 20:41:22.236
42.0, -253.6400149948895, 677.9484945177101, -22.979815277736634, 484.3020846620202, 0.03200000151991844, -0.19200000911951065, 1.0400000493973494, 0.0, 0.0, 0.0, 0.0, 0.0, 1.7103876822365594E9, 0.0, 2024-03-13 20:41:22.236
43.0, -127.47635993966833, 618.6673403200693, 106.37771433964372, 456.5856860904023, 0.03200000151991844, -0.19200000911951065, 1.0400000493973494, 0.0, 0.0, 0.0, 0.0, 0.0, 1.710387682237396E9, 0.0, 2024-03-13 20:41:22.237
43.0, -29.891150395851582, 442.2506495602429, 177.83224289305508, 313.177352339495, 0.03200000151991844, -0.19200000911951065, 1.0400000493973494, 0.0, 0.0, 0.0, 0.0, 0.0, 1.710387682237396E9, 0.0, 2024-03-13 20:41:22.237
44.0, -206.64817205164582, 319.8717732601799, 20.481562107335776, 140.14901093952358, 0.03200000151991844, -0.19200000911951065, 1.0400000493973494, 0.0, 0.0, 0.0, 0.0, 0.0, 1.7103876822508533E9, 0.0, 2024-03-13 20:41:22.250
44.0, -13.185017293784767, 266.24534779554233, 228.48544789291918, 82.69292792025954, 0.03200000151991844, -0.19200000911951065, 1.0400000493973494, 0.0, 0.0, 0.0, 0.0, 0.0, 1.7103876822508533E9, 0.0, 2024-03-13 20:41:22.250
45.0, -164.11989970551804, 214.642208206933, 52.68771057575941, 85.5950902858749, 0.03200000151991844, -0.19200000911951065, 1.0400000493973494, 0.0, 0.0, 0.0, 0.0, 0.0, 1.7103876822666163E9, 0.0, 2024-03-13 20:41:22.266
45.0, -276.99569021817297, 281.24982641777024, -73.13561358349398, 117.34310100972652, 0.03200000151991844, -0.19200000911951065, 1.0400000493973494, 0.0, 0.0, 0.0, 0.0, 0.0, 1.7103876822666163E9, 0.0, 2024-03-13 20:41:22.266
46.0, -366.0202687634155, 470.1428234297782, -142.1966061652638, 271.71682143071666, 0.03200000151991844, -0.19200000911951065, 1.0400000493973494, 0.0, 0.0, 0.0, 0.0, 0.0, 1.710387682267388E9, 0.0, 2024-03-13 20:41:22.267
46.0, -180.64277770975605, 593.5389525177889, 37.75055015273392, 448.86653258185834, 0.03200000151991844, -0.19200000911951065, 1.0400000493973494, 0.0, 0.0, 0.0, 0.0, 0.0, 1.710387682267388E9, 0.0, 2024-03-13 20:41:22.267
47.0, -377.35216562915593, 649.8394064507447, -180.0331740169786, 506.5432696985081, 0.03200000151991844, -0.19200000911951065, 1.0400000493973494, 0.0, 0.0, 0.0, 0.0, 0.0, 1.7103876822809114E9, 0.0, 2024-03-13 20:41:22.280
47.0, -259.2274255286902, 664.9785214713775, -37.92819540062919, 469.0694721424952, 0.03200000151991844, -0.19200000911951065, 1.0400000493973494, 0.0, 0.0, 0.0, 0.0, 0.0, 1.7103876822809114E9, 0.0, 2024-03-13 20:41:22.280
48.0, -117.63668315624818, 616.1578674498014, 105.63347424846143, 454.2482486180961, 0.03200000151991844, -0.19200000911951065, 1.0400000493973494, 0.0, 0.0, 0.0, 0.0, 0.0, 1.7103876822968931E9, 0.0, 2024-03-13 20:41:22.296
48.0, -36.56313191680238, 425.7651705555618, 159.68250840809196, 301.4527659784071, 0.03200000151991844, -0.19200000911951065, 1.0400000493973494, 0.0, 0.0, 0.0, 0.0, 0.0, 1.7103876822968931E9, 0.0, 2024-03-13 20:41:22.296
49.0, -223.35056525375694, 293.7074331701733, -10.477329725865275, 115.26745653431863, 0.03200000151991844, -0.19200000911951065, 1.0400000493973494, 0.0, 0.0, 0.0, 0.0, 0.0, 1.7103876822975733E9, 0.0, 2024-03-13 20:41:22.297
49.0, 6.404578674118966, 267.46455518109724, 227.49437440466136, 83.39228921197355, 0.03200000151991844, -0.19200000911951065, 1.0400000493973494, 0.0, 0.0, 0.0, 0.0, 0.0, 1.7103876822975733E9, 0.0, 2024-03-13 20:41:22.297
50.0, -136.02577123837546, 222.17810661764815, 58.81740660313517, 88.66554814949632, 0.03200000151991844, -0.19200000911951065, 1.0560000501573086, 0.0, 0.0, 0.0, 0.0, 0.0, 1.7103876823118129E9, 0.0, 2024-03-13 20:41:22.311
50.0, -260.2259788168594, 285.92096146242693, -74.33238156931475, 117.13740651216358, 0.03200000151991844, -0.19200000911951065, 1.0560000501573086, 0.0, 0.0, 0.0, 0.0, 0.0, 1.7103876823118129E9, 0.0, 2024-03-13 20:41:22.311
51.0, -356.4349051769823, 472.05017240718007, -144.44428603863344, 267.2999995830469, 0.03200000151991844, -0.19200000911951065, 1.0560000501573086, 0.0, 0.0, 0.0, 0.0, 0.0, 1.7103876823269353E9, 0.0, 2024-03-13 20:41:22.326
51.0, -182.1088184923865, 592.1439698343165, 25.625794496387243, 441.3979523703456, 0.03200000151991844, -0.19200000911951065, 1.0560000501573086, 0.0, 0.0, 0.0, 0.0, 0.0, 1.7103876823269353E9, 0.0, 2024-03-13 20:41:22.326
52.0, -377.9879486216232, 649.2260628580116, -181.547833499033, 504.1572135267779, 0.01600000075995922, -0.19200000911951065, 1.0560000501573086, 0.0, 0.0, 0.0, 0.0, 0.0, 1.7103876823274684E9, 0.0, 2024-03-13 20:41:22.327
52.0, -256.6319349594414, 664.8663244727068, -31.431989177595824, 474.39882957935333, 0.01600000075995922, -0.19200000911951065, 1.0560000501573086, 0.0, 0.0, 0.0, 0.0, 0.0, 1.7103876823274684E9, 0.0, 2024-03-13 20:41:22.327
53.0, -128.53101172717288, 611.2922576074488, 99.23824532423168, 446.75722900684923, 0.01600000075995922, -0.19200000911951065, 1.0560000501573086, 0.0, 0.0, 0.0, 0.0, 0.0, 1.710387682341014E9, 0.0, 2024-03-13 20:41:22.341
53.0, -33.12242395756766, 425.0807688636705, 161.35050378832966, 296.50861823698506, 0.01600000075995922, -0.19200000911951065, 1.0560000501573086, 0.0, 0.0, 0.0, 0.0, 0.0, 1.710387682341014E9, 0.0, 2024-03-13 20:41:22.341
54.0, -215.7323890440166, 290.4163212091662, -9.564794136676937, 109.4967909026891, 0.01600000075995922, -0.19200000911951065, 1.0560000501573086, 0.0, 0.0, 0.0, 0.0, 0.0, 1.7103876823566232E9, 0.0, 2024-03-13 20:41:22.356
54.0, -10.623185824137181, 248.2863482083194, 207.1754979453981, 64.1766832396388, 0.01600000075995922, -0.19200000911951065, 1.0560000501573086, 0.0, 0.0, 0.0, 0.0, 0.0, 1.7103876823566232E9, 0.0, 2024-03-13 20:41:22.356
55.0, -156.78221599245444, 200.1126968790777, 48.98894951958209, 76.82502488978207, 0.01600000075995922, -0.19200000911951065, 1.0560000501573086, 0.0, 0.0, 0.0, 0.0, 0.0, 1.7103876823575108E9, 0.0, 2024-03-13 20:41:22.357
55.0, -258.5280642369762, 295.39786795014516, -58.16479406086728, 132.3550594318658, 0.01600000075995922, -0.19200000911951065, 1.0560000501573086, 0.0, 0.0, 0.0, 0.0, 0.0, 1.7103876823575108E9, 0.0, 2024-03-13 20:41:22.357
56.0, -348.6446935692802, 479.1634621229023, -137.58156961994246, 278.3439241521992, 0.01600000075995922, -0.19200000911951065, 1.0560000501573086, 0.0, 0.0, 0.0, 0.0, 0.0, 1.710387682370885E9, 0.0, 2024-03-13 20:41:22.370
56.0, -185.0371601576917, 588.254473880399, 34.036829496733844, 447.75578229501843, 0.01600000075995922, -0.19200000911951065, 1.0560000501573086, 0.0, 0.0, 0.0, 0.0, 0.0, 1.710387682370885E9, 0.0, 2024-03-13 20:41:22.370
57.0, -389.0468327905983, 644.0201221196912, -177.9163906420581, 508.37582067679614, 0.01600000075995922, -0.19200000911951065, 1.0560000501573086, 0.0, 0.0, 0.0, 0.0, 0.0, 1.710387682386622E9, 0.0, 2024-03-13 20:41:22.386
57.0, -258.5991223361343, 675.9850470409729, -28.137137316633016, 477.1850550463423, 0.01600000075995922, -0.19200000911951065, 1.0560000501573086, 0.0, 0.0, 0.0, 0.0, 0.0, 1.710387682386622E9, 0.0, 2024-03-13 20:41:22.386
58.0, -116.67178896768019, 632.2656165589578, 111.60235457774252, 465.20989538822323, 0.01600000075995922, -0.19200000911951065, 1.0560000501573086, 0.0, 0.0, 0.0, 0.0, 0.0, 1.7103876823874469E9, 0.0, 2024-03-13 20:41:22.387
58.0, -50.80841084802523, 417.29055725596845, 155.47512095794082, 291.3699956978671, 0.01600000075995922, -0.19200000911951065, 1.0560000501573086, 0.0, 0.0, 0.0, 0.0, 0.0, 1.7103876823874469E9, 0.0, 2024-03-13 20:41:22.387
59.0, -205.6907576629892, 306.5689491177909, 2.4814236206002533, 123.80938803311437, 0.01600000075995922, -0.19200000911951065, 1.0560000501573086, 0.0, 0.0, 0.0, 0.0, 0.0, 1.7103876824009516E9, 0.0, 2024-03-13 20:41:22.400
59.0, -18.30494033312425, 253.05098075186834, 216.1400381391868, 68.06617919355631, 0.01600000075995922, -0.19200000911951065, 1.0560000501573086, 0.0, 0.0, 0.0, 0.0, 0.0, 1.7103876824009516E9, 0.0, 2024-03-13 20:41:22.400
60.0, -158.10614057676867, 195.39668303495273, 35.674905677326024, 65.02564052958041, 0.01600000075995922, -0.19200000911951065, 1.0560000501573086, 0.0, 0.0, 0.0, 0.0, 0.0, 1.7103876824329395E9, 0.0, 2024-03-13 20:41:22.432
60.0, -255.3080103751272, 286.788618252147, -64.7544977827929, 116.76715641655028, 0.01600000075995922, -0.19200000911951065, 1.0560000501573086, 0.0, 0.0, 0.0, 0.0, 0.0, 1.7103876824329395E9, 0.0, 2024-03-13 20:41:22.432
61.0, -368.4250244349241, 459.1063786605373, -145.6821929239668, 261.9519426464103, 0.01600000075995922, -0.19200000911951065, 1.0560000501573086, 0.0, 0.0, 0.0, 0.0, 0.0, 1.71038768243366E9, 0.0, 2024-03-13 20:41:22.433
61.0, -185.10073845693842, 579.9967747782357, 27.256390877068043, 438.04326211009175, 0.01600000075995922, -0.19200000911951065, 1.0560000501573086, 0.0, 0.0, 0.0, 0.0, 0.0, 1.71038768243366E9, 0.0, 2024-03-13 20:41:22.433
62.0, -376.4433699399233, 642.3970055389218, -182.82313938392326, 503.0913420394063, 0.0, -0.19200000911951065, 1.0560000501573086, 0.0, 0.0, 0.0, 0.0, 0.0, 1.7103876824343865E9, 0.0, 2024-03-13 20:41:22.434
62.0, -260.0053247194737, 656.5936657707207, -37.74494030280039, 463.75507430545986, 0.0, -0.19200000911951065, 1.0560000501573086, 0.0, 0.0, 0.0, 0.0, 0.0, 1.7103876824343865E9, 0.0, 2024-03-13 20:41:22.434
63.0, -132.2634318829514, 608.2965977429412, 104.65362046007067, 450.01468186825514, 0.0, -0.19200000911951065, 1.0560000501573086, 0.0, 0.0, 0.0, 0.0, 0.0, 1.7103876824351845E9, 0.0, 2024-03-13 20:41:22.435
63.0, -44.99660631688312, 411.1272021289915, 154.9627546640113, 292.5705035836436, 0.0, -0.19200000911951065, 1.0560000501573086, 0.0, 0.0, 0.0, 0.0, 0.0, 1.7103876824351845E9, 0.0, 2024-03-13 20:41:22.435
64.0, -212.34029978420585, 292.92205417947844, -7.807041157502681, 112.28301636967808, 0.0, -0.19200000911951065, 1.0560000501573086, 0.0, 0.0, 0.0, 0.0, 0.0, 1.7103876824460888E9, 0.0, 2024-03-13 20:41:22.446
64.0, 7.313374363351613, 269.7010153545998, 230.8116656653583, 84.48060009907931, 0.0, -0.19200000911951065, 1.0560000501573086, 0.0, 0.0, 0.0, 0.0, 0.0, 1.7103876824460888E9, 0.0, 2024-03-13 20:41:22.446
65.0, -142.1966061652638, 215.99231209093705, 59.68132349289954, 93.94628688693047, 0.0, -0.19200000911951065, 1.0560000501573086, 0.0, 0.0, 0.0, 0.0, 0.0, 1.710387682461016E9, 0.0, 2024-03-13 20:41:22.461
65.0, -253.70359329413623, 293.6812538704835, -54.6006694030948, 138.00604826491326, 0.0, -0.19200000911951065, 1.0560000501573086, 0.0, 0.0, 0.0, 0.0, 0.0, 1.710387682461016E9, 0.0, 2024-03-13 20:41:22.461
66.0, -347.6573599809781, 485.54747134726495, -121.0773911154829, 294.0814231657423, 0.0, -0.19200000911951065, 1.0560000501573086, 0.0, 0.0, 0.0, 0.0, 0.0, 1.7103876824770055E9, 0.0, 2024-03-13 20:41:22.477
66.0, -172.6880105040036, 608.1170825450681, 52.23518268112093, 461.6569904303178, 0.0, -0.19200000911951065, 1.0560000501573086, 0.0, 0.0, 0.0, 0.0, 0.0, 1.7103876824770055E9, 0.0, 2024-03-13 20:41:22.477
67.0, -380.01123449765146, 650.4714495432563, -180.03691391693428, 510.70951824914664, 0.0, -0.19200000911951065, 1.0560000501573086, 0.0, 0.0, 0.0, 0.0, 0.0, 1.7103876824773624E9, 0.0, 2024-03-13 20:41:22.477
67.0, -257.9296802440658, 676.4039158360101, -28.103478217031807, 482.664008481428, 0.0, -0.19200000911951065, 1.0560000501573086, 0.0, 0.0, 0.0, 0.0, 0.0, 1.7103876824773624E9, 0.0, 2024-03-13 20:41:22.477
68.0, -139.70209289481863, 601.9537274180911, 103.35961507540196, 448.5411612857133, 0.0, -0.19200000911951065, 1.0560000501573086, 0.0, 0.0, 0.0, 0.0, 0.0, 1.7103876824908628E9, 0.0, 2024-03-13 20:41:22.490
68.0, -45.422954911831766, 416.44159996602684, 152.19148879684508, 293.40076137380674, 0.0, -0.19200000911951065, 1.0560000501573086, 0.0, 0.0, 0.0, 0.0, 0.0, 1.7103876824908628E9, 0.0, 2024-03-13 20:41:22.490
69.0, -226.1854094201699, 297.55205032462254, -9.931304332334548, 120.1293264767155, 0.0, -0.19200000911951065, 1.0560000501573086, 0.0, 0.0, 0.0, 0.0, 0.0, 1.7103876825065901E9, 0.0, 2024-03-13 20:41:22.506
69.0, -16.517268154304475, 261.89958404703066, 224.9549823347479, 82.52837232220918, 0.0, -0.19200000911951065, 1.0560000501573086, 0.0, 0.0, 0.0, 0.0, 0.0, 1.7103876825065901E9, 0.0, 2024-03-13 20:41:22.506
70.0, -161.13919944083318, 202.4463944514282, 62.972435453906655, 85.83070398308337, 0.0, -0.19200000911951065, 1.0560000501573086, 0.0, 0.0, 0.0, 0.0, 0.0, 1.710387682507594E9, 0.0, 2024-03-13 20:41:22.507
70.0, -261.2020927052945, 293.494258872699, -47.14704879140481, 137.65075776912272, 0.0, -0.19200000911951065, 1.0560000501573086, 0.0, 0.0, 0.0, 0.0, 0.0, 1.710387682507594E9, 0.0, 2024-03-13 20:41:22.507
71.0, -373.3280332768336, 469.7763132341206, -127.86904943501577, 276.5674716732465, 0.0, -0.19200000911951065, 1.0560000501573086, 0.0, 0.0, 0.0, 0.0, 0.0, 1.7103876825208645E9, 0.0, 2024-03-13 20:41:22.520
71.0, -176.33815286075696, 589.3390448675491, 46.513135748915374, 453.75084192398936, 0.0, -0.19200000911951065, 1.0560000501573086, 0.0, 0.0, 0.0, 0.0, 0.0, 1.7103876825208645E9, 0.0, 2024-03-13 20:41:22.520
72.0, -392.2594068525359, 631.3568208697252, -184.19194276770577, 495.96309272386134, 0.01600000075995922, -0.19200000911951065, 1.0560000501573086, 0.0, 0.0, 0.0, 0.0, 0.0, 1.710387682536579E9, 0.0, 2024-03-13 20:41:22.536
72.0, -253.91676759161055, 666.612857752014, -31.14027698105201, 475.8947895616293, 0.01600000075995922, -0.19200000911951065, 1.0560000501573086, 0.0, 0.0, 0.0, 0.0, 0.0, 1.710387682536579E9, 0.0, 2024-03-13 20:41:22.536
73.0, -127.40904174046591, 598.4195219599642, 98.38554813433439, 443.08838715031743, 0.01600000075995922, -0.19200000911951065, 1.0560000501573086, 0.0, 0.0, 0.0, 0.0, 0.0, 1.7103876825372877E9, 0.0, 2024-03-13 20:41:22.537
73.0, -22.093458988238126, 424.7516576675698, 168.39273540489376, 301.65472057601437, 0.01600000075995922, -0.19200000911951065, 1.0560000501573086, 0.0, 0.0, 0.0, 0.0, 0.0, 1.7103876825372877E9, 0.0, 2024-03-13 20:41:22.537
74.0, -203.64503238722682, 300.091442394536, -2.6721585183404386, 121.17275856435299, 0.01600000075995922, -0.19200000911951065, 1.0560000501573086, 0.0, 0.0, 0.0, 0.0, 0.0, 1.7103876825508792E9, 0.0, 2024-03-13 20:41:22.550
74.0, -2.982570214662701, 254.83491303073242, 223.9975679460913, 74.86157741304487, 0.01600000075995922, -0.19200000911951065, 1.0560000501573086, 0.0, 0.0, 0.0, 0.0, 0.0, 1.7103876825508792E9, 0.0, 2024-03-13 20:41:22.550
75.0, -158.39785277331248, 193.1452632616274, 55.45897644292563, 73.1075643338263, 0.01600000075995922, -0.19200000911951065, 1.0560000501573086, 0.0, 0.0, 0.0, 0.0, 0.0, 1.7103876825666063E9, 0.0, 2024-03-13 20:41:22.566
75.0, -269.4672716073692, 279.65662903664634, -54.757745201233774, 128.23742958065122, 0.01600000075995922, -0.19200000911951065, 1.0560000501573086, 0.0, 0.0, 0.0, 0.0, 0.0, 1.7103876825666063E9, 0.0, 2024-03-13 20:41:22.566
76.0, -364.2512960843742, 468.2205148525536, -125.90560195827857, 281.79585181130096, 0.01600000075995922, -0.19200000911951065, 1.0560000501573086, 0.0, 0.0, 0.0, 0.0, 0.0, 1.710387682567417E9, 0.0, 2024-03-13 20:41:22.567
76.0, -208.32177728181705, 579.5816458831541, 41.88687950372696, 442.0935737621039, 0.01600000075995922, -0.19200000911951065, 1.0560000501573086, 0.0, 0.0, 0.0, 0.0, 0.0, 1.710387682567417E9, 0.0, 2024-03-13 20:41:22.567
77.0, -412.01355841849, 628.8810070990585, -183.5112809757702, 495.09917583409697, 0.01600000075995922, -0.19200000911951065, 1.0560000501573086, 0.0, 0.0, 0.0, 0.0, 0.0, 1.7103876825813415E9, 0.0, 2024-03-13 20:41:22.581
77.0, -257.4921119492501, 655.4230770845897, -32.243547467980534, 470.3447780273855, 0.01600000075995922, -0.19200000911951065, 1.0560000501573086, 0.0, 0.0, 0.0, 0.0, 0.0, 1.7103876825813415E9, 0.0, 2024-03-13 20:41:22.581
78.0, -140.8278027814813, 590.8948432491161, 96.65023455489427, 434.18742525577545, 0.01600000075995922, -0.19200000911951065, 1.0560000501573086, 0.0, 0.0, 0.0, 0.0, 0.0, 1.7103876825966096E9, 0.0, 2024-03-13 20:41:22.596
78.0, -49.4134281645529, 403.6361825177446, 158.1154903266579, 281.28722541732714, 0.01600000075995922, -0.19200000911951065, 1.0560000501573086, 0.0, 0.0, 0.0, 0.0, 0.0, 1.7103876825966096E9, 0.0, 2024-03-13 20:41:22.596
79.0, -222.60632516257465, 286.0368983610533, -0.19260484771803021, 115.16273933555931, 0.01600000075995922, -0.19200000911951065, 1.0560000501573086, 0.0, 0.0, 0.0, 0.0, 0.0, 1.7103876825974104E9, 0.0, 2024-03-13 20:41:22.597
79.0, 1.445471332874149, 261.89958404703066, 234.8133586179465, 85.31833768915385, 0.01600000075995922, -0.19200000911951065, 1.0560000501573086, 0.0, 0.0, 0.0, 0.0, 0.0, 1.7103876825974104E9, 0.0, 2024-03-13 20:41:22.597
80.0, -163.99648300698027, 193.64266995573416, 53.49178906623274, 78.0741514749825, 0.01600000075995922, -0.19200000911951065, 1.0560000501573086, 0.0, 0.0, 0.0, 0.0, 0.0, 1.7103876826108773E9, 0.0, 2024-03-13 20:41:22.610
80.0, -284.40817193035036, 271.073558638338, -65.25190447689965, 117.33562120981514, 0.01600000075995922, -0.19200000911951065, 1.0560000501573086, 0.0, 0.0, 0.0, 0.0, 0.0, 1.7103876826108773E9, 0.0, 2024-03-13 20:41:22.610
81.0, -368.944870528765, 466.5599992722273, -128.60580972628668, 277.3640703638084, 0.01600000075995922, -0.19200000911951065, 1.0560000501573086, 0.0, 0.0, 0.0, 0.0, 0.0, 1.7103876826266036E9, 0.0, 2024-03-13 20:41:22.626
81.0, -191.8175987773575, 575.7856474281289, 35.36449398100376, 437.0671482216567, 0.01600000075995922, -0.19200000911951065, 1.0560000501573086, 0.0, 0.0, 0.0, 0.0, 0.0, 1.7103876826266036E9, 0.0, 2024-03-13 20:41:22.626
82.0, -392.98120754398406, 625.690872436855, -198.75137329520658, 484.17118816357106, 0.01600000075995922, -0.19200000911951065, 1.0560000501573086, 0.0, 0.0, 0.0, 0.0, 0.0, 1.7103876826273985E9, 0.0, 2024-03-13 20:41:22.627
82.0, -257.66040744725615, 658.4972748481669, -35.14944973355159, 463.8485718043521, 0.01600000075995922, -0.19200000911951065, 1.0560000501573086, 0.0, 0.0, 0.0, 0.0, 0.0, 1.7103876826273985E9, 0.0, 2024-03-13 20:41:22.627
83.0, -128.01864543324336, 599.1188832516782, 95.97705256287009, 435.92647873517126, 0.01600000075995922, -0.19200000911951065, 1.0560000501573086, 0.0, 0.0, 0.0, 0.0, 0.0, 1.7103876826408508E9, 0.0, 2024-03-13 20:41:22.640
83.0, -47.6332357856445, 406.62062268238515, 151.79131950158626, 283.46758709149435, 0.01600000075995922, -0.19200000911951065, 1.0560000501573086, 0.0, 0.0, 0.0, 0.0, 0.0, 1.7103876826408508E9, 0.0, 2024-03-13 20:41:22.640
84.0, -235.9315887046978, 286.09673676034436, -14.220969581510872, 105.63721414841712, 0.01600000075995922, -0.19200000911951065, 1.0560000501573086, 0.0, 0.0, 0.0, 0.0, 0.0, 1.7103876826566005E9, 0.0, 2024-03-13 20:41:22.656
84.0, -13.775921486783773, 249.6925505916588, 217.79307391960174, 68.72440158575773, 0.01600000075995922, -0.19200000911951065, 1.0560000501573086, 0.0, 0.0, 0.0, 0.0, 0.0, 1.7103876826566005E9, 0.0, 2024-03-13 20:41:22.656
85.0, -152.3878335445188, 191.7428007782437, 47.94177753198892, 68.64586368668824, 0.01600000075995922, -0.19200000911951065, 1.0560000501573086, 0.0, 0.0, 0.0, 0.0, 0.0, 1.7103876826574557E9, 0.0, 2024-03-13 20:41:22.657
85.0, -264.21645206958055, 282.35683680465445, -54.0808233092539, 128.66377817559987, 0.01600000075995922, -0.19200000911951065, 1.0560000501573086, 0.0, 0.0, 0.0, 0.0, 0.0, 1.7103876826574557E9, 0.0, 2024-03-13 20:41:22.657
86.0, -369.5544742215425, 459.4392297565937, -138.8232164052315, 271.9935740274377, 0.01600000075995922, -0.19200000911951065, 1.0560000501573086, 0.0, 0.0, 0.0, 0.0, 0.0, 1.7103876826708572E9, 0.0, 2024-03-13 20:41:22.670
86.0, -212.7834779289551, 563.3878790750168, 29.530250050127506, 429.609787710011, 0.01600000075995922, -0.19200000911951065, 1.0560000501573086, 0.0, 0.0, 0.0, 0.0, 0.0, 1.7103876826708572E9, 0.0, 2024-03-13 20:41:22.670
87.0, -378.78828721214086, 610.8621691125445, -201.79939175909385, 476.13040325883776, 0.01600000075995922, -0.19200000911951065, 1.0560000501573086, 0.0, 0.0, 0.0, 0.0, 0.0, 1.710387682686596E9, 0.0, 2024-03-13 20:41:22.686
87.0, -265.06914925947785, 652.0197681249119, -40.231973773334175, 466.42910277377814, 0.01600000075995922, -0.19200000911951065, 1.0560000501573086, 0.0, 0.0, 0.0, 0.0, 0.0, 1.710387682686596E9, 0.0, 2024-03-13 20:41:22.686
88.0, -129.14809521986172, 605.4692333764397, 107.04715643171221, 442.5498415566981, 0.01600000075995922, -0.19200000911951065, 1.0560000501573086, 0.0, 0.0, 0.0, 0.0, 0.0, 1.7103876826873577E9, 0.0, 2024-03-13 20:41:22.687
88.0, -49.79863785998896, 400.266532657668, 148.24963424354792, 280.8646167223342, 0.01600000075995922, -0.19200000911951065, 1.0560000501573086, 0.0, 0.0, 0.0, 0.0, 0.0, 1.7103876826873577E9, 0.0, 2024-03-13 20:41:22.687
89.0, -231.42500925809145, 279.53321233810857, -17.684116940479726, 102.48073858581483, 0.01600000075995922, -0.19200000911951065, 1.0560000501573086, 0.0, 0.0, 0.0, 0.0, 0.0, 1.710387682700857E9, 0.0, 2024-03-13 20:41:22.700
89.0, -1.0266025378368795, 266.05461289780214, -259.75662137242034, 85.60630998574197, 0.01600000075995922, -0.19200000911951065, 1.0560000501573086, 0.0, 0.0, 0.0, 0.0, 0.0, 1.710387682700857E9, 0.0, 2024-03-13 20:41:22.700
90.0, -160.71659074584022, 198.94210819294676, -437.95537446113303, 75.63947660382837, 0.01600000075995922, -0.19200000911951065, 1.0400000493973494, 0.0, 0.0, 0.0, 0.0, 0.0, 1.7103876827165804E9, 0.0, 2024-03-13 20:41:22.716
90.0, -266.37063444405794, 280.6364828250371, -550.0121268834919, 121.4270717613399, 0.01600000075995922, -0.19200000911951065, 1.0400000493973494, 0.0, 0.0, 0.0, 0.0, 0.0, 1.7103876827165804E9, 0.0, 2024-03-13 20:41:22.716
91.0, -360.6198532273993, 466.2608072757721, -627.9853010596707, 271.93747552810237, 0.01600000075995922, -0.19200000911951065, 1.0400000493973494, 0.0, 0.0, 0.0, 0.0, 0.0, 1.710387682717363E9, 0.0, 2024-03-13 20:41:22.717
91.0, -178.40631753625348, 581.7807070570998, -448.61782923480496, 446.7609689068049, 0.01600000075995922, -0.19200000911951065, 1.0400000493973494, 0.0, 0.0, 0.0, 0.0, 0.0, 1.710387682717363E9, 0.0, 2024-03-13 20:41:22.717
92.0, -386.8477716166526, 632.0150432619266, -675.5082097966224, 496.28472412005067, 0.01600000075995922, -0.19200000911951065, 1.0400000493973494, 0.0, 0.0, 0.0, 0.0, 0.0, 1.7103876827308524E9, 0.0, 2024-03-13 20:41:22.730
92.0, -253.9691261909902, 672.1703490861692, -521.1700184252113, 478.2584063336253, 0.01600000075995922, -0.19200000911951065, 1.0400000493973494, 0.0, 0.0, 0.0, 0.0, 0.0, 1.7103876827308524E9, 0.0, 2024-03-13 20:41:22.730
93.0, -139.85542879300192, 597.3648701724596, -395.70572466170415, 437.38129981793463, 0.01600000075995922, -0.19200000911951065, 1.0400000493973494, 0.0, 0.0, 0.0, 0.0, 0.0, 1.7103876827466955E9, 0.0, 2024-03-13 20:41:22.746
93.0, -36.87728351308033, 412.66430101078004, -326.08748698653653, 294.18240046454594, 0.01600000075995922, -0.19200000911951065, 1.0400000493973494, 0.0, 0.0, 0.0, 0.0, 0.0, 1.7103876827466955E9, 0.0, 2024-03-13 20:41:22.746
94.0, -214.40846445970237, 291.66170789441094, -491.50513197667897, 121.03438226599246, 0.01600000075995922, -0.19200000911951065, 1.0400000493973494, 0.0, 0.0, 0.0, 0.0, 0.0, 1.71038768274761E9, 0.0, 2024-03-13 20:41:22.747
94.0, -2.1822316241450608, 257.0975525039248, -259.34523237729445, 84.58531729783863, 0.01600000075995922, -0.19200000911951065, 1.0400000493973494, 0.0, 0.0, 0.0, 0.0, 0.0, 1.71038768274761E9, 0.0, 2024-03-13 20:41:22.747
95.0, -151.78196975169703, 198.05575190344825, -430.1838623532094, 86.64600217342377, 0.01600000075995922, -0.19200000911951065, 1.0400000493973494, 0.0, 0.0, 0.0, 0.0, 0.0, 1.7103876827608645E9, 0.0, 2024-03-13 20:41:22.760
95.0, -282.2839087555185, 278.4149822513573, -545.3858706383035, 130.1709578577429, 0.01600000075995922, -0.19200000911951065, 1.0400000493973494, 0.0, 0.0, 0.0, 0.0, 0.0, 1.7103876827608645E9, 0.0, 2024-03-13 20:41:22.760
96.0, -376.04320064466447, 474.7728195749223, -615.101345712319, 287.6712346416898, 0.01600000075995922, -0.19200000911951065, 1.0400000493973494, 0.0, 0.0, 0.0, 0.0, 0.0, 1.7103876827768693E9, 0.0, 2024-03-13 20:41:22.776
96.0, -172.77776810294017, 577.5434004073031, -451.10486270533875, 440.86314667668194, 0.01600000075995922, -0.19200000911951065, 1.0400000493973494, 0.0, 0.0, 0.0, 0.0, 0.0, 1.7103876827768693E9, 0.0, 2024-03-13 20:41:22.776
97.0, -392.27810635231435, 632.5087100560777, -676.1140735894442, 496.5053782174364, 0.01600000075995922, -0.19200000911951065, 1.0400000493973494, 0.0, 0.0, 0.0, 0.0, 0.0, 1.7103876827776537E9, 0.0, 2024-03-13 20:41:22.777
97.0, -266.9353593373671, 656.5936657707207, -526.6227925606072, 467.38277726247907, 0.01600000075995922, -0.19200000911951065, 1.0400000493973494, 0.0, 0.0, 0.0, 0.0, 0.0, 1.7103876827776537E9, 0.0, 2024-03-13 20:41:22.777
98.0, -118.62401674455032, 609.1268555331044, -377.1184218819253, 456.6642239894718, 0.01600000075995922, -0.19200000911951065, 1.0400000493973494, 0.0, 0.0, 0.0, 0.0, 0.0, 1.7103876827908962E9, 0.0, 2024-03-13 20:41:22.790
98.0, -38.09649089863524, 416.80437026172876, -324.4007921065204, 297.522131124977, 0.01600000075995922, -0.19200000911951065, 1.0400000493973494, 0.0, 0.0, 0.0, 0.0, 0.0, 1.7103876827908962E9, 0.0, 2024-03-13 20:41:22.790
99.0, -220.90093078278005, 298.8722350089811, -487.91856791917235, 126.5806539002806, 0.01600000075995922, -0.19200000911951065, 1.0400000493973494, 0.0, 0.0, 0.0, 0.0, 0.0, 1.7103876828066146E9, 0.0, 2024-03-13 20:41:22.806
99.0, 7.5863870601169765, 274.6638625958003, -247.362592919264, 98.85677552875131, 0.01600000075995922, -0.19200000911951065, 1.0400000493973494, 0.0, 0.0, 0.0, 0.0, 0.0, 1.7103876828066146E9, 0.0, 2024-03-13 20:41:22.806
100.0, -153.77907632803544, 201.6722351606004, -432.6634160238318, 81.23062703758478, 0.01600000075995922, -0.19200000911951065, 1.0400000493973494, 0.0, 0.0, 0.0, 0.0, 0.0, 1.7103876828074071E9, 0.0, 2024-03-13 20:41:22.807
100.0, -276.3823466254398, 283.08985719596967, -537.2852473342791, 132.77766812685877, 0.01600000075995922, -0.19200000911951065, 1.0400000493973494, 0.0, 0.0, 0.0, 0.0, 0.0, 1.7103876828074071E9, 0.0, 2024-03-13 20:41:22.807
0.0, -366.56255425699055, -12.932574046775699, -113.37319720676169, -195.68465533154085, 0.01600000075995922, -0.19200000911951065, 1.0400000493973494, 0.0, 0.0, 0.0, 0.0, 0.0, 1.7103876828216412E9, 0.0, 2024-03-13 20:41:22.821
1.0, -175.53781427023932, 97.16073089884594, 59.43822999577969, -29.78830314707011, 0.01600000075995922, -0.19200000911951065, 1.0400000493973494, 0.0, 0.0, 0.0, 0.0, 0.0, 1.710387682822586E9, 0.0, 2024-03-13 20:41:22.822
1.0, -388.3998300982639, 126.95651384582743, -177.90517094219103, 10.726033072918653, 0.01600000075995922, -0.19200000911951065, 1.0400000493973494, 0.0, 0.0, 0.0, 0.0, 0.0, 1.710387682822586E9, 0.0, 2024-03-13 20:41:22.822
2.0, -252.47316620871425, 175.49667537072673, -22.72550208074972, -4.517799146473408, 0.01600000075995922, -0.19200000911951065, 1.0400000493973494, 0.0, 0.0, 0.0, 0.0, 0.0, 1.7103876828359954E9, 0.0, 2024-03-13 20:41:22.835
2.0, -138.4529663096182, 105.77746039675549, 113.18059235904366, -38.850080739706755, 0.01600000075995922, -0.19200000911951065, 1.0400000493973494, 0.0, 0.0, 0.0, 0.0, 0.0, 1.7103876828359954E9, 0.0, 2024-03-13 20:41:22.835
3.0, -71.7929894994013, -98.96523262746632, 159.1888416139409, -205.64400891354308, 0.01600000075995922, -0.19200000911951065, 1.0400000493973494, 0.0, 0.0, 0.0, 0.0, 0.0, 1.710387682851581E9, 0.0, 2024-03-13 20:41:22.851
3.0, -231.31655215937644, -207.5999765903689, 1.00790303805843, -373.75438187178224, 0.01600000075995922, -0.19200000911951065, 1.0400000493973494, 0.0, 0.0, 0.0, 0.0, 0.0, 1.710387682851581E9, 0.0, 2024-03-13 20:41:22.851
4.0, -10.473589825909585, -232.5338895949535, 239.32741786446422, -401.06313134822994, 0.01600000075995922, -0.19200000911951065, 1.0400000493973494, 0.0, 0.0, 0.0, 0.0, 0.0, 1.7103876828527644E9, 0.0, 2024-03-13 20:41:22.852
4.0, -162.23499012785032, -297.2266790284775, 59.53920729458332, -414.799783885479, 0.01600000075995922, -0.19200000911951065, 1.0400000493973494, 0.0, 0.0, 0.0, 0.0, 0.0, 1.7103876828527644E9, 0.0, 2024-03-13 20:41:22.852
5.0, -276.37486682552844, -211.74004584131762, -59.01375135080889, -362.78899520169944, 0.01600000075995922, -0.19200000911951065, 1.0400000493973494, 0.0, 0.0, 0.0, 0.0, 0.0, 1.7103876828660336E9, 0.0, 2024-03-13 20:41:22.866
5.0, -346.1240009991452, -2.1990611739456654, -110.848764736671, -189.51008050469682, 0.01600000075995922, -0.19200000911951065, 1.0400000493973494, 0.0, 0.0, 0.0, 0.0, 0.0, 1.7103876828660336E9, 0.0, 2024-03-13 20:41:22.866
6.0, -183.46640217630193, 92.80748735042289, 47.332173839211464, -42.7620160933584, 0.01600000075995922, -0.19200000911951065, 1.0400000493973494, 0.0, 0.0, 0.0, 0.0, 0.0, 1.710387682881564E9, 0.0, 2024-03-13 20:41:22.881
6.0, -385.4901879327372, 138.55768350837752, -183.96754877036437, 4.558938045985997, 0.01600000075995922, -0.19200000911951065, 1.0400000493973494, 0.0, 0.0, 0.0, 0.0, 0.0, 1.710387682881564E9, 0.0, 2024-03-13 20:41:22.881
7.0, -233.50065373349935, 197.80517860641703, -14.30698728049174, 6.915075018070638, 0.01600000075995922, -0.19200000911951065, 1.0400000493973494, 0.0, 0.0, 0.0, 0.0, 0.0, 1.7103876828824177E9, 0.0, 2024-03-13 20:41:22.882
7.0, -101.98894174164161, 134.5672102556564, 125.87007290869951, -21.646540943533182, 0.01600000075995922, -0.19200000911951065, 1.0400000493973494, 0.0, 0.0, 0.0, 0.0, 0.0, 1.7103876828824177E9, 0.0, 2024-03-13 20:41:22.882
8.0, -59.22692564828321, -86.35802987683564, 162.05734487995505, -199.50309318630025, 0.01600000075995922, -0.19200000911951065, 1.0400000493973494, 0.0, 0.0, 0.0, 0.0, 0.0, 1.7103876828959177E9, 0.0, 2024-03-13 20:41:22.895
8.0, -243.41886841598898, -193.19762186100706, -2.5898807193152606, -361.3266943190247, 0.01600000075995922, -0.19200000911951065, 1.0400000493973494, 0.0, 0.0, 0.0, 0.0, 0.0, 1.7103876828959177E9, 0.0, 2024-03-13 20:41:22.895
9.0, -25.96051554242149, -218.07917626621202, 235.2210077131167, -391.4852475617081, 0.01600000075995922, -0.19200000911951065, 1.0400000493973494, 0.0, 0.0, 0.0, 0.0, 0.0, 1.7103876829115677E9, 0.0, 2024-03-13 20:41:22.911
9.0, -155.69390510534868, -287.6338356421329, 70.93468245957047, -401.3361440449953, 0.01600000075995922, -0.19200000911951065, 1.0400000493973494, 0.0, 0.0, 0.0, 0.0, 0.0, 1.7103876829115677E9, 0.0, 2024-03-13 20:41:22.911
10.0, -287.4225312946364, -219.66115394746885, -59.01749125076458, -361.4949898170307, 0.01600000075995922, -0.19200000911951065, 1.0400000493973494, 0.0, 0.0, 0.0, 0.0, 0.0, 1.710387682912305E9, 0.0, 2024-03-13 20:41:22.912
10.0, -371.9554899930954, -18.392827982082963, -119.11768353870139, -199.49935328634456, 0.01600000075995922, -0.19200000911951065, 1.0400000493973494, 0.0, 0.0, 0.0, 0.0, 0.0, 1.710387682912305E9, 0.0, 2024-03-13 20:41:22.912
11.0, -198.64665609644726, 79.27278941078112, 43.85780678037554, -46.30744125135243, 0.01600000075995922, -0.19200000911951065, 1.0400000493973494, 0.0, 0.0, 0.0, 0.0, 0.0, 1.710387682926032E9, 0.0, 2024-03-13 20:41:22.926
11.0, -408.5242317598313, 127.24074624245986, -178.26046143798158, 7.375082712620497, 0.01600000075995922, -0.19200000911951065, 1.0400000493973494, 0.0, 0.0, 0.0, 0.0, 0.0, 1.710387682926032E9, 0.0, 2024-03-13 20:41:22.926
12.0, -259.3433624273166, 174.85341257834807, -21.48385529546067, -6.8627164186909795, 0.01600000075995922, -0.19200000911951065, 1.0400000493973494, 0.0, 0.0, 0.0, 0.0, 0.0, 1.71038768295798E9, 0.0, 2024-03-13 20:41:22.957
12.0, -138.28467081161216, 127.69327413709834, 125.23055001627654, -27.540623273700476, 0.01600000075995922, -0.19200000911951065, 1.0400000493973494, 0.0, 0.0, 0.0, 0.0, 0.0, 1.71038768295798E9, 0.0, 2024-03-13 20:41:22.957
13.0, -64.3842476871796, -85.4828932872042, 165.13902244344354, -202.10606355546042, 0.01600000075995922, -0.19200000911951065, 1.0400000493973494, 0.0, 0.0, 0.0, 0.0, 0.0, 1.7103876829586911E9, 0.0, 2024-03-13 20:41:22.958
13.0, -204.0227622827515, -180.27252761414275, 11.8760523092933, -358.3572137542069, 0.01600000075995922, -0.19200000911951065, 1.0400000493973494, 0.0, 0.0, 0.0, 0.0, 0.0, 1.7103876829586911E9, 0.0, 2024-03-13 20:41:22.958
14.0, 2.859153516124934, -212.52168493205681, 249.3802689453587, -385.12367773707956, 0.01600000075995922, -0.19200000911951065, 1.0400000493973494, 0.0, 0.0, 0.0, 0.0, 0.0, 1.7103876829594128E9, 0.0, 2024-03-13 20:41:22.959
14.0, -157.29832218633965, -292.0394377899356, 66.60387831088156, -406.61688278242946, 0.01600000075995922, -0.19200000911951065, 1.0400000493973494, 0.0, 0.0, 0.0, 0.0, 0.0, 1.7103876829594128E9, 0.0, 2024-03-13 20:41:22.959
15.0, -277.9194455072284, -219.70977264689282, -60.12450163764879, -366.49523605778813, 0.01600000075995922, -0.19200000911951065, 1.0400000493973494, 0.0, 0.0, 0.0, 0.0, 0.0, 1.7103876829601688E9, 0.0, 2024-03-13 20:41:22.960
15.0, -348.2071252744645, -1.570757981389761, -104.88736420730129, -188.21233522007242, 0.01600000075995922, -0.19200000911951065, 1.0400000493973494, 0.0, 0.0, 0.0, 0.0, 0.0, 1.7103876829601688E9, 0.0, 2024-03-13 20:41:22.960
16.0, -179.34503242513165, 101.82064624363557, 57.64307801704854, -33.255190405994654, 0.01600000075995922, -0.19200000911951065, 1.0400000493973494, 0.0, 0.0, 0.0, 0.0, 0.0, 1.710387682970869E9, 0.0, 2024-03-13 20:41:22.970
16.0, -386.7019155183807, 145.4166600271128, -178.50355493510142, 10.423101176507771, 0.01600000075995922, -0.19200000911951065, 1.0400000493973494, 0.0, 0.0, 0.0, 0.0, 0.0, 1.710387682970869E9, 0.0, 2024-03-13 20:41:22.970
17.0, -265.8620080500841, 180.5866792104207, -32.93542895978317, -11.148641767911613, 0.01600000075995922, -0.19200000911951065, 1.0400000493973494, 0.0, 0.0, 0.0, 0.0, 0.0, 1.7103876829859061E9, 0.0, 2024-03-13 20:41:22.985
17.0, -121.1147901150398, 122.52473239833489, 116.92423221468925, -34.14154669549316, 0.01600000075995922, -0.19200000911951065, 1.0400000493973494, 0.0, 0.0, 0.0, 0.0, 0.0, 1.7103876829859061E9, 0.0, 2024-03-13 20:41:22.985
18.0, -51.477852940093726, -85.37069628853351, 161.8142513828352, -201.64605586091056, 0.01600000075995922, -0.19200000911951065, 1.0400000493973494, 0.0, 0.0, 0.0, 0.0, 0.0, 1.710387683001519E9, 0.0, 2024-03-13 20:41:23.001
18.0, -223.78439364861697, -202.12102315528318, 0.08788764895871282, -369.74894901923835, 0.01600000075995922, -0.19200000911951065, 1.0400000493973494, 0.0, 0.0, 0.0, 0.0, 0.0, 1.710387683001519E9, 0.0, 2024-03-13 20:41:23.001
19.0, -3.6520123067311943, -220.6073486362584, 242.7830854235217, -390.8195453695953, 0.01600000075995922, -0.19200000911951065, 1.0400000493973494, 0.0, 0.0, 0.0, 0.0, 0.0, 1.7103876830022483E9, 0.0, 2024-03-13 20:41:23.002
19.0, -179.22161572659388, -294.193620164413, 67.20974210370332, -408.25495896302164, 0.01600000075995922, -0.19200000911951065, 1.0400000493973494, 0.0, 0.0, 0.0, 0.0, 0.0, 1.7103876830022483E9, 0.0, 2024-03-13 20:41:23.002
20.0, -267.0961750354618, -214.51505160843953, -53.5983762149699, -360.6161133274436, 0.01600000075995922, -0.19200000911951065, 1.0400000493973494, 0.0, 0.0, 0.0, 0.0, 0.0, 1.7103876830158696E9, 0.0, 2024-03-13 20:41:23.015
20.0, -361.25937611982226, -15.561723715625703, -124.27874547755346, -202.49501315085217, 0.01600000075995922, -0.19200000911951065, 1.0400000493973494, 0.0, 0.0, 0.0, 0.0, 0.0, 1.7103876830158696E9, 0.0, 2024-03-13 20:41:23.015
21.0, -174.34478618437424, 97.51228149468079, 47.48924963735044, -41.06410151347518, 0.01600000075995922, -0.19200000911951065, 1.0400000493973494, 0.0, 0.0, 0.0, 0.0, 0.0, 1.7103876830315857E9, 0.0, 2024-03-13 20:41:23.031
21.0, -402.05794473644346, 128.1944207311608, -188.73218131391332, -1.5744978813454509, 0.01600000075995922, -0.19200000911951065, 1.0400000493973494, 0.0, 0.0, 0.0, 0.0, 0.0, 1.7103876830315857E9, 0.0, 2024-03-13 20:41:23.031
22.0, -252.70504000596702, 188.27965341927484, -20.653597505297512, 1.9447479769587517, 0.01600000075995922, -0.19200000911951065, 1.0400000493973494, 0.0, 0.0, 0.0, 0.0, 0.0, 1.710387683032333E9, 0.0, 2024-03-13 20:41:23.032
22.0, -118.8147516422905, 123.50084628676996, 109.39207370392978, -38.36389374546707, 0.01600000075995922, -0.19200000911951065, 1.0400000493973494, 0.0, 0.0, 0.0, 0.0, 0.0, 1.710387683032333E9, 0.0, 2024-03-13 20:41:23.032
23.0, -50.81589064793661, -86.28323187772185, 161.43278158735484, -205.73376651247963, 0.01600000075995922, -0.19200000911951065, 1.0400000493973494, 0.0, 0.0, 0.0, 0.0, 0.0, 1.7103876830458913E9, 0.0, 2024-03-13 20:41:23.045
23.0, -210.05148101132363, -191.5894648800604, -2.2046710238792, -366.9889028519392, 0.01600000075995922, -0.19200000911951065, 1.0400000493973494, 0.0, 0.0, 0.0, 0.0, 0.0, 1.7103876830458913E9, 0.0, 2024-03-13 20:41:23.045
24.0, 6.771088869776577, -208.06746408483014, -242.1379526811652, -385.516367232427, 0.01600000075995922, -0.19200000911951065, 1.0400000493973494, 0.0, 0.0, 0.0, 0.0, 0.0, 1.710387683061597E9, 0.0, 2024-03-13 20:41:23.061
24.0, -173.2078565978445, -292.8659556801431, -429.5929581602104, -415.06905668228865, 0.01600000075995922, -0.19200000911951065, 1.0400000493973494, 0.0, 0.0, 0.0, 0.0, 0.0, 1.710387683061597E9, 0.0, 2024-03-13 20:41:23.061
25.0, -265.7834701510146, -218.81967645743862, -555.7192142158747, -368.4399840347469, 0.01600000075995922, -0.19200000911951065, 1.0400000493973494, 0.0, 0.0, 0.0, 0.0, 0.0, 1.710387683062484E9, 0.0, 2024-03-13 20:41:23.062
25.0, -355.18203869182616, -2.8348441664129496, -602.5839005606249, -186.9258096353151, 0.01600000075995922, -0.19200000911951065, 1.0400000493973494, 0.0, 0.0, 0.0, 0.0, 0.0, 1.710387683062484E9, 0.0, 2024-03-13 20:41:23.062
26.0, -184.5472332634963, 92.08568665897474, -435.7114344877191, -38.57706804294139, 0.01600000075995922, -0.19200000911951065, 1.0400000493973494, 0.0, 0.0, 0.0, 0.0, 0.0, 1.7103876830758786E9, 0.0, 2024-03-13 20:41:23.075
26.0, -400.9584141494706, 129.50338571565226, -667.4786445917562, 8.612989597953856, 0.01600000075995922, -0.19200000911951065, 1.0400000493973494, 0.0, 0.0, 0.0, 0.0, 0.0, 1.7103876830758786E9, 0.0, 2024-03-13 20:41:23.075
27.0, -253.38570179790258, 201.1523890667595, -497.2047395091504, 23.74462481867522, 0.01600000075995922, -0.19200000911951065, 1.0400000493973494, 0.0, 0.0, 0.0, 0.0, 0.0, 1.7103876830916164E9, 0.0, 2024-03-13 20:41:23.091
27.0, -126.09259695606306, 120.45656772283837, -377.2343587805517, -34.99798378534615, 0.01600000075995922, -0.19200000911951065, 1.0400000493973494, 0.0, 0.0, 0.0, 0.0, 0.0, 1.7103876830916164E9, 0.0, 2024-03-13 20:41:23.091
28.0, -50.98418614594266, -100.72298560664058, -338.6685104374774, -215.0872563016601, 0.01600000075995922, -0.19200000911951065, 1.0400000493973494, 0.0, 0.0, 0.0, 0.0, 0.0, 1.710387683092371E9, 0.0, 2024-03-13 20:41:23.092
28.0, -214.44586345925927, -199.58537098532543, -497.4179138066247, -372.93160388153046, 0.01600000075995922, -0.19200000911951065, 1.0400000493973494, 0.0, 0.0, 0.0, 0.0, 0.0, 1.710387683092371E9, 0.0, 2024-03-13 20:41:23.092
29.0, 4.942277791444212, -216.37378188641742, -257.34438590100035, -398.7518731756136, 0.01600000075995922, -0.19200000911951065, 1.0400000493973494, 0.0, 0.0, 0.0, 0.0, 0.0, 1.7103876831058521E9, 0.0, 2024-03-13 20:41:23.105
29.0, -149.69510557642207, -299.4107806026004, -432.7157746232115, -420.07678272295743, 0.01600000075995922, -0.19200000911951065, 1.0400000493973494, 0.0, 0.0, 0.0, 0.0, 0.0, 1.7103876831058521E9, 0.0, 2024-03-13 20:41:23.105
30.0, -266.9017002377659, -212.61518243094906, -546.5938583239913, -368.4362441347912, 0.01600000075995922, -0.19200000911951065, 1.0400000493973494, 0.0, 0.0, 0.0, 0.0, 0.0, 1.710387683121627E9, 0.0, 2024-03-13 20:41:23.121
30.0, -351.74133073259145, -9.865856083109975, -616.0438005011529, -198.2240474014543, 0.01600000075995922, -0.19200000911951065, 1.0400000493973494, 0.0, 0.0, 0.0, 0.0, 0.0, 1.710387683121627E9, 0.0, 2024-03-13 20:41:23.121
31.0, -177.6994764446281, 88.95913029601797, -449.21995312767103, -45.21539046429098, 0.01600000075995922, -0.19200000911951065, 1.0400000493973494, 0.0, 0.0, 0.0, 0.0, 0.0, 1.7103876831223655E9, 0.0, 2024-03-13 20:41:23.122
31.0, -406.815097480081, 119.10272393887863, -689.4542967313901, -9.67512118536979, 0.01600000075995922, -0.19200000911951065, 1.0400000493973494, 0.0, 0.0, 0.0, 0.0, 0.0, 1.7103876831223655E9, 0.0, 2024-03-13 20:41:23.122
32.0, -253.2735047992319, 184.8838242595084, -515.0365824978799, -2.0793843753635883, 0.01600000075995922, -0.19200000911951065, 1.0400000493973494, 0.0, 0.0, 0.0, 0.0, 0.0, 1.7103876831358926E9, 0.0, 2024-03-13 20:41:23.135
32.0, -113.75092710228637, 126.38804905256256, -376.52003788901493, -33.258930305950344, 0.01600000075995922, -0.19200000911951065, 1.0400000493973494, 0.0, 0.0, 0.0, 0.0, 0.0, 1.7103876831358926E9, 0.0, 2024-03-13 20:41:23.135
33.0, -63.38569439901039, -98.76701792981476, -338.8106266357936, -217.63412817148492, 0.01600000075995922, -0.19200000911951065, 1.0400000493973494, 0.0, 0.0, 0.0, 0.0, 0.0, 1.71038768315158E9, 0.0, 2024-03-13 20:41:23.151
33.0, -220.52320088725537, -202.25565955368802, -498.9849318880588, -379.3717116052285, 0.01600000075995922, -0.19200000911951065, 1.0400000493973494, 0.0, 0.0, 0.0, 0.0, 0.0, 1.71038768315158E9, 0.0, 2024-03-13 20:41:23.151
34.0, 11.8386533097364, -213.4940589205362, -741.1172747192904, -395.2550667170435, 0.01600000075995922, -0.19200000911951065, 1.0400000493973494, 0.0, 0.0, 0.0, 0.0, 0.0, 1.7103876831523716E9, 0.0, 2024-03-13 20:41:23.152
34.0, -168.75737565057352, -301.7108190753497, -927.386731912382, -423.40155378356576, 0.01600000075995922, -0.19200000911951065, 1.0400000493973494, 0.0, 0.0, 0.0, 0.0, 0.0, 1.7103876831523716E9, 0.0, 2024-03-13 20:41:23.152
35.0, -294.23662901390344, -230.17401272291318, -1047.4206909402274, -373.8366596708074, 0.01600000075995922, -0.19200000911951065, 1.0400000493973494, 0.0, 0.0, 0.0, 0.0, 0.0, 1.710387683165866E9, 0.0, 2024-03-13 20:41:23.165
35.0, -362.6169598037377, -8.620469397865236, -1100.5422299108468, -196.51117322174832, 0.01600000075995922, -0.19200000911951065, 1.0400000493973494, 0.0, 0.0, 0.0, 0.0, 0.0, 1.710387683165866E9, 0.0, 2024-03-13 20:41:23.165
36.0, -173.8436395903118, 97.50480169476941, -927.8243002071977, -37.42143895663321, 0.01600000075995922, -0.19200000911951065, 1.0400000493973494, 0.0, 0.0, 0.0, 0.0, 0.0, 1.7103876831816173E9, 0.0, 2024-03-13 20:41:23.181
36.0, -412.0920963175595, 115.90136957680807, -696.7321420451626, -14.024624833837152, 0.01600000075995922, -0.19200000911951065, 1.0400000493973494, 0.0, 0.0, 0.0, 0.0, 0.0, 1.7103876831816173E9, 0.0, 2024-03-13 20:41:23.181
37.0, -246.46688687987626, 185.16057685622945, -518.121999961324, -7.191827614791691, 0.01600000075995922, -0.19200000911951065, 1.0400000493973494, 0.0, 0.0, 0.0, 0.0, 0.0, 1.710387683182578E9, 0.0, 2024-03-13 20:41:23.182
37.0, -113.73596750246361, 120.8903961176984, -387.0590759641491, -44.426271573640406, 0.01600000075995922, -0.19200000911951065, 1.0400000493973494, 0.0, 0.0, 0.0, 0.0, 0.0, 1.710387683182578E9, 0.0, 2024-03-13 20:41:23.182
38.0, -65.87646776949987, -97.82830304093659, -336.38343156455085, -215.66320089483634, 0.01600000075995922, -0.19200000911951065, 1.0400000493973494, 0.0, 0.0, 0.0, 0.0, 0.0, 1.7103876831959283E9, 0.0, 2024-03-13 20:41:23.195
38.0, -243.20195421855897, -204.06203123228624, -501.6813997561112, -374.9249705579132, 0.01600000075995922, -0.19200000911951065, 1.0400000493973494, 0.0, 0.0, 0.0, 0.0, 0.0, 1.7103876831959283E9, 0.0, 2024-03-13 20:41:23.195
39.0, -482.09554368816316, -227.09607505938038, -261.00574795762077, -403.0901571242139, 0.01600000075995922, -0.19200000911951065, 1.0400000493973494, 0.0, 0.0, 0.0, 0.0, 0.0, 1.710387683211573E9, 0.0, 2024-03-13 20:41:23.211
39.0, -656.3187831239775, -308.3603611965664, -445.73810626892373, -429.1310805156827, 0.01600000075995922, -0.19200000911951065, 1.0400000493973494, 0.0, 0.0, 0.0, 0.0, 0.0, 1.710387683211573E9, 0.0, 2024-03-13 20:41:23.211
40.0, -768.4054547459818, -223.92837979691103, -567.5073788762093, -378.34323911741376, 0.01600000075995922, -0.19200000911951065, 1.0400000493973494, 0.0, 0.0, 0.0, 0.0, 0.0, 1.7103876832124417E9, 0.0, 2024-03-13 20:41:23.212
40.0, -834.9008759581484, 1.323924584314227, -610.5536273662001, -195.2957057361491, 0.01600000075995922, -0.19200000911951065, 1.0400000493973494, 0.0, 0.0, 0.0, 0.0, 0.0, 1.7103876832124417E9, 0.0, 2024-03-13 20:41:23.212
41.0, -685.0673940833658, 88.56270090071484, -449.5303648239933, -51.47972289007157, 0.01600000075995922, -0.19200000911951065, 1.0400000493973494, 0.0, 0.0, 0.0, 0.0, 0.0, 1.7103876832258928E9, 0.0, 2024-03-13 20:41:23.225
41.0, -894.4625226524659, 115.86397057725117, -694.2525883745402, -17.33443629462272, 0.01600000075995922, -0.19200000911951065, 1.0400000493973494, 0.0, 0.0, 0.0, 0.0, 0.0, 1.7103876832258928E9, 0.0, 2024-03-13 20:41:23.225
42.0, -739.8662781841122, 177.953789641615, -529.6708110244945, -14.664147726260126, 0.01600000075995922, -0.19200000911951065, 1.0400000493973494, 0.0, 0.0, 0.0, 0.0, 0.0, 1.710387683241572E9, 0.0, 2024-03-13 20:41:23.241
42.0, -603.3206608518958, 120.25087322527543, -386.59532836964354, -43.640892582945526, 0.01600000075995922, -0.19200000911951065, 1.0400000493973494, 0.0, 0.0, 0.0, 0.0, 0.0, 1.710387683241572E9, 0.0, 2024-03-13 20:41:23.241
43.0, -539.7722808048129, -98.33318953495473, -344.9178832634352, -224.3098495923914, 0.01600000075995922, -0.19200000911951065, 1.0400000493973494, 0.0, 0.0, 0.0, 0.0, 0.0, 1.710387683242378E9, 0.0, 2024-03-13 20:41:23.242
43.0, -705.0665090964176, -188.60502471541986, -490.8207302847877, -366.42043805867434, 0.01600000075995922, -0.19200000911951065, 1.0400000493973494, 0.0, 0.0, 0.0, 0.0, 0.0, 1.710387683242378E9, 0.0, 2024-03-13 20:41:23.242
44.0, -482.80986457969993, -203.2654325417243, -251.97014966467395, -386.3653245223686, 0.01600000075995922, -0.19200000911951065, 1.0400000493973494, 0.0, 0.0, 0.0, 0.0, 0.0, 1.7103876832558815E9, 0.0, 2024-03-13 20:41:23.255
44.0, -670.893173251301, -294.1263019652106, -438.05635175993666, -422.6012151930481, 0.01600000075995922, -0.19200000911951065, 1.0400000493973494, 0.0, 0.0, 0.0, 0.0, 0.0, 1.7103876832558815E9, 0.0, 2024-03-13 20:41:23.255
45.0, -795.8077017213218, -219.83692924538627, -561.2954050498083, -372.12004559114575, 0.01600000075995922, -0.19200000911951065, 1.0400000493973494, 0.0, 0.0, 0.0, 0.0, 0.0, 1.7103876832715828E9, 0.0, 2024-03-13 20:41:23.271
45.0, -862.5985750299878, -4.353243548423052, -615.3219998097047, -198.24274690123275, 0.01600000075995922, -0.19200000911951065, 1.0400000493973494, 0.0, 0.0, 0.0, 0.0, 0.0, 1.7103876832715828E9, 0.0, 2024-03-13 20:41:23.271
46.0, -675.8560204925016, 97.29536729725078, -441.27266572183, -43.82788758073002, 0.01600000075995922, -0.19200000911951065, 1.0400000493973494, 0.0, 0.0, 0.0, 0.0, 0.0, 1.7103876832723749E9, 0.0, 2024-03-13 20:41:23.272
46.0, -905.917836216744, 126.24219295429066, -204.0096726329066, -11.66474796179682, 0.01600000075995922, -0.19200000911951065, 1.0400000493973494, 0.0, 0.0, 0.0, 0.0, 0.0, 1.7103876832723749E9, 0.0, 2024-03-13 20:41:23.272
47.0, -730.0415610005148, 188.68356261448935, -32.568918764125556, -6.657021921128035, 0.01600000075995922, -0.19200000911951065, 1.0400000493973494, 0.0, 0.0, 0.0, 0.0, 0.0, 1.710387683285961E9, 0.0, 2024-03-13 20:41:23.285
47.0, -599.6106800958514, 128.49735262757167, 113.49100405536592, -32.406233116053045, 0.01600000075995922, -0.19200000911951065, 1.0400000493973494, 0.0, 0.0, 0.0, 0.0, 0.0, 1.710387683285961E9, 0.0, 2024-03-13 20:41:23.285
48.0, -549.5857782885432, -101.92723339237273, 142.1760367155075, -226.5313501660712, 0.01600000075995922, -0.19200000911951065, 1.0400000493973494, 0.0, 0.0, 0.0, 0.0, 0.0, 1.7103876833016036E9, 0.0, 2024-03-13 20:41:23.301
48.0, -709.5506491432898, -189.04259301023558, -8.775675246026367, -370.8709190059453, 0.01600000075995922, -0.19200000911951065, 1.0400000493973494, 0.0, 0.0, 0.0, 0.0, 0.0, 1.7103876833016036E9, 0.0, 2024-03-13 20:41:23.301
49.0, -478.0040931366384, -207.36062299320474, 235.51271990966052, -393.2691798405722, 0.01600000075995922, -0.19200000911951065, 1.0400000493973494, 0.0, 0.0, 0.0, 0.0, 0.0, 1.7103876833023684E9, 0.0, 2024-03-13 20:41:23.302
49.0, -660.7655241712928, -308.70443199248984, 49.01886871922761, -428.40927982423455, 0.01600000075995922, -0.19200000911951065, 1.0400000493973494, 0.0, 0.0, 0.0, 0.0, 0.0, 1.7103876833023684E9, 0.0, 2024-03-13 20:41:23.302
50.0, -776.5098179499619, -227.5373832541518, -74.37726036878303, -376.1890567429364, 0.01600000075995922, -0.19200000911951065, 1.0400000493973494, 0.0, 0.0, 0.0, 0.0, 0.0, 1.710387683315939E9, 0.0, 2024-03-13 20:41:23.315
50.0, -847.9493869035505, -12.820377048105001, -123.20913409022614, -194.4430085462518, 0.01600000075995922, -0.19200000911951065, 1.0400000493973494, 0.0, 0.0, 0.0, 0.0, 0.0, 1.710387683315939E9, 0.0, 2024-03-13 20:41:23.315
51.0, -691.746855404228, 75.22995755868033, 44.897498968057334, -54.26968825701624, 0.01600000075995922, -0.19200000911951065, 1.0400000493973494, 0.0, 0.0, 0.0, 0.0, 0.0, 1.7103876833316004E9, 0.0, 2024-03-13 20:41:23.331
51.0, -908.3338115881197, 99.16531727509573, 277.55667521152645, -27.245171177200973, 0.01600000075995922, -0.19200000911951065, 1.0400000493973494, 0.0, 0.0, 0.0, 0.0, 0.0, 1.7103876833316004E9, 0.0, 2024-03-13 20:41:23.331
52.0, -738.3329192022793, 178.4736357354559, 456.1742970952764, -8.298838001675904, 0.01600000075995922, -0.19200000911951065, 1.0400000493973494, 0.0, 0.0, 0.0, 0.0, 0.0, 1.7103876833323827E9, 0.0, 2024-03-13 20:41:23.332
52.0, -596.5364823322743, 120.49770662235096, 604.1415688921697, -35.92921887431294, 0.01600000075995922, -0.19200000911951065, 1.0400000493973494, 0.0, 0.0, 0.0, 0.0, 0.0, 1.7103876833323827E9, 0.0, 2024-03-13 20:41:23.332
53.0, -548.8415381973609, -112.75424376409501, 633.9822306386195, -228.07218894781545, 0.01600000075995922, -0.19200000911951065, 1.0400000493973494, 0.0, 0.0, 0.0, 0.0, 0.0, 1.7103876833459406E9, 0.0, 2024-03-13 20:41:23.345
53.0, -730.8792985905893, -202.91762184584513, 476.0069865603, -374.8389528589323, 0.01600000075995922, -0.19200000911951065, 1.0400000493973494, 0.0, 0.0, 0.0, 0.0, 0.0, 1.7103876833459406E9, 0.0, 2024-03-13 20:41:23.345
54.0, -971.8485325356014, -205.12416281970218, 240.72614044789225, -389.8995299804956, 0.01600000075995922, -0.19200000911951065, 1.0400000493973494, 0.0, 0.0, 0.0, 0.0, 0.0, 1.7103876833616505E9, 0.0, 2024-03-13 20:41:23.361
54.0, -1134.7099559060298, -298.65906071150675, 50.57466710079461, -426.62534754537046, 0.01600000075995922, -0.19200000911951065, 1.0400000493973494, 0.0, 0.0, 0.0, 0.0, 0.0, 1.7103876833616505E9, 0.0, 2024-03-13 20:41:23.361
55.0, -1256.8494786089286, -222.6418542121537, -79.21669091144577, -381.2192221833393, 0.01600000075995922, -0.19200000911951065, 1.0400000493973494, 0.0, 0.0, 0.0, 0.0, 0.0, 1.710387683362681E9, 0.0, 2024-03-13 20:41:23.362
55.0, -1322.477243031375, 3.6314428569748998, -132.35692938184366, -196.78792581846938, 0.01600000075995922, -0.19200000911951065, 1.0400000493973494, 0.0, 0.0, 0.0, 0.0, 0.0, 1.710387683362681E9, 0.0, 2024-03-13 20:41:23.362
56.0, -1165.8558427370153, 71.7181915002875, 18.220792584121227, -78.67253546789289, 0.01600000075995922, -0.19200000911951065, 1.0400000493973494, 0.0, 0.0, 0.0, 0.0, 0.0, 1.7103876833759708E9, 0.0, 2024-03-13 20:41:23.375
56.0, -1397.3425603443757, 108.91523645957932, -213.16868762439117, -26.57572908513248, 0.01600000075995922, -0.19200000911951065, 1.0400000493973494, 0.0, 0.0, 0.0, 0.0, 0.0, 1.7103876833759708E9, 0.0, 2024-03-13 20:41:23.375
57.0, -1225.3258618824184, 194.76463994244114, -33.31689875526354, -0.9349749889224768, 0.01600000075995922, -0.19200000911951065, 1.0400000493973494, 0.0, 0.0, 0.0, 0.0, 0.0, 1.7103876833915591E9, 0.0, 2024-03-13 20:41:23.391
57.0, -1095.4447462712415, 130.483239504043, 111.10494788363576, -35.71604457683861, 0.01600000075995922, -0.19200000911951065, 1.0400000493973494, 0.0, 0.0, 0.0, 0.0, 0.0, 1.7103876833915591E9, 0.0, 2024-03-13 20:41:23.391
58.0, -1050.9062776989304, -111.24332418199629, 140.24624833837152, -229.84490152681246, 0.01600000075995922, -0.19200000911951065, 1.0400000493973494, 0.0, 0.0, 0.0, 0.0, 0.0, 1.710387683392487E9, 0.0, 2024-03-13 20:41:23.392
58.0, -1214.2033994141966, -205.36725631682202, -11.823693709913641, -375.3176600532606, 0.01600000075995922, -0.19200000911951065, 1.0400000493973494, 0.0, 0.0, 0.0, 0.0, 0.0, 1.710387683392487E9, 0.0, 2024-03-13 20:41:23.392
59.0, -987.3691173517145, -218.28113086381927, 228.65374339092523, -395.35978391580284, 0.01600000075995922, -0.19200000911951065, 1.0400000493973494, 0.0, 0.0, 0.0, 0.0, 0.0, 1.7103876834059467E9, 0.0, 2024-03-13 20:41:23.405
59.0, -1163.6979204625823, -314.2133046272211, 45.0209156665951, -426.95445874147117, 0.01600000075995922, -0.19200000911951065, 1.0400000493973494, 0.0, 0.0, 0.0, 0.0, 0.0, 1.7103876834059467E9, 0.0, 2024-03-13 20:41:23.405
60.0, -1286.3311099596322, -230.04685612441972, -75.54784905491397, -374.1844703666866, 0.01600000075995922, -0.19200000911951065, 1.0400000493973494, 0.0, 0.0, 0.0, 0.0, 0.0, 1.7103876834215963E9, 0.0, 2024-03-13 20:41:23.421
60.0, -1329.7850075447932, -7.498499411158264, -118.02563275163993, -191.54832598054782, 0.01600000075995922, -0.19200000911951065, 1.0400000493973494, 0.0, 0.0, 0.0, 0.0, 0.0, 1.7103876834215963E9, 0.0, 2024-03-13 20:41:23.421
61.0, -1149.1534495349042, 89.3555596913211, 47.07786064222455, -48.59626002423465, 0.01600000075995922, -0.19200000911951065, 1.0400000493973494, 0.0, 0.0, 0.0, 0.0, 0.0, 1.7103876834223552E9, 0.0, 2024-03-13 20:41:23.422
61.0, -918.4352813684382, 101.17364355130121, 282.62797955144197, -24.12609461415559, 0.01600000075995922, -0.19200000911951065, 1.0400000493973494, 0.0, 0.0, 0.0, 0.0, 0.0, 1.7103876834223552E9, 0.0, 2024-03-13 20:41:23.422
62.0, -748.9355355766602, 179.401130924467, 458.90068416297436, -3.7548595555126667, 0.01600000075995922, -0.19200000911951065, 1.0400000493973494, 0.0, 0.0, 0.0, 0.0, 0.0, 1.7103876834359992E9, 0.0, 2024-03-13 20:41:23.435
62.0, -616.3392525976524, 117.26269316067919, 601.400222224649, -40.405879121273756, 0.01600000075995922, -0.19200000911951065, 1.0400000493973494, 0.0, 0.0, 0.0, 0.0, 0.0, 1.7103876834359992E9, 0.0, 2024-03-13 20:41:23.435
63.0, -548.4151896024123, -104.42922646272928, 638.0512417904101, -220.87662143306807, 0.01600000075995922, -0.19200000911951065, 1.0400000493973494, 0.0, 0.0, 0.0, 0.0, 0.0, 1.7103876834515617E9, 0.0, 2024-03-13 20:41:23.451
63.0, -706.2520573823713, -193.12656376184896, 487.69417392183095, -364.37097288295627, 0.01600000075995922, -0.19200000911951065, 1.0400000493973494, 0.0, 0.0, 0.0, 0.0, 0.0, 1.7103876834515617E9, 0.0, 2024-03-13 20:41:23.451
64.0, -481.7140738926828, -207.3045244938694, 727.5246083303355, -391.2982525639236, 0.01600000075995922, -0.19200000911951065, 1.0400000493973494, 0.0, 0.0, 0.0, 0.0, 0.0, 1.7103876834523687E9, 0.0, 2024-03-13 20:41:23.452
64.0, -648.6445084149018, -303.39751395536587, 545.4887178870849, -426.58794854581356, 0.01600000075995922, -0.19200000911951065, 1.0400000493973494, 0.0, 0.0, 0.0, 0.0, 0.0, 1.7103876834523687E9, 0.0, 2024-03-13 20:41:23.452
65.0, -770.1744274250232, -224.81473608640954, 417.3466557553038, -372.63241188507527, 0.01600000075995922, -0.19200000911951065, 1.0400000493973494, 0.0, 0.0, 0.0, 0.0, 0.0, 1.7103876834659057E9, 0.0, 2024-03-13 20:41:23.465
65.0, -831.8865165938623, 2.6777683682739735, 376.398491140455, -185.0296803577803, 0.01600000075995922, -0.19200000911951065, 1.0400000493973494, 0.0, 0.0, 0.0, 0.0, 0.0, 1.7103876834659057E9, 0.0, 2024-03-13 20:41:23.465
66.0, -677.6923113707453, 94.33336653234437, 536.7747509903274, -39.291388934478164, 0.01600000075995922, -0.19200000911951065, 1.0400000493973494, 0.0, 0.0, 0.0, 0.0, 0.0, 1.7103876834815772E9, 0.0, 2024-03-13 20:41:23.481
66.0, -897.5105411163531, 116.75406676670536, 780.3207760048099, -6.989873017184436, 0.01600000075995922, -0.19200000911951065, 1.0400000493973494, 0.0, 0.0, 0.0, 0.0, 0.0, 1.7103876834815772E9, 0.0, 2024-03-13 20:41:23.481
67.0, -738.8452854962088, 199.86586348200217, 957.4499177061953, 10.8943285709247, 0.01600000075995922, -0.19200000911951065, 1.0400000493973494, 0.0, 0.0, 0.0, 0.0, 0.0, 1.71038768348238E9, 0.0, 2024-03-13 20:41:23.482
67.0, -610.1384984711185, 131.58277009101585, 1092.2452618591487, -31.590934925712645, 0.01600000075995922, -0.19200000911951065, 1.0400000493973494, 0.0, 0.0, 0.0, 0.0, 0.0, 1.71038768348238E9, 0.0, 2024-03-13 20:41:23.482
68.0, -555.7940122149885, -107.97465162072331, 1120.8779359199107, -230.61906081764027, 0.01600000075995922, -0.19200000911951065, 1.0400000493973494, 0.0, 0.0, 0.0, 0.0, 0.0, 1.7103876834959376E9, 0.0, 2024-03-13 20:41:23.495
