%OpenBCI Raw EXG Data
%Number of channels = 4
%Sample Rate = 200 Hz
%Board = OpenBCI_GUI$BoardGanglionBLE
Sample Index, EXG Channel 0, EXG Channel 1, EXG Channel 2, EXG Channel 3, Accel Channel 0, Accel Channel 1, Accel Channel 2, Other, Other, Other, Other, Other, Timestamp, Other, Timestamp (Formatted)
2.0, 21.612881843931973, -150.65438991505653, 41.46801070868969, -192.7207846166566, 0.01600000075995922, 0.0, 0.0, 0.0, 0.0, 0.0, 0.0, 0.0, 1.7103880815909786E9, 0.0, 2024-03-13 20:48:01.590
2.0, -141.4392764242366, -180.47261226177216, -141.6935896212235, -165.5952902380377, 0.01600000075995922, 0.0, 0.0, 0.0, 0.0, 0.0, 0.0, 0.0, 1.7103880815909786E9, 0.0, 2024-03-13 20:48:01.590
3.0, 91.51909181568772, 9.405848388560116, 100.89502100460231, -28.55039626173675, 0.01600000075995922, 0.0, 0.0, 0.0, 0.0, 0.0, 0.0, 0.0, 1.7103880816055732E9, 0.0, 2024-03-13 20:48:01.605
3.0, 263.4740819283761, -53.42821076698601, 270.7855863417499, -79.15872246213257, 0.01600000075995922, 0.0, 0.0, 0.0, 0.0, 0.0, 0.0, 0.0, 1.7103880816055732E9, 0.0, 2024-03-13 20:48:01.605
4.0, 228.18064604653046, 84.53295869845897, 218.39332786248997, 101.66170049551874, 0.01600000075995922, 0.0, 0.0, 0.0, 0.0, 0.0, 0.0, 0.0, 1.7103880816062834E9, 0.0, 2024-03-13 20:48:01.606
4.0, 92.24089250713587, 73.54326267866418, 88.560830950737, 52.13233543233946, 0.01600000075995922, 0.0, 0.0, 0.0, 0.0, 0.0, 0.0, 0.0, 1.7103880816062834E9, 0.0, 2024-03-13 20:48:01.606
5.0, -98.13497483730316, 129.5837935646996, -80.41906874720007, 94.03604448586702, 0.01600000075995922, 0.0, 0.0, 0.0, 0.0, 0.0, 0.0, 0.0, 1.710388081619928E9, 0.0, 2024-03-13 20:48:01.619
5.0, -335.76447812188417, -86.97885326948017, 159.9873102544807, -75.848911001347, 0.01600000075995922, 0.0, 0.0, 0.0, 0.0, 0.0, 0.0, 0.0, 1.710388081619928E9, 0.0, 2024-03-13 20:48:01.619
6.0, -480.48177685728297, 9.536744887009263, 7.483539811335504, 7.550858010537922, 0.01600000075995922, 0.0, 0.0, 0.0, 0.0, 0.0, 0.0, 0.0, 1.7103880816353352E9, 0.0, 2024-03-13 20:48:01.635
6.0, -461.9430927769281, -142.96515560615808, 47.694944134913385, -186.21335869375616, 0.01600000075995922, 0.0, 0.0, 0.0, 0.0, 0.0, 0.0, 0.0, 1.7103880816353352E9, 0.0, 2024-03-13 20:48:01.635
7.0, -318.6058171251789, -140.54357038484886, 181.30474000191316, -144.30216984031722, 0.01600000075995922, 0.0, 0.0, 0.0, 0.0, 0.0, 0.0, 0.0, 1.7103880816505232E9, 0.0, 2024-03-13 20:48:01.650
7.0, -133.72012291569263, -188.86120786238462, 348.2202149243094, -170.0794302849099, 0.01600000075995922, 0.0, 0.0, 0.0, 0.0, 0.0, 0.0, 0.0, 1.7103880816505232E9, 0.0, 2024-03-13 20:48:01.650
8.0, 100.53973050881177, 18.9725124752149, 104.54890326131135, -19.443739869631827, 0.01600000075995922, 0.0, 0.0, 0.0, 0.0, 0.0, 0.0, 0.0, 1.7103880816512291E9, 0.0, 2024-03-13 20:48:01.651
8.0, 267.79366637719795, -53.42821076698601, 271.9599149278365, -78.31724497210234, 0.01600000075995922, 0.0, 0.0, 0.0, 0.0, 0.0, 0.0, 0.0, 1.7103880816512291E9, 0.0, 2024-03-13 20:48:01.651
9.0, 224.96433208463714, 79.16246236208826, 215.10969570139423, 103.41571357473731, 0.01600000075995922, 0.0, 0.0, 0.0, 0.0, 0.0, 0.0, 0.0, 1.710388081665537E9, 0.0, 2024-03-13 20:48:01.665
9.0, 87.60341656208038, 75.71614455292001, 90.25126573070884, 55.30751049472019, 0.01600000075995922, 0.0, 0.0, 0.0, 0.0, 0.0, 0.0, 0.0, 1.710388081665537E9, 0.0, 2024-03-13 20:48:01.665
10.0, -94.27165818307549, 130.44771045446396, -80.60232384502888, 92.03893790952861, 0.01600000075995922, 0.0, 1.0400000493973494, 0.0, 0.0, 0.0, 0.0, 0.0, 1.7103880816662924E9, 0.0, 2024-03-13 20:48:01.666
10.0, 147.2043322059326, -92.69716030173004, 153.75289702834561, -81.0024931402877, 0.01600000075995922, 0.0, 1.0400000493973494, 0.0, 0.0, 0.0, 0.0, 0.0, 1.7103880816662924E9, 0.0, 2024-03-13 20:48:01.666
11.0, 1.9559676768258214, 3.059238163754344, 4.0390919521451, 3.3659099601209164, 0.01600000075995922, -0.20800000987946987, 1.0400000493973494, 0.0, 0.0, 0.0, 0.0, 0.0, 1.7103880816799595E9, 0.0, 2024-03-13 20:48:01.679
11.0, 31.991104220971465, -148.75078083761036, 40.398399321362376, -192.80680231563747, 0.01600000075995922, -0.20800000987946987, 1.0400000493973494, 0.0, 0.0, 0.0, 0.0, 0.0, 1.7103880816799595E9, 0.0, 2024-03-13 20:48:01.679
12.0, 164.59486699989066, -148.128087494988, 172.89370500156656, -148.96208518510684, 0.01600000075995922, -0.20800000987946987, 1.0400000493973494, 0.0, 0.0, 0.0, 0.0, 0.0, 1.7103880816956615E9, 0.0, 2024-03-13 20:48:01.695
12.0, 352.53231957321987, -187.55972267780453, 351.3430313873105, -164.64161574933678, 0.01600000075995922, -0.20800000987946987, 1.0400000493973494, 0.0, 0.0, 0.0, 0.0, 0.0, 1.7103880816956615E9, 0.0, 2024-03-13 20:48:01.695
13.0, 593.8194450144656, 19.391381270252168, 112.054882472381, -15.737499013543129, 0.01600000075995922, -0.20800000987946987, 1.0400000493973494, 0.0, 0.0, 0.0, 0.0, 0.0, 1.7103880816965468E9, 0.0, 2024-03-13 20:48:01.696
13.0, 750.9120727032423, -57.29152742121369, 271.0025005391799, -80.06003835145384, 0.01600000075995922, -0.20800000987946987, 1.0400000493973494, 0.0, 0.0, 0.0, 0.0, 0.0, 1.7103880816965468E9, 0.0, 2024-03-13 20:48:01.696
14.0, 716.7406068081036, 84.30856470111758, 219.2759442520328, 106.84894173406065, 0.01600000075995922, -0.20800000987946987, 1.0400000493973494, 0.0, 0.0, 0.0, 0.0, 0.0, 1.710388081709864E9, 0.0, 2024-03-13 20:48:01.709
14.0, 584.5931118237786, 80.57053469540551, 93.27684479486197, 58.50512495683506, 0.01600000075995922, -0.20800000987946987, 1.0400000493973494, 0.0, 0.0, 0.0, 0.0, 0.0, 1.710388081709864E9, 0.0, 2024-03-13 20:48:01.709
15.0, 398.44333142926916, 133.27507482096553, -81.61957663297653, 91.86316261161119, 0.01600000075995922, -0.20800000987946987, 1.0400000493973494, 0.0, 0.0, 0.0, 0.0, 0.0, 1.7103880817256851E9, 0.0, 2024-03-13 20:48:01.725
15.0, 640.9440544061363, -89.7463792366907, 149.80356267513707, -78.68749506771564, 0.01600000075995922, -0.20800000987946987, 1.0400000493973494, 0.0, 0.0, 0.0, 0.0, 0.0, 1.7103880817256851E9, 0.0, 2024-03-13 20:48:01.725
16.0, 498.403377444949, 14.536991127766669, -0.964894188567996, 7.535898410715163, 0.01600000075995922, -0.20800000987946987, 1.0400000493973494, 0.0, 0.0, 0.0, 0.0, 0.0, 1.7103880817262468E9, 0.0, 2024-03-13 20:48:01.726
16.0, 518.6137968054973, -144.33769888989627, 30.887833734042943, -193.14713321160525, 0.01600000075995922, -0.20800000987946987, 1.0400000493973494, 0.0, 0.0, 0.0, 0.0, 0.0, 1.7103880817262468E9, 0.0, 2024-03-13 20:48:01.726
17.0, 663.4245930397883, -142.1928662653081, 168.7611155505292, -150.48422446707264, 0.01600000075995922, -0.20800000987946987, 1.0400000493973494, 0.0, 0.0, 0.0, 0.0, 0.0, 1.7103880817400432E9, 0.0, 2024-03-13 20:48:01.740
17.0, 851.1862703152001, -186.97255838476121, 342.78614028869197, -173.1573679484427, 0.01600000075995922, -0.20800000987946987, 1.0400000493973494, 0.0, 0.0, 0.0, 0.0, 0.0, 1.7103880817400432E9, 0.0, 2024-03-13 20:48:01.740
18.0, 1077.0425685392693, 24.54870330914855, 109.97175819706172, -13.792751036584377, 0.01600000075995922, -0.20800000987946987, 1.0400000493973494, 0.0, 0.0, 0.0, 0.0, 0.0, 1.710388081755973E9, 0.0, 2024-03-13 20:48:01.755
18.0, 1244.229186208453, -56.954936425201595, 272.34886452322826, -81.04737193975598, 0.01600000075995922, -0.20800000987946987, 1.0400000493973494, 0.0, 0.0, 0.0, 0.0, 0.0, 1.710388081755973E9, 0.0, 2024-03-13 20:48:01.755
19.0, 1205.876512162853, 81.06607143953443, 217.83608276909217, 104.0888955667615, 0.01600000075995922, -0.20800000987946987, 1.0400000493973494, 0.0, 0.0, 0.0, 0.0, 0.0, 1.710388081756421E9, 0.0, 2024-03-13 20:48:01.756
19.0, 1070.7109179142863, 80.71639079367742, 89.62296253815293, 58.46024615736678, 0.01600000075995922, -0.20800000987946987, 1.0400000493973494, 0.0, 0.0, 0.0, 0.0, 0.0, 1.710388081756421E9, 0.0, 2024-03-13 20:48:01.756
20.0, 888.1925803767517, 132.30270083248615, -81.58591753337532, 89.29759124200791, 0.01600000075995922, -0.20800000987946987, 1.0400000493973494, 0.0, 0.0, 0.0, 0.0, 0.0, 1.7103880817700787E9, 0.0, 2024-03-13 20:48:01.770
20.0, 647.7057935260236, -94.28661778289825, 149.72502477606758, -83.25765281356871, 0.01600000075995922, -0.20800000987946987, 1.0400000493973494, 0.0, 0.0, 0.0, 0.0, 0.0, 1.7103880817700787E9, 0.0, 2024-03-13 20:48:01.770
21.0, 489.45005695102736, 5.190981138497591, -4.940407841466367, -2.5057329703122377, 0.01600000075995922, -0.19200000911951065, 1.0400000493973494, 0.0, 0.0, 0.0, 0.0, 0.0, 1.7103880817855275E9, 0.0, 2024-03-13 20:48:01.785
21.0, 532.4439468416385, -136.77562117949128, 45.323847563005984, -182.25654454063624, 0.01600000075995922, -0.19200000911951065, 1.0400000493973494, 0.0, 0.0, 0.0, 0.0, 0.0, 1.7103880817855275E9, 0.0, 2024-03-13 20:48:01.785
22.0, 658.663700396195, -144.74908788502216, 170.7993610263802, -152.8366215392016, 0.01600000075995922, -0.19200000911951065, 1.0400000493973494, 0.0, 0.0, 0.0, 0.0, 0.0, 1.710388081786203E9, 0.0, 2024-03-13 20:48:01.786
22.0, 847.087339963764, -182.29581349017099, 341.98954159813, -172.91053455136716, 0.01600000075995922, -0.19200000911951065, 1.0400000493973494, 0.0, 0.0, 0.0, 0.0, 0.0, 1.710388081786203E9, 0.0, 2024-03-13 20:48:01.786
23.0, 1086.7700483240187, 26.71597533347085, 108.30002291686833, -15.25879181921482, 0.01600000075995922, -0.19200000911951065, 1.0400000493973494, 0.0, 0.0, 0.0, 0.0, 0.0, 1.7103880817998013E9, 0.0, 2024-03-13 20:48:01.799
23.0, 1249.2032531495206, -61.31378982355818, 266.3986836937256, -91.563970615156, 0.01600000075995922, -0.19200000911951065, 1.0400000493973494, 0.0, 0.0, 0.0, 0.0, 0.0, 1.7103880817998013E9, 0.0, 2024-03-13 20:48:01.799
24.0, 1201.7701020115055, 74.48197756754234, 213.3070639227517, 88.95352044608444, 0.01600000075995922, -0.19200000911951065, 1.0400000493973494, 0.0, 0.0, 0.0, 0.0, 0.0, 1.710388081815682E9, 0.0, 2024-03-13 20:48:01.815
24.0, 1082.3981052758172, 87.73244311055169, 93.0823699971661, 59.39896104624495, 0.01600000075995922, -0.19200000911951065, 1.0400000493973494, 0.0, 0.0, 0.0, 0.0, 0.0, 1.710388081815682E9, 0.0, 2024-03-13 20:48:01.815
25.0, 894.400814303197, 137.71807596832514, -80.68834154400975, 92.61488250270486, 0.01600000075995922, -0.19200000911951065, 1.0400000493973494, 0.0, 0.0, 0.0, 0.0, 0.0, 1.7103880818162344E9, 0.0, 2024-03-13 20:48:01.816
25.0, 1126.9197442983277, -107.33138882834464, 145.5363368256949, -84.96304719336331, 0.01600000075995922, -0.19200000911951065, 1.0400000493973494, 0.0, 0.0, 0.0, 0.0, 0.0, 1.7103880818162344E9, 0.0, 2024-03-13 20:48:01.816
26.0, 986.2490173149854, 1.7353135794401169, -4.854390142485499, 5.276998837478459, 0.01600000075995922, -0.19200000911951065, 1.0400000493973494, 0.0, 0.0, 0.0, 0.0, 0.0, 1.7103880818298156E9, 0.0, 2024-03-13 20:48:01.829
26.0, 1008.8118337476626, -140.52674083504826, 42.79193529300392, -185.13626750651747, 0.01600000075995922, -0.19200000911951065, 1.0400000493973494, 0.0, 0.0, 0.0, 0.0, 0.0, 1.7103880818298156E9, 0.0, 2024-03-13 20:48:01.829
27.0, 1151.6816219049506, -148.18979584425688, 171.76051531499252, -153.40508633246645, 0.01600000075995922, -0.19200000911951065, 1.0400000493973494, 0.0, 0.0, 0.0, 0.0, 0.0, 1.7103880818456144E9, 0.0, 2024-03-13 20:48:01.845
27.0, 1329.4203672991134, -190.26554029574618, 344.08762547327206, -173.01899165008217, 0.01600000075995922, -0.19200000911951065, 1.0400000493973494, 0.0, 0.0, 0.0, 0.0, 0.0, 1.7103880818456144E9, 0.0, 2024-03-13 20:48:01.845
28.0, 1571.7172657283954, 25.713682145345956, 112.79164276365191, -11.376775665208697, 0.01600000075995922, -0.19200000911951065, 1.0400000493973494, 0.0, 0.0, 0.0, 0.0, 0.0, 1.71038808184637E9, 0.0, 2024-03-13 20:48:01.846
28.0, 1728.7163959182799, -59.42514034593478, 274.02059980342165, -84.45068089943379, 0.01600000075995922, -0.19200000911951065, 1.0400000493973494, 0.0, 0.0, 0.0, 0.0, 0.0, 1.71038808184637E9, 0.0, 2024-03-13 20:48:01.846
29.0, 1689.795257079415, 69.00676403241232, 217.3461558748968, 93.50497869215906, 0.01600000075995922, -0.19200000911951065, 1.0400000493973494, 0.0, 0.0, 0.0, 0.0, 0.0, 1.7103880818762088E9, 0.0, 2024-03-13 20:48:01.876
29.0, 1558.178827888798, 75.91061935061589, 88.6356289498508, 54.52961130393669, 0.01600000075995922, -0.19200000911951065, 1.0400000493973494, 0.0, 0.0, 0.0, 0.0, 0.0, 1.7103880818762088E9, 0.0, 2024-03-13 20:48:01.876
30.0, 1369.3998978254385, 129.542654665187, -84.64515569712967, 85.76712568383664, 0.01600000075995922, -0.19200000911951065, 1.0400000493973494, 0.0, 0.0, 0.0, 0.0, 0.0, 1.710388081876997E9, 0.0, 2024-03-13 20:48:01.876
30.0, 1129.6274318662472, -109.22751810587943, 141.15317407762632, -96.3435627585277, 0.01600000075995922, -0.19200000911951065, 1.0400000493973494, 0.0, 0.0, 0.0, 0.0, 0.0, 1.710388081876997E9, 0.0, 2024-03-13 20:48:01.876
31.0, 971.4614528901875, -7.300284713506699, -15.842216212302446, -9.877075782977045, 0.01600000075995922, -0.19200000911951065, 1.0400000493973494, 0.0, 0.0, 0.0, 0.0, 0.0, 1.7103880818776798E9, 0.0, 2024-03-13 20:48:01.877
31.0, 1012.8172666002065, -141.45423602405936, 36.426625568419695, -186.7519042873755, 0.01600000075995922, -0.19200000911951065, 1.0400000493973494, 0.0, 0.0, 0.0, 0.0, 0.0, 1.7103880818776798E9, 0.0, 2024-03-13 20:48:01.877
32.0, 1149.5162198306061, -148.24589434359223, 171.06863382318988, -152.13726024748757, 0.01600000075995922, -0.19200000911951065, 1.0400000493973494, 0.0, 0.0, 0.0, 0.0, 0.0, 1.710388081889788E9, 0.0, 2024-03-13 20:48:01.889
32.0, 1336.855288411025, -190.32163879508153, 341.49961470393464, -176.14554801303893, 0.01600000075995922, -0.19200000911951065, 1.0400000493973494, 0.0, 0.0, 0.0, 0.0, 0.0, 1.710388081889788E9, 0.0, 2024-03-13 20:48:01.889
33.0, 1574.6680467934348, 35.72165442677215, 115.88827992696315, -3.5940438574180007, 0.01600000075995922, -0.19200000911951065, 1.0400000493973494, 0.0, 0.0, 0.0, 0.0, 0.0, 1.7103880819221065E9, 0.0, 2024-03-13 20:48:01.922
33.0, 1737.5500396136194, -47.98104648152366, 280.09419733146206, -76.11444389820099, 0.01600000075995922, -0.19200000911951065, 1.0400000493973494, 0.0, 0.0, 0.0, 0.0, 0.0, 1.7103880819221065E9, 0.0, 2024-03-13 20:48:01.922
34.0, 1693.6772732334211, 77.73943042894825, 219.05529015464708, 100.81274320557714, 0.01600000075995922, -0.19200000911951065, 1.0400000493973494, 0.0, 0.0, 0.0, 0.0, 0.0, 1.710388081922602E9, 0.0, 2024-03-13 20:48:01.922
34.0, 1559.7159267705865, 84.25433615176007, 99.07742962613702, 64.77693718252704, 0.01600000075995922, -0.19200000911951065, 1.0400000493973494, 0.0, 0.0, 0.0, 0.0, 0.0, 1.710388081922602E9, 0.0, 2024-03-13 20:48:01.922
35.0, 1367.9450767426752, 132.89360502548516, -81.45128113497049, 90.54297792725265, 0.01600000075995922, -0.19200000911951065, 1.0400000493973494, 0.0, 0.0, 0.0, 0.0, 0.0, 1.7103880819233139E9, 0.0, 2024-03-13 20:48:01.923
35.0, 1609.4659459311515, -109.75858389958739, 142.24896476464346, -94.32027688249946, 0.01600000075995922, -0.19200000911951065, 1.0400000493973494, 0.0, 0.0, 0.0, 0.0, 0.0, 1.7103880819233139E9, 0.0, 2024-03-13 20:48:01.923
36.0, 1470.6202901261859, -7.087110416032374, -9.521785287186503, -5.62854943331331, 0.01600000075995922, -0.19200000911951065, 1.0400000493973494, 0.0, 0.0, 0.0, 0.0, 0.0, 1.710388081924029E9, 0.0, 2024-03-13 20:48:01.924
36.0, 1497.6859461055137, -141.67115022148937, 44.20187757629901, -188.04216977208853, 0.01600000075995922, -0.19200000911951065, 1.0400000493973494, 0.0, 0.0, 0.0, 0.0, 0.0, 1.710388081924029E9, 0.0, 2024-03-13 20:48:01.924
37.0, 1644.351732717827, -146.8808308597654, 172.5047554061748, -157.36564038554206, 0.01600000075995922, -0.19200000911951065, 1.0400000493973494, 0.0, 0.0, 0.0, 0.0, 0.0, 1.71038808193488E9, 0.0, 2024-03-13 20:48:01.934
37.0, 1825.1721556754783, -193.71746795484796, 337.0341741568409, -180.58106936048716, 0.01600000075995922, -0.19200000911951065, 1.0400000493973494, 0.0, 0.0, 0.0, 0.0, 0.0, 1.71038808193488E9, 0.0, 2024-03-13 20:48:01.934
38.0, 2067.181081808172, 29.423662901390344, 109.75110409967601, -15.367248917929828, 0.01600000075995922, -0.19200000911951065, 1.0400000493973494, 0.0, 0.0, 0.0, 0.0, 0.0, 1.710388081949917E9, 0.0, 2024-03-13 20:48:01.949
38.0, 2223.574348205235, -59.88888794044033, 269.951588651631, -86.3767293766141, 0.01600000075995922, -0.19200000911951065, 1.0400000493973494, 0.0, 0.0, 0.0, 0.0, 0.0, 1.710388081949917E9, 0.0, 2024-03-13 20:48:01.949
39.0, 2177.947568745818, 62.56291640875861, 211.87094233976677, 82.79016531910747, 0.01600000075995922, -0.19200000911951065, 1.0400000493973494, 0.0, 0.0, 0.0, 0.0, 0.0, 1.7103880819655125E9, 0.0, 2024-03-13 20:48:01.965
39.0, 2053.1601968742907, 73.84619457507506, 84.95182749349624, 55.73011918971315, 0.01600000075995922, -0.19200000911951065, 1.0400000493973494, 0.0, 0.0, 0.0, 0.0, 0.0, 1.7103880819655125E9, 0.0, 2024-03-13 20:48:01.965
40.0, 1869.5423287497833, 136.2108962861821, -82.36755662411451, 90.80477092415094, 0.01600000075995922, -0.19200000911951065, 1.0400000493973494, 0.0, 0.0, 0.0, 0.0, 0.0, 1.710388081966238E9, 0.0, 2024-03-13 20:48:01.966
40.0, 2113.991539603565, -103.3072564760223, 144.5639628372155, -94.16320108436048, 0.01600000075995922, -0.19200000911951065, 1.0400000493973494, 0.0, 0.0, 0.0, 0.0, 0.0, 1.710388081966238E9, 0.0, 2024-03-13 20:48:01.966
41.0, 1964.1468380289152, 1.2229472855105996, -3.8109580548480153, 0.4226086949929595, 0.01600000075995922, -0.19200000911951065, 1.0400000493973494, 0.0, 0.0, 0.0, 0.0, 0.0, 1.71038808197987E9, 0.0, 2024-03-13 20:48:01.979
41.0, 2007.7540715122595, -130.9151979489252, 53.708703263662755, -173.49769884441048, 0.01600000075995922, -0.19200000911951065, 1.0400000493973494, 0.0, 0.0, 0.0, 0.0, 0.0, 1.71038808197987E9, 0.0, 2024-03-13 20:48:01.979
42.0, 2133.745691169519, -142.8791379071772, 173.64168499270454, -149.900800073985, 0.01600000075995922, -0.19200000911951065, 1.0400000493973494, 0.0, 0.0, 0.0, 0.0, 0.0, 1.7103880819956489E9, 0.0, 2024-03-13 20:48:01.995
42.0, 2318.5790267796256, -183.87779117142782, 348.9719348154031, -167.35678311716765, 0.01600000075995922, -0.19200000911951065, 1.0400000493973494, 0.0, 0.0, 0.0, 0.0, 0.0, 1.7103880819956489E9, 0.0, 2024-03-13 20:48:01.995
43.0, 2561.5865062004887, 31.701261974405497, 117.13740651216358, -6.324170825071633, 0.01600000075995922, -0.19200000911951065, 1.0400000493973494, 0.0, 0.0, 0.0, 0.0, 0.0, 1.7103880819962676E9, 0.0, 2024-03-13 20:48:01.996
43.0, 2721.5326775554568, -51.61996913840994, 280.19143473031, -76.76144659053534, 0.01600000075995922, -0.19200000911951065, 1.0400000493973494, 0.0, 0.0, 0.0, 0.0, 0.0, 1.7103880819962676E9, 0.0, 2024-03-13 20:48:01.996
44.0, 2662.1767253587022, 66.55338966147974, 217.16664067702368, 88.66180824954063, 0.01600000075995922, -0.19200000911951065, 1.0400000493973494, 0.0, 0.0, 0.0, 0.0, 0.0, 1.7103880820098891E9, 0.0, 2024-03-13 20:48:02.009
44.0, 2547.0644746725447, 80.68273169407621, 99.20458622463048, 60.97719882754609, 0.01600000075995922, -0.19200000911951065, 1.0400000493973494, 0.0, 0.0, 0.0, 0.0, 0.0, 1.7103880820098891E9, 0.0, 2024-03-13 20:48:02.009
45.0, 2356.4230744312517, 138.14816446322948, -70.8112657610327, 98.92783362790942, 0.01600000075995922, -0.19200000911951065, 1.0400000493973494, 0.0, 0.0, 0.0, 0.0, 0.0, 1.7103880820256891E9, 0.0, 2024-03-13 20:48:02.025
45.0, 2591.877825891599, 382.70583241572604, 153.169472635258, -90.20264703128487, 0.01600000075995922, -0.19200000911951065, 1.0400000493973494, 0.0, 0.0, 0.0, 0.0, 0.0, 1.7103880820256891E9, 0.0, 2024-03-13 20:48:02.025
46.0, 2445.88522127131, 485.26510890061036, -4.0839707516133785, 0.3029318964108825, 0.01600000075995922, -0.19200000911951065, 1.0400000493973494, 0.0, 0.0, 0.0, 0.0, 0.0, 1.710388082026366E9, 0.0, 2024-03-13 20:48:02.026
46.0, 2477.24428239977, 348.2202149243094, 49.729449710808694, -181.50482464954257, 0.01600000075995922, -0.19200000911951065, 1.0400000493973494, 0.0, 0.0, 0.0, 0.0, 0.0, 1.710388082026366E9, 0.0, 2024-03-13 20:48:02.026
47.0, 2622.933955123648, 337.64003794966266, 177.61345874564722, -159.11965346476063, 0.01600000075995922, -0.19200000911951065, 1.0400000493973494, 0.0, 0.0, 0.0, 0.0, 0.0, 1.71038808203991E9, 0.0, 2024-03-13 20:48:02.039
47.0, 2791.0648975316435, 285.8068945137784, 337.82329304749146, -185.47285850252956, 0.01600000075995922, -0.19200000911951065, 1.0400000493973494, 0.0, 0.0, 0.0, 0.0, 0.0, 1.71038808203991E9, 0.0, 2024-03-13 20:48:02.039
48.0, 2556.3394265626557, 514.3185217063874, 110.12135419528931, -11.541331263259053, 0.01600000075995922, -0.19200000911951065, 1.0400000493973494, 0.0, 0.0, 0.0, 0.0, 0.0, 1.7103880820558352E9, 0.0, 2024-03-13 20:48:02.055
48.0, 2720.421927268617, 444.33377383556217, 285.8162442636676, -75.28792600799352, 0.01600000075995922, -0.19200000911951065, 1.0400000493973494, 0.0, 0.0, 0.0, 0.0, 0.0, 1.7103880820558352E9, 0.0, 2024-03-13 20:48:02.055
49.0, 2667.6220196941867, 560.8540968550369, 213.0116118262522, 91.65746811404824, 0.01600000075995922, -0.19200000911951065, 1.0400000493973494, 0.0, 0.0, 0.0, 0.0, 0.0, 1.7103880820561912E9, 0.0, 2024-03-13 20:48:02.056
49.0, 2541.6528394366615, 587.3512880410999, 100.48363200947642, 77.67959202965721, 0.01600000075995922, -0.19200000911951065, 1.0400000493973494, 0.0, 0.0, 0.0, 0.0, 0.0, 1.7103880820561912E9, 0.0, 2024-03-13 20:48:02.056
50.0, 2372.411146741826, 636.31592821097, -69.4050633776933, 105.29688325244933, 0.01600000075995922, -0.19200000911951065, 1.0400000493973494, 0.0, 0.0, 0.0, 0.0, 0.0, 1.7103880820698893E9, 0.0, 2024-03-13 20:48:02.069
50.0, 2602.734755462967, 393.5739816869609, 153.99225062550977, -81.33160433638841, 0.01600000075995922, -0.19200000911951065, 1.0400000493973494, 0.0, 0.0, 0.0, 0.0, 0.0, 1.7103880820698893E9, 0.0, 2024-03-13 20:48:02.069
51.0, 2448.29745674273, 490.4336506393738, -5.426594835706055, -0.6956213917583227, 0.01600000075995922, -0.19200000911951065, 1.0400000493973494, 0.0, 0.0, 0.0, 0.0, 0.0, 1.7103880820857117E9, 0.0, 2024-03-13 20:48:02.085
51.0, 2491.452162331436, 372.7053399342112, 55.15230464655906, -169.58576349075884, 0.01600000075995922, -0.19200000911951065, 1.0400000493973494, 0.0, 0.0, 0.0, 0.0, 0.0, 1.7103880820857117E9, 0.0, 2024-03-13 20:48:02.085
52.0, 2629.1010501505807, 352.05361237889156, 189.11739100934938, -145.84300862206146, 0.01600000075995922, -0.19200000911951065, 1.0400000493973494, 0.0, 0.0, 0.0, 0.0, 0.0, 1.7103880820862195E9, 0.0, 2024-03-13 20:48:02.086
52.0, 2798.103389248252, 298.2084027668461, 348.3361518229358, -177.5330508965999, 0.01600000075995922, -0.19200000911951065, 1.0400000493973494, 0.0, 0.0, 0.0, 0.0, 0.0, 1.7103880820862195E9, 0.0, 2024-03-13 20:48:02.086
53.0, 2564.19695636956, 529.0425078319386, 118.88019989151508, 0.044878799468278885, 0.01600000075995922, -0.19200000911951065, 1.0400000493973494, 0.0, 0.0, 0.0, 0.0, 0.0, 1.7103880820999024E9, 0.0, 2024-03-13 20:48:02.099
53.0, 2719.180280483328, 446.0690874150023, 278.83011114643887, -75.21686790883541, 0.01600000075995922, -0.19200000911951065, 1.0400000493973494, 0.0, 0.0, 0.0, 0.0, 0.0, 1.7103880820999024E9, 0.0, 2024-03-13 20:48:02.099
54.0, 2671.866806143895, 557.3946893960238, 211.31743714632466, 86.040138380602, 0.01600000075995922, -0.19200000911951065, 1.0400000493973494, 0.0, 0.0, 0.0, 0.0, 0.0, 1.710388082115559E9, 0.0, 2024-03-13 20:48:02.115
54.0, 2551.1559252240695, 576.5130579695106, 97.27853774745017, 65.99614456808195, 0.01600000075995922, -0.19200000911951065, 1.0400000493973494, 0.0, 0.0, 0.0, 0.0, 0.0, 1.710388082115559E9, 0.0, 2024-03-13 20:48:02.115
55.0, 2371.408853553701, 640.2428231644444, -64.46839543618262, 110.74965738784522, 0.01600000075995922, -0.19200000911951065, 1.0400000493973494, 0.0, 0.0, 0.0, 0.0, 0.0, 1.7103880821162436E9, 0.0, 2024-03-13 20:48:02.116
55.0, 2605.434963230975, 872.5149197624996, 152.8740205387585, -92.3381299059838, 0.01600000075995922, -0.19200000911951065, 1.0400000493973494, 0.0, 0.0, 0.0, 0.0, 0.0, 1.7103880821162436E9, 0.0, 2024-03-13 20:48:02.116
56.0, 2441.6479146215133, 972.7741577746347, -6.556044622324407, -7.300284713506699, 0.01600000075995922, -0.19200000911951065, 1.0400000493973494, 0.0, 0.0, 0.0, 0.0, 0.0, 1.710388082129841E9, 0.0, 2024-03-13 20:48:02.129
56.0, 2489.9823816488497, 849.66787093319, 48.56634082458913, -175.14699472486973, 0.01600000075995922, -0.19200000911951065, 1.0400000493973494, 0.0, 0.0, 0.0, 0.0, 0.0, 1.710388082129841E9, 0.0, 2024-03-13 20:48:02.129
57.0, 2627.563951268792, 838.2574361683801, 181.065386404749, -150.31966886902228, 0.01600000075995922, -0.19200000911951065, 1.0400000493973494, 0.0, 0.0, 0.0, 0.0, 0.0, 1.7103880821455247E9, 0.0, 2024-03-13 20:48:02.145
57.0, 2796.050184172578, 783.2640772699378, 342.7786604887806, -179.21226597670466, 0.01600000075995922, -0.19200000911951065, 1.0400000493973494, 0.0, 0.0, 0.0, 0.0, 0.0, 1.7103880821455247E9, 0.0, 2024-03-13 20:48:02.145
58.0, 2565.079572759103, 1021.024477052968, 119.40004598535597, 5.475213535130024, 0.01600000075995922, -0.19200000911951065, 1.0400000493973494, 0.0, 0.0, 0.0, 0.0, 0.0, 1.7103880821463661E9, 0.0, 2024-03-13 20:48:02.146
58.0, 2733.7658903105184, 948.8144887085073, 289.5636240192689, -61.401677472516894, 0.01600000075995922, -0.19200000911951065, 1.0400000493973494, 0.0, 0.0, 0.0, 0.0, 0.0, 1.7103880821463661E9, 0.0, 2024-03-13 20:48:02.146
59.0, 2668.074547588825, 1052.8622453757562, 209.73171956511214, 88.7440860485658, 0.01600000075995922, -0.19200000911951065, 1.0400000493973494, 0.0, 0.0, 0.0, 0.0, 0.0, 1.7103880821600251E9, 0.0, 2024-03-13 20:48:02.160
59.0, 2546.675525077153, 1069.665615876671, 92.96643309853971, 68.64025383675471, 0.01600000075995922, -0.19200000911951065, 1.0400000493973494, 0.0, 0.0, 0.0, 0.0, 0.0, 1.7103880821600251E9, 0.0, 2024-03-13 20:48:02.160
60.0, 2371.3303156546317, 1136.2938035372645, -65.16027692798525, 114.40353964455426, 0.01600000075995922, -0.19200000911951065, 1.0400000493973494, 0.0, 0.0, 0.0, 0.0, 0.0, 1.7103880821759284E9, 0.0, 2024-03-13 20:48:02.175
60.0, 2596.3619659384713, 1369.7103095217608, 158.40533257322386, -83.67652160860598, 0.01600000075995922, -0.19200000911951065, 1.0400000493973494, 0.0, 0.0, 0.0, 0.0, 0.0, 1.7103880821759284E9, 0.0, 2024-03-13 20:48:02.175
61.0, 2441.0906695281155, 1473.0287856976502, -1.2977452846243978, 3.1115967631340027, 0.01600000075995922, -0.19200000911951065, 1.0400000493973494, 0.0, 0.0, 0.0, 0.0, 0.0, 1.7103880821762516E9, 0.0, 2024-03-13 20:48:02.176
61.0, 2490.109538247343, 1351.3773199389689, 54.73717575147748, -166.28343182988465, 0.01600000075995922, -0.19200000911951065, 1.0400000493973494, 0.0, 0.0, 0.0, 0.0, 0.0, 1.7103880821762516E9, 0.0, 2024-03-13 20:48:02.176
62.0, 2626.311084783636, 1340.3333953698166, 183.57111937506124, -145.18104632990435, 0.01600000075995922, -0.19200000911951065, 1.0400000493973494, 0.0, 0.0, 0.0, 0.0, 0.0, 1.7103880822062335E9, 0.0, 2024-03-13 20:48:02.206
62.0, 2802.5351706957445, 1268.7872392674908, 335.67659047292545, -187.54476307798177, 0.01600000075995922, -0.19200000911951065, 1.0400000493973494, 0.0, 0.0, 0.0, 0.0, 0.0, 1.7103880822062335E9, 0.0, 2024-03-13 20:48:02.206
63.0, 3044.7161322264, 1502.6731026964262, 112.1296804714948, -7.214267014525831, 0.01600000075995922, -0.19200000911951065, 1.0400000493973494, 0.0, 0.0, 0.0, 0.0, 0.0, 1.710388082206946E9, 0.0, 2024-03-13 20:48:02.206
63.0, 3218.0474055227824, 1432.2133875312284, 290.3490030099638, -68.52244698815048, 0.01600000075995922, -0.19200000911951065, 1.0400000493973494, 0.0, 0.0, 0.0, 0.0, 0.0, 1.710388082206946E9, 0.0, 2024-03-13 20:48:02.206
64.0, 3155.3891216651537, 1525.6921869236976, 209.6344821662642, 82.19178132619709, 0.01600000075995922, -0.19200000911951065, 1.0400000493973494, 0.0, 0.0, 0.0, 0.0, 0.0, 1.7103880822076795E9, 0.0, 2024-03-13 20:48:02.207
64.0, 3026.1512688463554, 1548.5354958530515, 96.78113105334342, 68.25878404127434, 0.01600000075995922, -0.19200000911951065, 1.0400000493973494, 0.0, 0.0, 0.0, 0.0, 0.0, 1.7103880822076795E9, 0.0, 2024-03-13 20:48:02.207
65.0, 2858.7271675299853, 1618.6829293719493, -67.29575980268419, 107.29398982878774, 0.01600000075995922, -0.19200000911951065, 1.0400000493973494, 0.0, 0.0, 0.0, 0.0, 0.0, 1.7103880822198346E9, 0.0, 2024-03-13 20:48:02.219
65.0, 3081.8552087363787, 1849.575002886355, 147.84011519839987, -94.35393598210067, 0.01600000075995922, -0.19200000911951065, 1.0400000493973494, 0.0, 0.0, 0.0, 0.0, 0.0, 1.7103880822198346E9, 0.0, 2024-03-13 20:48:02.219
66.0, 2930.903496774845, 1945.4735175501555, -12.139715256169438, -11.432874164544046, 0.01600000075995922, -0.19200000911951065, 1.0400000493973494, 0.0, 0.0, 0.0, 0.0, 0.0, 1.710388082235895E9, 0.0, 2024-03-13 20:48:02.235
66.0, 2978.09355441574, 1832.8501702845097, 47.650065335445106, -172.14385506045073, 0.01600000075995922, -0.19200000911951065, 1.0400000493973494, 0.0, 0.0, 0.0, 0.0, 0.0, 1.710388082235895E9, 0.0, 2024-03-13 20:48:02.235
67.0, 3104.00663617393, 1813.0100010195747, 176.24465536186472, -157.73215058119968, 0.01600000075995922, -0.19200000911951065, 1.0400000493973494, 0.0, 0.0, 0.0, 0.0, 0.0, 1.710388082236549E9, 0.0, 2024-03-13 20:48:02.236
67.0, 3270.2900680038147, 1746.456611358095, 322.0932738338597, -198.9140589432791, 0.01600000075995922, -0.19200000911951065, 1.0400000493973494, 0.0, 0.0, 0.0, 0.0, 0.0, 1.710388082236549E9, 0.0, 2024-03-13 20:48:02.236
68.0, 3042.1169017571956, 1501.4912943104282, 105.18842615373433, -6.664501721039414, 0.01600000075995922, -0.19200000911951065, 1.0400000493973494, 0.0, 0.0, 0.0, 0.0, 0.0, 1.7103880822499151E9, 0.0, 2024-03-13 20:48:02.249
68.0, 3207.6355240461417, 1430.8371043475345, 281.0441319202073, -75.24678710848093, 0.01600000075995922, -0.19200000911951065, 1.0400000493973494, 0.0, 0.0, 0.0, 0.0, 0.0, 1.7103880822499151E9, 0.0, 2024-03-13 20:48:02.249
69.0, 3150.089683427941, 1526.735619011335, 203.02981884451583, 75.2954058079049, 0.01600000075995922, -0.19200000911951065, 1.0400000493973494, 0.0, 0.0, 0.0, 0.0, 0.0, 1.7103880822655337E9, 0.0, 2024-03-13 20:48:02.265
69.0, 3022.890076084994, 1551.1272465223446, 86.93771436996758, 60.801423529628664, 0.01600000075995922, -0.19200000911951065, 1.0400000493973494, 0.0, 0.0, 0.0, 0.0, 0.0, 1.7103880822655337E9, 0.0, 2024-03-13 20:48:02.265
70.0, 2858.2783795353025, 1621.4317558393814, -71.95567514747381, 109.90070009790361, 0.01600000075995922, -0.19200000911951065, 1.0400000493973494, 0.0, 0.0, 0.0, 0.0, 0.0, 1.710388082266519E9, 0.0, 2024-03-13 20:48:02.266
70.0, 3078.874508471694, 1846.7251991201192, 141.70293937111273, -98.95027302764356, 0.01600000075995922, -0.19200000911951065, 1.0400000493973494, 0.0, 0.0, 0.0, 0.0, 0.0, 1.710388082266519E9, 0.0, 2024-03-13 20:48:02.266
71.0, 2927.2757938178256, 1944.2094313651323, -15.7113197138533, -14.047064233571291, 0.01600000075995922, -0.19200000911951065, 1.0400000493973494, 0.0, 0.0, 0.0, 0.0, 0.0, 1.7103880822798111E9, 0.0, 2024-03-13 20:48:02.279
71.0, 2978.878933406435, 1835.4905396532267, 49.0974066182971, -172.3084106585011, 0.01600000075995922, -0.19200000911951065, 1.0400000493973494, 0.0, 0.0, 0.0, 0.0, 0.0, 1.7103880822798111E9, 0.0, 2024-03-13 20:48:02.279
72.0, 3114.5681136487983, 1818.1374038588256, 179.7339820205234, -152.0886415480636, 0.01600000075995922, -0.19200000911951065, 1.0400000493973494, 0.0, 0.0, 0.0, 0.0, 0.0, 1.7103880822956054E9, 0.0, 2024-03-13 20:48:02.295
72.0, 3285.27958702622, 1750.8023751066066, 330.04056123970076, -195.5331893833354, 0.01600000075995922, -0.19200000911951065, 1.0400000493973494, 0.0, 0.0, 0.0, 0.0, 0.0, 1.7103880822956054E9, 0.0, 2024-03-13 20:48:02.295
73.0, 3049.3311687717214, 1992.6317860414274, 107.97465162072331, -2.610450169071555, 0.01600000075995922, -0.19200000911951065, 1.0400000493973494, 0.0, 0.0, 0.0, 0.0, 0.0, 1.7103880822965493E9, 0.0, 2024-03-13 20:48:02.296
73.0, 3210.6536233103834, 1916.4762032437138, 278.6767752482556, -74.7381607145071, 0.01600000075995922, -0.19200000911951065, 1.0400000493973494, 0.0, 0.0, 0.0, 0.0, 0.0, 1.7103880822965493E9, 0.0, 2024-03-13 20:48:02.296
74.0, 3147.4904529587366, 2004.1693774047308, 200.7410000716336, 67.29575980268419, 0.01600000075995922, -0.19200000911951065, 1.0400000493973494, 0.0, 0.0, 0.0, 0.0, 0.0, 1.7103880823099418E9, 0.0, 2024-03-13 20:48:02.309
74.0, 3021.655909099616, 2031.074217685964, 77.01575978752226, 53.30666401842609, 0.01600000075995922, -0.19200000911951065, 1.0400000493973494, 0.0, 0.0, 0.0, 0.0, 0.0, 1.7103880823099418E9, 0.0, 2024-03-13 20:48:02.309
75.0, 2849.2427812423557, 2109.393332608044, -76.04712569899857, 102.55179668497294, 0.01600000075995922, -0.19200000911951065, 1.0400000493973494, 0.0, 0.0, 0.0, 0.0, 0.0, 1.7103880823255303E9, 0.0, 2024-03-13 20:48:02.325
75.0, 3083.373608118389, 2331.055333031807, 143.48313175002113, -105.58485554903746, 0.01600000075995922, -0.19200000911951065, 1.0400000493973494, 0.0, 0.0, 0.0, 0.0, 0.0, 1.7103880823255303E9, 0.0, 2024-03-13 20:48:02.325
76.0, 2921.14609779045, 2430.9218815485947, -23.191119625233114, -23.38559442292899, 0.01600000075995922, -0.19200000911951065, 1.0400000493973494, 0.0, 0.0, 0.0, 0.0, 0.0, 1.7103880823262408E9, 0.0, 2024-03-13 20:48:02.326
76.0, 2978.804135407321, 2320.228322660085, 40.69011151790619, -177.99305859114975, 0.01600000075995922, -0.19200000911951065, 1.0400000493973494, 0.0, 0.0, 0.0, 0.0, 0.0, 1.7103880823262408E9, 0.0, 2024-03-13 20:48:02.326
77.0, 3116.4754626262, 2315.9760564104654, 185.64302395051345, -145.15486703021452, 0.01600000075995922, -0.19200000911951065, 1.0400000493973494, 0.0, 0.0, 0.0, 0.0, 0.0, 1.7103880823399415E9, 0.0, 2024-03-13 20:48:02.339
77.0, 3273.3941849670373, 2231.2729322640225, 322.3513269308023, -204.73334327433258, 0.01600000075995922, -0.19200000911951065, 1.0400000493973494, 0.0, 0.0, 0.0, 0.0, 0.0, 1.7103880823399415E9, 0.0, 2024-03-13 20:48:02.339
78.0, 3031.753638979979, 2473.397795295343, 103.65880707185715, -13.205586743541062, 0.01600000075995922, -0.19200000911951065, 1.0400000493973494, 0.0, 0.0, 0.0, 0.0, 0.0, 1.7103880823559835E9, 0.0, 2024-03-13 20:48:02.355
78.0, 3208.1703297398053, 2403.734678820707, 286.13413575990126, -69.46864167694002, 0.01600000075995922, -0.19200000911951065, 1.0400000493973494, 0.0, 0.0, 0.0, 0.0, 0.0, 1.7103880823559835E9, 0.0, 2024-03-13 20:48:02.355
79.0, 3136.8840966844, 2487.4859984284267, 198.39982269937173, 64.74514803290367, 0.01600000075995922, -0.19200000911951065, 1.0400000493973494, 0.0, 0.0, 0.0, 0.0, 0.0, 1.7103880823564682E9, 0.0, 2024-03-13 20:48:02.356
79.0, 3018.6490295352414, 2524.66434388794, 88.92734114639461, 58.714559354353696, 0.01600000075995922, -0.19200000911951065, 1.0400000493973494, 0.0, 0.0, 0.0, 0.0, 0.0, 1.7103880823564682E9, 0.0, 2024-03-13 20:48:02.356
80.0, 2866.3827427392825, 2602.4037743168883, -60.145071087405086, 117.88538650330156, 0.01600000075995922, -0.19200000911951065, 1.0400000493973494, 0.0, 0.0, 0.0, 0.0, 0.0, 1.7103880823698723E9, 0.0, 2024-03-13 20:48:02.369
80.0, 3077.6964399856515, 2828.3816192895174, 154.59811441833153, -96.58291635569185, 0.01600000075995922, -0.19200000911951065, 1.0400000493973494, 0.0, 0.0, 0.0, 0.0, 0.0, 1.7103880823698723E9, 0.0, 2024-03-13 20:48:02.369
81.0, 2921.33683268819, 2922.7766941711307, -1.690434779971838, -2.973220464773476, 0.01600000075995922, -0.19200000911951065, 1.0400000493973494, 0.0, 0.0, 0.0, 0.0, 0.0, 1.7103880823856347E9, 0.0, 2024-03-13 20:48:02.385
81.0, 2978.7181177083403, 2816.866467325948, 67.89040389563888, -156.7092879433185, 0.01600000075995922, -0.19200000911951065, 1.0400000493973494, 0.0, 0.0, 0.0, 0.0, 0.0, 1.7103880823856347E9, 0.0, 2024-03-13 20:48:02.385
82.0, 3109.7773018055595, 2798.4923388436437, 196.73182731913403, -140.62210828391835, 0.01600000075995922, -0.19200000911951065, 1.0400000493973494, 0.0, 0.0, 0.0, 0.0, 0.0, 1.710388082386466E9, 0.0, 2024-03-13 20:48:02.386
82.0, 3277.8409260143526, 2721.7065829033963, 337.9953284454532, -192.2383375223726, 0.01600000075995922, -0.19200000911951065, 1.0400000493973494, 0.0, 0.0, 0.0, 0.0, 0.0, 1.710388082386466E9, 0.0, 2024-03-13 20:48:02.386
83.0, 3041.036070670001, 2483.069176580757, 120.4285184731707, 7.0609311163425446, 0.01600000075995922, -0.19200000911951065, 1.0400000493973494, 0.0, 0.0, 0.0, 0.0, 0.0, 1.7103880824000933E9, 0.0, 2024-03-13 20:48:02.400
83.0, 3208.6602566340007, 2407.2501847790554, 296.98732543131337, -62.6956828571856, 0.01600000075995922, -0.19200000911951065, 1.0400000493973494, 0.0, 0.0, 0.0, 0.0, 0.0, 1.7103880824000933E9, 0.0, 2024-03-13 20:48:02.400
84.0, 3139.9769939477555, 2496.0279299272224, 211.07060374924913, 72.06039234623313, 0.01600000075995922, -0.19200000911951065, 1.0400000493973494, 0.0, 0.0, 0.0, 0.0, 0.0, 1.7103880824155722E9, 0.0, 2024-03-13 20:48:02.415
84.0, 3026.386882543564, 2532.4508155956864, 97.88066164031625, 70.80191601114348, 0.01600000075995922, -0.19200000911951065, 1.0400000493973494, 0.0, 0.0, 0.0, 0.0, 0.0, 1.7103880824155722E9, 0.0, 2024-03-13 20:48:02.415
85.0, 2860.4998801089823, 2614.4836511737667, -52.489495878107846, 128.74605597462505, 0.01600000075995922, -0.19200000911951065, 1.0400000493973494, 0.0, 0.0, 0.0, 0.0, 0.0, 1.710388082416242E9, 0.0, 2024-03-13 20:48:02.416
85.0, 3092.1810725140385, 2839.7658747546375, 166.49099627742544, -87.06487096846104, 0.01600000075995922, -0.19200000911951065, 1.0400000493973494, 0.0, 0.0, 0.0, 0.0, 0.0, 1.710388082416242E9, 0.0, 2024-03-13 20:48:02.416
86.0, 2926.393177428283, 2930.432269380428, -3.1153366630896926, -1.2341669853776693, 0.01600000075995922, -0.19200000911951065, 1.0400000493973494, 0.0, 0.0, 0.0, 0.0, 0.0, 1.7103880824299483E9, 0.0, 2024-03-13 20:48:02.429
86.0, 2992.492169245146, 2826.564027911052, 71.12167745735496, -152.68889549095184, 0.01600000075995922, -0.19200000911951065, 1.0400000493973494, 0.0, 0.0, 0.0, 0.0, 0.0, 1.7103880824299483E9, 0.0, 2024-03-13 20:48:02.429
87.0, 3100.857640411239, 2797.355409257114, 191.80637907749042, -146.16837991820648, 0.01600000075995922, -0.19200000911951065, 1.0400000493973494, 0.0, 0.0, 0.0, 0.0, 0.0, 1.710388082445527E9, 0.0, 2024-03-13 20:48:02.445
87.0, 3278.4355701073073, 2722.832292790059, 339.4389298283495, -197.59761415887624, 0.01600000075995922, -0.19200000911951065, 1.0400000493973494, 0.0, 0.0, 0.0, 0.0, 0.0, 1.710388082445527E9, 0.0, 2024-03-13 20:48:02.445
88.0, 3036.8586024194956, 2478.6373951332644, 121.13535956479609, 2.4010157715529203, 0.01600000075995922, -0.19200000911951065, 1.0400000493973494, 0.0, 0.0, 0.0, 0.0, 0.0, 1.7103880824462585E9, 0.0, 2024-03-13 20:48:02.446
88.0, 3207.0072208535857, 2405.4026742009446, 298.62914151186123, -63.395044148899615, 0.01600000075995922, -0.19200000911951065, 1.0400000493973494, 0.0, 0.0, 0.0, 0.0, 0.0, 1.7103880824462585E9, 0.0, 2024-03-13 20:48:02.446
89.0, 3142.8828962133266, 2488.170400120318, 207.92534788651392, 69.62197757512331, 0.01600000075995922, -0.19200000911951065, 1.0400000493973494, 0.0, 0.0, 0.0, 0.0, 0.0, 1.7103880824598463E9, 0.0, 2024-03-13 20:48:02.459
89.0, 3021.622250000015, 2525.4459829786792, 95.35622917022556, 67.11437465483323, 0.01600000075995922, -0.19200000911951065, 1.0400000493973494, 0.0, 0.0, 0.0, 0.0, 0.0, 1.7103880824598463E9, 0.0, 2024-03-13 20:48:02.459
90.0, 2865.5637046489865, 2613.3878604867496, -51.259068792685866, 129.7333895629272, 0.01600000075995922, -0.19200000911951065, 1.0400000493973494, 0.0, 0.0, 0.0, 0.0, 0.0, 1.7103880824758003E9, 0.0, 2024-03-13 20:48:02.475
90.0, 3077.4570863884874, 2823.467390747741, 154.16054612351581, -98.87921492848545, 0.01600000075995922, -0.19200000911951065, 1.0400000493973494, 0.0, 0.0, 0.0, 0.0, 0.0, 1.7103880824758003E9, 0.0, 2024-03-13 20:48:02.475
91.0, 2926.643750725314, 2926.015447532758, -16.234905707649887, -7.5882570100948215, 0.01600000075995922, -0.19200000911951065, 1.0400000493973494, 0.0, 0.0, 0.0, 0.0, 0.0, 1.71038808247625E9, 0.0, 2024-03-13 20:48:02.476
91.0, 2980.3823731886223, 2830.775155261159, 66.6637167101726, -149.31176583096385, 0.01600000075995922, -0.19200000911951065, 1.0400000493973494, 0.0, 0.0, 0.0, 0.0, 0.0, 1.71038808247625E9, 0.0, 2024-03-13 20:48:02.476
92.0, 3116.587659624871, 2808.28339692764, 196.06612512702122, -135.02347805025056, 0.01600000075995922, -0.19200000911951065, 1.0400000493973494, 0.0, 0.0, 0.0, 0.0, 0.0, 1.710388082489863E9, 0.0, 2024-03-13 20:48:02.489
92.0, 3277.3322996203788, 2731.650976885576, 344.5438932678662, -183.62534792441875, 0.01600000075995922, -0.19200000911951065, 1.0400000493973494, 0.0, 0.0, 0.0, 0.0, 0.0, 1.710388082489863E9, 0.0, 2024-03-13 20:48:02.489
93.0, 3047.1208878979087, 2493.7465909542516, 130.23453615698963, 20.225378960371017, 0.01600000075995922, -0.19200000911951065, 1.0400000493973494, 0.0, 0.0, 0.0, 0.0, 0.0, 1.7103880825061507E9, 0.0, 2024-03-13 20:48:02.506
93.0, 3225.1382558387704, 2419.66291273199, 308.2743434975855, -49.93514420837164, 0.01600000075995922, -0.19200000911951065, 1.0400000493973494, 0.0, 0.0, 0.0, 0.0, 0.0, 1.7103880825061507E9, 0.0, 2024-03-13 20:48:02.506
94.0, 3136.809298685286, 2490.9828048869967, 209.95985346240923, 73.07764513418078, 0.01600000075995922, -0.19200000911951065, 1.0400000493973494, 0.0, 0.0, 0.0, 0.0, 0.0, 1.7103880825067804E9, 0.0, 2024-03-13 20:48:02.506
94.0, 3014.422942585312, 2519.7276759464294, 92.36430920567364, 64.72083868319169, 0.01600000075995922, -0.19200000911951065, 1.0400000493973494, 0.0, 0.0, 0.0, 0.0, 0.0, 1.7103880825067804E9, 0.0, 2024-03-13 20:48:02.506
95.0, 2853.5661055911332, 2604.685113289859, -56.588426229543984, 127.0593610946089, 0.01600000075995922, -0.19200000911951065, 1.0400000493973494, 0.0, 0.0, 0.0, 0.0, 0.0, 1.7103880825207224E9, 0.0, 2024-03-13 20:48:02.520
95.0, 3082.404974029865, 2818.7102380041033, 155.13666001195088, -101.96089249197394, 0.01600000075995922, -0.19200000911951065, 1.0400000493973494, 0.0, 0.0, 0.0, 0.0, 0.0, 1.7103880825207224E9, 0.0, 2024-03-13 20:48:02.520
96.0, 2919.646397908218, 2919.0667134150863, -12.031258157454431, -11.29075796622783, 0.01600000075995922, -0.19200000911951065, 1.0400000493973494, 0.0, 0.0, 0.0, 0.0, 0.0, 1.7103880825358083E9, 0.0, 2024-03-13 20:48:02.535
96.0, 2980.202857990749, 2825.8983257189393, 63.357645149342716, -147.50913405232131, 0.01600000075995922, -0.19200000911951065, 1.0400000493973494, 0.0, 0.0, 0.0, 0.0, 0.0, 1.7103880825358083E9, 0.0, 2024-03-13 20:48:02.535
97.0, 3125.570899318438, 2808.571369224228, 198.41478229919448, -136.0482106381096, 0.01600000075995922, -0.19200000911951065, 1.0400000493973494, 0.0, 0.0, 0.0, 0.0, 0.0, 1.7103880825363357E9, 0.0, 2024-03-13 20:48:02.536
97.0, 3269.1493985173292, 2726.3328391485848, 341.7464481010102, -191.56141563039273, 0.01600000075995922, -0.19200000911951065, 1.0400000493973494, 0.0, 0.0, 0.0, 0.0, 0.0, 1.7103880825363357E9, 0.0, 2024-03-13 20:48:02.536
98.0, 3049.937032564543, 2500.16051937826, 130.90397824905813, 18.54990378022194, 0.01600000075995922, -0.19200000911951065, 1.0400000493973494, 0.0, 0.0, 0.0, 0.0, 0.0, 1.7103880825501304E9, 0.0, 2024-03-13 20:48:02.550
98.0, 3219.943534800317, 2425.4821970630437, 312.74352394463494, -44.415051873773336, 0.01600000075995922, -0.19200000911951065, 1.0400000493973494, 0.0, 0.0, 0.0, 0.0, 0.0, 1.7103880825501304E9, 0.0, 2024-03-13 20:48:02.550
99.0, 3144.5022728941403, 2497.662266207859, 221.22069222899154, 83.02951891627163, 0.01600000075995922, -0.19200000911951065, 1.0400000493973494, 0.0, 0.0, 0.0, 0.0, 0.0, 1.7103880825818832E9, 0.0, 2024-03-13 20:48:02.581
99.0, 3023.791391974315, 2536.280473150313, 100.84640230517834, 79.59816070692614, 0.01600000075995922, -0.19200000911951065, 1.0400000493973494, 0.0, 0.0, 0.0, 0.0, 0.0, 1.7103880825818832E9, 0.0, 2024-03-13 20:48:02.581
100.0, 2880.6990797696635, 2636.5789801119827, -39.605540530756116, 147.44929565303028, 0.01600000075995922, -0.19200000911951065, 1.0400000493973494, 0.0, 0.0, 0.0, 0.0, 0.0, 1.710388082582594E9, 0.0, 2024-03-13 20:48:02.582
100.0, 3095.105674279388, 2842.499741622247, 163.6187531114556, -83.82985750678927, 0.01600000075995922, -0.19200000911951065, 1.0400000493973494, 0.0, 0.0, 0.0, 0.0, 0.0, 1.710388082582594E9, 0.0, 2024-03-13 20:48:02.582
0.0, -409.31709055043757, 180.3117965636775, -140.41454383637756, 52.77372827474028, 0.01600000075995922, -0.19200000911951065, 1.0400000493973494, 0.0, 0.0, 0.0, 0.0, 0.0, 1.71038808258349E9, 0.0, 2024-03-13 20:48:02.583
1.0, -330.8539894800633, 95.1168755730614, -53.20755666960031, -77.22519418504089, 0.01600000075995922, -0.19200000911951065, 1.0400000493973494, 0.0, 0.0, 0.0, 0.0, 0.0, 1.7103880825841177E9, 0.0, 2024-03-13 20:48:02.584
1.0, -210.45726015651599, 65.57166592311114, 72.11836079554632, -73.95465167379007, 0.01600000075995922, -0.19200000911951065, 1.0400000493973494, 0.0, 0.0, 0.0, 0.0, 0.0, 1.7103880825841177E9, 0.0, 2024-03-13 20:48:02.584
2.0, -63.81578289391473, -32.146310069132596, 196.42141562281176, -140.8857712307945, 0.01600000075995922, -0.19200000911951065, 1.0400000493973494, 0.0, 0.0, 0.0, 0.0, 0.0, 1.7103880825948298E9, 0.0, 2024-03-13 20:48:02.594
2.0, -287.4412307944149, -252.95561330299824, -15.217652919702232, 72.36332424264401, 0.01600000075995922, -0.19200000911951065, 1.0400000493973494, 0.0, 0.0, 0.0, 0.0, 0.0, 1.7103880825948298E9, 0.0, 2024-03-13 20:48:02.594
3.0, -115.52363968128338, -326.79993792809546, 173.31257379660383, 8.46713349968195, 0.01600000075995922, -0.19200000911951065, 1.0400000493973494, 0.0, 0.0, 0.0, 0.0, 0.0, 1.7103880826109145E9, 0.0, 2024-03-13 20:48:02.610
3.0, -202.64086924912408, -267.6833393285051, 76.91291253874078, 126.95838379580528, 0.01600000075995922, -0.19200000911951065, 1.0400000493973494, 0.0, 0.0, 0.0, 0.0, 0.0, 1.7103880826109145E9, 0.0, 2024-03-13 20:48:02.610
4.0, -323.8641164628789, -228.4405690934509, -40.813528216443956, 123.99077318096533, 0.01600000075995922, -0.19200000911951065, 1.0400000493973494, 0.0, 0.0, 0.0, 0.0, 0.0, 1.7103880826112778E9, 0.0, 2024-03-13 20:48:02.611
4.0, -473.3815767914057, -137.79848381737247, -185.18114630598575, 190.35716784466058, 0.01600000075995922, -0.19200000911951065, 1.0400000493973494, 0.0, 0.0, 0.0, 0.0, 0.0, 1.7103880826112778E9, 0.0, 2024-03-13 20:48:02.611
5.0, -258.0736663923599, 70.2540206676349, 21.367918396834284, -37.40647935681045, 0.01600000075995922, -0.19200000911951065, 1.0400000493973494, 0.0, 0.0, 0.0, 0.0, 0.0, 1.71038808262593E9, 0.0, 2024-03-13 20:48:02.625
5.0, -428.3905803244561, 155.13479006197304, -157.91727562900633, 31.557275826111436, 0.01600000075995922, -0.19200000911951065, 1.0400000493973494, 0.0, 0.0, 0.0, 0.0, 0.0, 1.71038808262593E9, 0.0, 2024-03-13 20:48:02.625
6.0, -357.0519886696711, 70.71776826214045, -71.4433088535443, -95.97705256287009, 0.01600000075995922, -0.19200000911951065, 1.0400000493973494, 0.0, 0.0, 0.0, 0.0, 0.0, 1.7103880826407351E9, 0.0, 2024-03-13 20:48:02.640
6.0, -224.96433208463714, 39.78879562858492, 61.89347431669012, -90.90761817293242, 0.01600000075995922, -0.19200000911951065, 1.0400000493973494, 0.0, 0.0, 0.0, 0.0, 0.0, 1.7103880826407351E9, 0.0, 2024-03-13 20:48:02.640
7.0, -75.58524805447087, -44.08407072769478, 198.98698699241504, -150.3290186189115, 0.01600000075995922, -0.19200000911951065, 1.0400000493973494, 0.0, 0.0, 0.0, 0.0, 0.0, 1.7103880826413105E9, 0.0, 2024-03-13 20:48:02.641
7.0, -297.2061095787212, -262.13706769421697, -7.221746814437211, 72.01177364680916, 0.01600000075995922, -0.19200000911951065, 1.0400000493973494, 0.0, 0.0, 0.0, 0.0, 0.0, 1.7103880826413105E9, 0.0, 2024-03-13 20:48:02.641
8.0, -116.94480166444555, -327.1627082237974, 173.9894956885837, 13.186887243762612, 0.01600000075995922, -0.19200000911951065, 1.0400000493973494, 0.0, 0.0, 0.0, 0.0, 0.0, 1.7103880826548743E9, 0.0, 2024-03-13 20:48:02.654
8.0, -194.0764983505942, -266.36689454410225, 70.91785290976986, 120.38737957365811, 0.01600000075995922, -0.19200000911951065, 1.0400000493973494, 0.0, 0.0, 0.0, 0.0, 0.0, 1.7103880826548743E9, 0.0, 2024-03-13 20:48:02.654
9.0, -320.80861819908023, -227.82348560076207, -47.50046933721751, 114.27451309608296, 0.01600000075995922, -0.19200000911951065, 1.0400000493973494, 0.0, 0.0, 0.0, 0.0, 0.0, 1.710388082670618E9, 0.0, 2024-03-13 20:48:02.670
9.0, -465.767140481621, -133.73695246549323, -188.48347796685994, 182.3126430399716, 0.01600000075995922, -0.19200000911951065, 1.0400000493973494, 0.0, 0.0, 0.0, 0.0, 0.0, 1.710388082670618E9, 0.0, 2024-03-13 20:48:02.670
10.0, -251.42412427114323, 59.83091949112713, 15.08488647127524, -58.08064631186426, 0.01600000075995922, -0.19200000911951065, 1.0400000493973494, 0.0, 0.0, 0.0, 0.0, 0.0, 1.7103880826712668E9, 0.0, 2024-03-13 20:48:02.671
10.0, -419.99076502397656, 152.2214079964906, -166.39188892859966, 22.91810692846775, 0.01600000075995922, -0.19200000911951065, 1.0400000493973494, 0.0, 0.0, 0.0, 0.0, 0.0, 1.7103880826712668E9, 0.0, 2024-03-13 20:48:02.671
11.0, -341.4192068548873, 77.01575978752226, -75.20938810892403, -102.53309718519449, 0.01600000075995922, -0.19200000911951065, 1.0400000493973494, 0.0, 0.0, 0.0, 0.0, 0.0, 1.710388082684892E9, 0.0, 2024-03-13 20:48:02.684
11.0, -204.42854142794386, 62.71438235696405, 54.350096106063575, -92.48211605427787, 0.01600000075995922, -0.19200000911951065, 1.0400000493973494, 0.0, 0.0, 0.0, 0.0, 0.0, 1.710388082684892E9, 0.0, 2024-03-13 20:48:02.684
12.0, -58.4153673578985, -33.791866049636155, 182.0265406933613, -160.42300859931856, 0.01600000075995922, -0.19200000911951065, 1.0400000493973494, 0.0, 0.0, 0.0, 0.0, 0.0, 1.7103880827005887E9, 0.0, 2024-03-13 20:48:02.700
12.0, -274.5460557471961, -245.31499769352376, -17.929080387577415, 67.42291640117764, 0.01600000075995922, -0.19200000911951065, 1.0400000493973494, 0.0, 0.0, 0.0, 0.0, 0.0, 1.7103880827005887E9, 0.0, 2024-03-13 20:48:02.700
13.0, -104.60687171062455, -322.02034578472376, 165.3578065908514, -4.506579446606338, 0.01600000075995922, -0.19200000911951065, 1.0400000493973494, 0.0, 0.0, 0.0, 0.0, 0.0, 1.7103880827012565E9, 0.0, 2024-03-13 20:48:02.701
13.0, -191.30897238338366, -258.55424353666604, 69.97165822098032, 116.3894265210256, 0.01600000075995922, -0.19200000911951065, 1.0400000493973494, 0.0, 0.0, 0.0, 0.0, 0.0, 1.7103880827012565E9, 0.0, 2024-03-13 20:48:02.701
14.0, -316.02528615575284, -229.68595577869564, -42.892912591807544, 118.0574219012633, 0.01600000075995922, -0.19200000911951065, 1.0400000493973494, 0.0, 0.0, 0.0, 0.0, 0.0, 1.7103880827149205E9, 0.0, 2024-03-13 20:48:02.714
14.0, -470.8534044213593, -133.87906866380945, -176.09318941365927, 197.24419361306354, 0.01600000075995922, -0.19200000911951065, 1.0400000493973494, 0.0, 0.0, 0.0, 0.0, 0.0, 1.7103880827149205E9, 0.0, 2024-03-13 20:48:02.714
15.0, -258.518714487087, 63.843832143582404, 22.452489383984357, 441.66722516715527, 0.01600000075995922, -0.19200000911951065, 1.0400000493973494, 0.0, 0.0, 0.0, 0.0, 0.0, 1.7103880827305431E9, 0.0, 2024-03-13 20:48:02.730
15.0, -428.5326965227723, 153.02174658700824, -148.81809903681278, 532.1316651953384, 0.01600000075995922, -0.19200000911951065, 1.0400000493973494, 0.0, 0.0, 0.0, 0.0, 0.0, 1.7103880827305431E9, 0.0, 2024-03-13 20:48:02.730
16.0, -350.4211460482329, 83.9270949056372, -54.6548979524523, 408.77480505686253, 0.01600000075995922, -0.19200000911951065, 1.0400000493973494, 0.0, 0.0, 0.0, 0.0, 0.0, 1.71038808273125E9, 0.0, 2024-03-13 20:48:02.731
16.0, -217.7126660705544, 53.757321963086724, 73.80131577560678, 409.7714883950539, 0.01600000075995922, -0.19200000911951065, 1.0400000493973494, 0.0, 0.0, 0.0, 0.0, 0.0, 1.71038808273125E9, 0.0, 2024-03-13 20:48:02.731
17.0, -68.24008454149589, -37.883316601160914, 205.17652141908184, 343.4275331310928, 0.01600000075995922, -0.19200000911951065, 1.0400000493973494, 0.0, 0.0, 0.0, 0.0, 0.0, 1.7103880827448425E9, 0.0, 2024-03-13 20:48:02.744
17.0, -284.834520525299, -245.565570990555, -3.175175062380731, 570.9032080359757, 0.01600000075995922, -0.19200000911951065, 1.0400000493973494, 0.0, 0.0, 0.0, 0.0, 0.0, 1.7103880827448425E9, 0.0, 2024-03-13 20:48:02.744
18.0, -109.37150425417349, -321.1938278945163, 175.5490339701064, 503.1960592381656, 0.01600000075995922, -0.19200000911951065, 1.0400000493973494, 0.0, 0.0, 0.0, 0.0, 0.0, 1.7103880827605517E9, 0.0, 2024-03-13 20:48:02.760
18.0, -197.24419361306354, -261.25445130467415, 67.89975364552811, 607.479429602623, 0.01600000075995922, -0.19200000911951065, 1.0400000493973494, 0.0, 0.0, 0.0, 0.0, 0.0, 1.7103880827605517E9, 0.0, 2024-03-13 20:48:02.760
19.0, -316.10008415486664, -224.8465252360329, -51.12817229423672, 614.2598682222888, 0.01600000075995922, -0.19200000911951065, 1.0400000493973494, 0.0, 0.0, 0.0, 0.0, 0.0, 1.7103880827614324E9, 0.0, 2024-03-13 20:48:02.761
19.0, -457.15415088366717, -114.83549808943644, -181.59084234852344, 688.9737195870839, 0.01600000075995922, -0.19200000911951065, 1.0400000493973494, 0.0, 0.0, 0.0, 0.0, 0.0, 1.7103880827614324E9, 0.0, 2024-03-13 20:48:02.761
20.0, -243.8396071610041, 75.95736810006201, 18.566733330022544, 444.8928888789378, 0.01600000075995922, -0.19200000911951065, 1.0400000493973494, 0.0, 0.0, 0.0, 0.0, 0.0, 1.7103880827749093E9, 0.0, 2024-03-13 20:48:02.774
20.0, -412.73161920998245, 164.31250455323607, -162.2592994775623, 525.274558626581, 0.01600000075995922, -0.19200000911951065, 1.0400000493973494, 0.0, 0.0, 0.0, 0.0, 0.0, 1.7103880827749093E9, 0.0, 2024-03-13 20:48:02.774
21.0, -340.0130044715479, 91.02168512158096, -72.51292024087161, 400.4366981056519, 0.01600000075995922, -0.19200000911951065, 1.0400000493973494, 0.0, 0.0, 0.0, 0.0, 0.0, 1.7103880827906077E9, 0.0, 2024-03-13 20:48:02.790
21.0, -213.91666761552915, 50.44751050230116, 54.61188910296187, 397.04834874579683, 0.01600000075995922, -0.19200000911951065, 1.0400000493973494, 0.0, 0.0, 0.0, 0.0, 0.0, 1.7103880827906077E9, 0.0, 2024-03-13 20:48:02.790
22.0, -65.6034550727345, -52.48388602817431, 177.03751415247098, 319.9596609091386, 0.01600000075995922, -0.19200000911951065, 1.0400000493973494, 0.0, 0.0, 0.0, 0.0, 0.0, 1.7103880827912657E9, 0.0, 2024-03-13 20:48:02.791
22.0, -287.78530159033835, -259.5602766247466, -23.422993422485888, 552.2373673571274, 0.01600000075995922, -0.19200000911951065, 1.0400000493973494, 0.0, 0.0, 0.0, 0.0, 0.0, 1.7103880827912657E9, 0.0, 2024-03-13 20:48:02.791
23.0, -103.04359352914616, -330.2967443866655, 167.82614056160673, 491.80058407317847, 0.01600000075995922, -0.19200000911951065, 1.0400000493973494, 0.0, 0.0, 0.0, 0.0, 0.0, 1.710388082804844E9, 0.0, 2024-03-13 20:48:02.804
23.0, -200.31091157672927, -282.253989555873, 60.3077567354776, 592.8339813761413, 0.01600000075995922, -0.19200000911951065, 1.0400000493973494, 0.0, 0.0, 0.0, 0.0, 0.0, 1.710388082804844E9, 0.0, 2024-03-13 20:48:02.804
24.0, -320.75625959970057, -235.5949977086857, -54.79327425081283, 602.329587363638, 0.01600000075995922, -0.19200000911951065, 1.0400000493973494, 0.0, 0.0, 0.0, 0.0, 0.0, 1.7103880828210154E9, 0.0, 2024-03-13 20:48:02.821
24.0, -475.2328272694722, -132.39806828135625, -186.04132329579443, 681.8230308718048, 0.01600000075995922, -0.19200000911951065, 1.0400000493973494, 0.0, 0.0, 0.0, 0.0, 0.0, 1.7103880828210154E9, 0.0, 2024-03-13 20:48:02.821
25.0, -262.53910693945363, 58.03576751239598, 12.27248170459643, 921.4178515831009, 0.01600000075995922, -0.19200000911951065, 1.0400000493973494, 0.0, 0.0, 0.0, 0.0, 0.0, 1.710388082821492E9, 0.0, 2024-03-13 20:48:02.821
25.0, -435.84794083610177, 147.02668695803732, -167.3717427169904, 1007.2971742656082, 0.01600000075995922, -0.19200000911951065, 1.0400000493973494, 0.0, 0.0, 0.0, 0.0, 0.0, 1.710388082821492E9, 0.0, 2024-03-13 20:48:02.821
26.0, -354.3069021021947, 82.47227382287383, -71.4807078531012, 889.5501640606672, 0.01600000075995922, -0.19200000911951065, 1.0400000493973494, 0.0, 0.0, 0.0, 0.0, 0.0, 1.710388082835326E9, 0.0, 2024-03-13 20:48:02.835
26.0, -222.56331631308421, 46.109226553700864, 54.1556213083677, 883.6747812302783, 0.01600000075995922, -0.19200000911951065, 1.0400000493973494, 0.0, 0.0, 0.0, 0.0, 0.0, 1.710388082835326E9, 0.0, 2024-03-13 20:48:02.835
27.0, -80.14792600041255, -51.874282335396856, 179.49836832331493, 813.2767744143493, 0.01600000075995922, -0.19200000911951065, 1.0400000493973494, 0.0, 0.0, 0.0, 0.0, 0.0, 1.71038808285053E9, 0.0, 2024-03-13 20:48:02.850
27.0, -283.5405151406303, -252.15153481252491, -17.611188891343772, 1050.0984593085013, 0.01600000075995922, -0.19200000911951065, 1.0400000493973494, 0.0, 0.0, 0.0, 0.0, 0.0, 1.71038808285053E9, 0.0, 2024-03-13 20:48:02.850
28.0, -101.41299714846537, -317.928895233199, 168.94437064835802, 986.8642308576964, 0.01600000075995922, -0.19200000911951065, 1.0400000493973494, 0.0, 0.0, 0.0, 0.0, 0.0, 1.7103880828512912E9, 0.0, 2024-03-13 20:48:02.851
28.0, -188.04777962202206, -269.2353978101164, 65.88768746936694, 1087.3890017666854, 0.01600000075995922, -0.19200000911951065, 1.0400000493973494, 0.0, 0.0, 0.0, 0.0, 0.0, 1.7103880828512912E9, 0.0, 2024-03-13 20:48:02.851
29.0, -313.8187451818958, -222.01916086953133, -48.99268941953778, 1096.1328878630884, 0.01600000075995922, -0.19200000911951065, 1.0400000493973494, 0.0, 0.0, 0.0, 0.0, 0.0, 1.7103880828649788E9, 0.0, 2024-03-13 20:48:02.864
29.0, -457.3261862816289, -116.97472086409107, -183.40843372698873, 1182.4890477899462, 0.01600000075995922, -0.19200000911951065, 1.0400000493973494, 0.0, 0.0, 0.0, 0.0, 0.0, 1.7103880828649788E9, 0.0, 2024-03-13 20:48:02.864
30.0, -244.59506695205346, 63.398784048855305, 12.081746806856245, 1417.3005364579149, 0.01600000075995922, -0.19200000911951065, 1.0400000493973494, 0.0, 0.0, 0.0, 0.0, 0.0, 1.7103880828805823E9, 0.0, 2024-03-13 20:48:02.880
30.0, -421.95421250071377, 155.6321967560798, -164.33120405301452, 1497.5700092068873, 0.01600000075995922, -0.19200000911951065, 1.0400000493973494, 0.0, 0.0, 0.0, 0.0, 0.0, 1.7103880828805823E9, 0.0, 2024-03-13 20:48:02.880
31.0, -329.410388097167, 91.43681401666254, -68.47008838877082, 1387.2728797136806, 0.01600000075995922, -0.19200000911951065, 1.0400000493973494, 0.0, 0.0, 0.0, 0.0, 0.0, 1.7103880828812273E9, 0.0, 2024-03-13 20:48:02.881
31.0, -214.5636703078635, 55.27946124505252, 60.70418613078073, 1379.9015369010158, 0.01600000075995922, -0.19200000911951065, 1.0400000493973494, 0.0, 0.0, 0.0, 0.0, 0.0, 1.7103880828812273E9, 0.0, 2024-03-13 20:48:02.881
32.0, -68.35976134007797, -47.01615229295567, 185.2952132546343, 1307.7457771059126, 0.01600000075995922, -0.19200000911951065, 1.0400000493973494, 0.0, 0.0, 0.0, 0.0, 0.0, 1.7103880828948536E9, 0.0, 2024-03-13 20:48:02.894
32.0, -289.1802842738107, -254.5675101839006, -22.218745636753738, 1536.7735104924068, 0.01600000075995922, -0.19200000911951065, 1.0400000493973494, 0.0, 0.0, 0.0, 0.0, 0.0, 1.7103880828948536E9, 0.0, 2024-03-13 20:48:02.894
33.0, -111.45088862953708, -329.7133199935779, 164.6472255992703, 1472.103160458617, 0.01600000075995922, -0.19200000911951065, 1.0400000493973494, 0.0, 0.0, 0.0, 0.0, 0.0, 1.7103880829105437E9, 0.0, 2024-03-13 20:48:02.910
33.0, -212.42818743316457, -289.2438625730574, 50.696213849354535, 1562.2646685903892, 0.01600000075995922, -0.19200000911951065, 1.0400000493973494, 0.0, 0.0, 0.0, 0.0, 0.0, 1.7103880829105437E9, 0.0, 2024-03-13 20:48:02.910
34.0, -332.9296339554712, -248.0077256616205, -69.07595218159258, 1570.4662691932172, 0.01600000075995922, -0.19200000911951065, 1.0400000493973494, 0.0, 0.0, 0.0, 0.0, 0.0, 1.710388082911265E9, 0.0, 2024-03-13 20:48:02.911
34.0, -467.28553986363113, -136.21276623615995, -195.13675998803228, 1657.6227677105926, 0.01600000075995922, -0.19200000911951065, 1.0400000493973494, 0.0, 0.0, 0.0, 0.0, 0.0, 1.710388082911265E9, 0.0, 2024-03-13 20:48:02.911
35.0, -261.8883643471636, 48.17739122919738, 6.25124277593568, 1890.4633291019127, 0.01600000075995922, -0.19200000911951065, 1.0400000493973494, 0.0, 0.0, 0.0, 0.0, 0.0, 1.7103880829248595E9, 0.0, 2024-03-13 20:48:02.924
35.0, -438.78750220127404, 134.38208520784974, -172.4505268568173, 1973.2273151213303, 0.01600000075995922, -0.19200000911951065, 1.0400000493973494, 0.0, 0.0, 0.0, 0.0, 0.0, 1.7103880829248595E9, 0.0, 2024-03-13 20:48:02.924
36.0, -348.8653476666659, 83.31749121285975, -66.76843390893191, 1876.5322017669678, 0.01600000075995922, -0.19200000911951065, 1.0400000493973494, 0.0, 0.0, 0.0, 0.0, 0.0, 1.7103880829411018E9, 0.0, 2024-03-13 20:48:02.941
36.0, -207.61119629023597, 47.9866563314572, 62.783570506144315, 1876.5490313167684, 0.01600000075995922, -0.19200000911951065, 1.0400000493973494, 0.0, 0.0, 0.0, 0.0, 0.0, 1.7103880829411018E9, 0.0, 2024-03-13 20:48:02.941
37.0, -84.38523265020922, -60.1955597368069, 185.49716785224155, 1798.424391192384, 0.01600000075995922, -0.19200000911951065, 1.0400000493973494, 0.0, 0.0, 0.0, 0.0, 0.0, 1.7103880829413087E9, 0.0, 2024-03-13 20:48:02.941
37.0, -294.53582101035863, -255.5286644725129, -11.892881859093904, 2040.5679537234828, 0.01600000075995922, -0.19200000911951065, 1.0400000493973494, 0.0, 0.0, 0.0, 0.0, 0.0, 1.7103880829413087E9, 0.0, 2024-03-13 20:48:02.941
38.0, -100.67997675715014, -309.7123350305483, 183.90397047111765, 1984.1141638923436, 0.01600000075995922, -0.19200000911951065, 1.0400000493973494, 0.0, 0.0, 0.0, 0.0, 0.0, 1.7103880829552407E9, 0.0, 2024-03-13 20:48:02.955
38.0, -199.13284309068695, -271.52421658299863, 69.70238542417064, 2073.1686616372317, 0.01600000075995922, -0.19200000911951065, 1.0400000493973494, 0.0, 0.0, 0.0, 0.0, 0.0, 1.7103880829552407E9, 0.0, 2024-03-13 20:48:02.955
39.0, -320.13169630710036, -226.30882611870766, -53.79472096264362, 2079.844383058138, 0.01600000075995922, -0.19200000911951065, 1.0400000493973494, 0.0, 0.0, 0.0, 0.0, 0.0, 1.7103880829710684E9, 0.0, 2024-03-13 20:48:02.971
39.0, -462.8799377158284, -114.1473564975895, -180.17342026531696, 2162.9954487229697, 0.01600000075995922, -0.19200000911951065, 1.0400000493973494, 0.0, 0.0, 0.0, 0.0, 0.0, 1.7103880829710684E9, 0.0, 2024-03-13 20:48:02.971
40.0, -241.78266218537465, 68.6234242869541, 21.771827592048794, 2398.03133138828, 0.01600000075995922, -0.19200000911951065, 1.0400000493973494, 0.0, 0.0, 0.0, 0.0, 0.0, 1.7103880829715047E9, 0.0, 2024-03-13 20:48:02.971
40.0, -416.1685872692615, 160.61748339701444, -161.12236989103258, 2481.29646400176, 0.01600000075995922, -0.19200000911951065, 1.0400000493973494, 0.0, 0.0, 0.0, 0.0, 0.0, 1.7103880829715047E9, 0.0, 2024-03-13 20:48:02.971
41.0, -332.6865404583514, 104.06271626707166, -60.926710178144276, 2379.16727601178, 0.01600000075995922, -0.19200000911951065, 1.0400000493973494, 0.0, 0.0, 0.0, 0.0, 0.0, 1.710388082984886E9, 0.0, 2024-03-13 20:48:02.984
41.0, -195.1087107383646, 70.87484406027943, 68.16902644233778, 2375.2553406581283, 0.01600000075995922, -0.19200000911951065, 1.0400000493973494, 0.0, 0.0, 0.0, 0.0, 0.0, 1.710388082984886E9, 0.0, 2024-03-13 20:48:02.984
42.0, -80.43963819695637, -53.66943431412801, 178.3576988368295, 2279.654148040805, 0.01600000075995922, -0.19200000911951065, 1.0400000493973494, 0.0, 0.0, 0.0, 0.0, 0.0, 1.7103880830008144E9, 0.0, 2024-03-13 20:48:03.000
42.0, -264.7587375631556, -247.47665986791253, -16.605155803263187, 2035.9491772782058, 0.01600000075995922, -0.19200000911951065, 1.0400000493973494, 0.0, 0.0, 0.0, 0.0, 0.0, 1.7103880830008144E9, 0.0, 2024-03-13 20:48:03.000
43.0, -96.51372820651159, -312.8837701929733, 179.15429752739146, 1974.8504317020997, 0.01600000075995922, -0.19200000911951065, 1.0400000493973494, 0.0, 0.0, 0.0, 0.0, 0.0, 1.7103880830015988E9, 0.0, 2024-03-13 20:48:03.001
43.0, -206.2648323061876, -283.44327774178237, 58.770657853689045, 2058.066945616156, 0.01600000075995922, -0.19200000911951065, 1.0400000493973494, 0.0, 0.0, 0.0, 0.0, 0.0, 1.7103880830015988E9, 0.0, 2024-03-13 20:48:03.001
44.0, -329.51510529592633, -239.9706806568429, -58.07690641190857, 2068.086137597449, 0.01600000075995922, -0.19200000911951065, 1.0400000493973494, 0.0, 0.0, 0.0, 0.0, 0.0, 1.710388083014894E9, 0.0, 2024-03-13 20:48:03.014
44.0, -457.4496029801667, -121.24568661348894, -174.85528252832592, 2165.1309315976687, 0.01600000075995922, -0.19200000911951065, 1.0400000493973494, 0.0, 0.0, 0.0, 0.0, 0.0, 1.710388083014894E9, 0.0, 2024-03-13 20:48:03.014
45.0, -254.45344323525205, 53.9517967607826, 20.021554412785918, 2387.6605888111517, 0.01600000075995922, -0.19200000911951065, 1.0400000493973494, 0.0, 0.0, 0.0, 0.0, 0.0, 1.710388083030612E9, 0.0, 2024-03-13 20:48:03.030
45.0, -432.19031867943704, 146.23008826747537, -165.4157750401646, 2473.730646391399, 0.01600000075995922, -0.19200000911951065, 1.0400000493973494, 0.0, 0.0, 0.0, 0.0, 0.0, 1.710388083030612E9, 0.0, 2024-03-13 20:48:03.030
46.0, -348.85412796679884, 97.17756044864655, -64.40481713693589, 2374.5298000667244, 0.01600000075995922, -0.19200000911951065, 1.0400000493973494, 0.0, 0.0, 0.0, 0.0, 0.0, 1.710388083031245E9, 0.0, 2024-03-13 20:48:03.031
46.0, -209.3427699697204, 51.722816387191415, 63.25105800060555, 2361.3803118225187, 0.01600000075995922, -0.19200000911951065, 1.0400000493973494, 0.0, 0.0, 0.0, 0.0, 0.0, 1.710388083031245E9, 0.0, 2024-03-13 20:48:03.031
47.0, -89.38921879092231, -71.24696410587057, 171.11351262265816, 2269.328284263145, 0.01600000075995922, -0.19200000911951065, 1.0400000493973494, 0.0, 0.0, 0.0, 0.0, 0.0, 1.71038808304487E9, 0.0, 2024-03-13 20:48:03.044
47.0, -294.060853715986, -254.0065251905471, -19.944886463694274, 2033.8249141033739, 0.01600000075995922, -0.19200000911951065, 1.0400000493973494, 0.0, 0.0, 0.0, 0.0, 0.0, 1.71038808304487E9, 0.0, 2024-03-13 20:48:03.044
48.0, -106.31974589033052, -314.31989177595824, 178.75786813208833, 1977.9657683651894, 0.01600000075995922, -0.19200000911951065, 1.0400000493973494, 0.0, 0.0, 0.0, 0.0, 0.0, 1.7103880830608006E9, 0.0, 2024-03-13 20:48:03.060
48.0, -201.23466686578467, -285.08135392237455, 60.401254234369844, 2063.3028055541217, 0.01600000075995922, -0.19200000911951065, 1.0400000493973494, 0.0, 0.0, 0.0, 0.0, 0.0, 1.7103880830608006E9, 0.0, 2024-03-13 20:48:03.060
49.0, -330.6819540821016, -236.38037669938058, -57.366325420327485, 2074.384129122831, 0.01600000075995922, -0.19200000911951065, 1.0400000493973494, 0.0, 0.0, 0.0, 0.0, 0.0, 1.710388083061308E9, 0.0, 2024-03-13 20:48:03.061
49.0, -449.6294721728191, -109.31166585488245, -172.98533255048096, 2171.496241322253, 0.01600000075995922, -0.19200000911951065, 1.0400000493973494, 0.0, 0.0, 0.0, 0.0, 0.0, 1.710388083061308E9, 0.0, 2024-03-13 20:48:03.061
50.0, -260.4784220638685, 60.38068478461355, 22.486148483585566, 2400.0022586649284, 0.01600000075995922, -0.19200000911951065, 1.0400000493973494, 0.0, 0.0, 0.0, 0.0, 0.0, 1.710388083074885E9, 0.0, 2024-03-13 20:48:03.074
50.0, -429.235797714442, 143.08483240474015, -166.713520324789, 2472.346883407794, 0.01600000075995922, -0.19200000911951065, 1.0400000493973494, 0.0, 0.0, 0.0, 0.0, 0.0, 1.710388083074885E9, 0.0, 2024-03-13 20:48:03.074
51.0, -328.7147667054087, 107.43610602710396, -56.25183523353189, 2381.732847381383, 0.01600000075995922, -0.19200000911951065, 1.0400000493973494, 0.0, 0.0, 0.0, 0.0, 0.0, 1.7103880830905373E9, 0.0, 2024-03-13 20:48:03.090
51.0, -190.86018438870087, 67.09006530512124, 78.06854162504897, 2374.496140967123, 0.01600000075995922, -0.19200000911951065, 1.0400000493973494, 0.0, 0.0, 0.0, 0.0, 0.0, 1.7103880830905373E9, 0.0, 2024-03-13 20:48:03.090
52.0, -68.84594833431765, -47.943647481966764, 194.2186145489104, 2292.366067990195, 0.01600000075995922, -0.19200000911951065, 1.0400000493973494, 0.0, 0.0, 0.0, 0.0, 0.0, 1.7103880830912168E9, 0.0, 2024-03-13 20:48:03.091
52.0, -271.8645474789664, -235.28832591231912, 3.2798922611400485, 2052.2476612851024, 0.01600000075995922, -0.19200000911951065, 1.0400000493973494, 0.0, 0.0, 0.0, 0.0, 0.0, 1.7103880830912168E9, 0.0, 2024-03-13 20:48:03.091
53.0, -83.96636385517195, -296.23747549019754, 200.25107317743823, 1995.4610203579068, 0.01600000075995922, -0.19200000911951065, 1.0400000493973494, 0.0, 0.0, 0.0, 0.0, 0.0, 1.71038808310519E9, 0.0, 2024-03-13 20:48:03.105
53.0, -193.87454375298694, -278.0653016055003, 73.1655327831395, 2067.016526210122, 0.01600000075995922, -0.19200000911951065, 1.0400000493973494, 0.0, 0.0, 0.0, 0.0, 0.0, 1.71038808310519E9, 0.0, 2024-03-13 20:48:03.105
54.0, -326.7176601290703, -226.32004581857473, -48.536421624943614, 2083.8535558106378, 0.01600000075995922, -0.19200000911951065, 1.0400000493973494, 0.0, 0.0, 0.0, 0.0, 0.0, 1.710388083120774E9, 0.0, 2024-03-13 20:48:03.120
54.0, -427.0928350398317, -95.45159661909565, -163.5944437617436, 2187.076664537657, 0.01600000075995922, -0.19200000911951065, 1.0400000493973494, 0.0, 0.0, 0.0, 0.0, 0.0, 1.710388083120774E9, 0.0, 2024-03-13 20:48:03.120
55.0, -243.71245056251064, 73.27211993187666, 26.8094728323631, 2400.4921855591238, 0.01600000075995922, -0.19200000911951065, 1.0400000493973494, 0.0, 0.0, 0.0, 0.0, 0.0, 1.7103880831215606E9, 0.0, 2024-03-13 20:48:03.121
55.0, -429.4340124120936, 147.6998689500615, -166.54148492682725, 2470.0618045348674, 0.01600000075995922, -0.19200000911951065, 1.0400000493973494, 0.0, 0.0, 0.0, 0.0, 0.0, 1.7103880831215606E9, 0.0, 2024-03-13 20:48:03.121
56.0, -349.77040345594287, 91.47047311626375, -70.4784146649763, 2369.4248366272077, 0.01600000075995922, -0.19200000911951065, 1.0400000493973494, 0.0, 0.0, 0.0, 0.0, 0.0, 1.7103880831348336E9, 0.0, 2024-03-13 20:48:03.134
56.0, -202.86900314642116, 56.913797525689006, 63.580169196706265, 2367.046260255389, 0.01600000075995922, -0.19200000911951065, 1.0400000493973494, 0.0, 0.0, 0.0, 0.0, 0.0, 1.7103880831348336E9, 0.0, 2024-03-13 20:48:03.134
57.0, -94.12019223487005, -66.45241236267611, 172.4673564066179, 2274.807237698231, 0.01600000075995922, -0.19200000911951065, 1.0400000493973494, 0.0, 0.0, 0.0, 0.0, 0.0, 1.7103880831505885E9, 0.0, 2024-03-13 20:48:03.150
57.0, -291.78325464297086, -249.35782954562455, -22.51793763320893, 2032.351393520832, 0.01600000075995922, -0.19200000911951065, 1.0400000493973494, 0.0, 0.0, 0.0, 0.0, 0.0, 1.7103880831505885E9, 0.0, 2024-03-13 20:48:03.150
58.0, -97.74041539197788, -305.7779602771625, 176.7308423561044, 1974.9140100013465, 0.01600000075995922, -0.19200000911951065, 1.0400000493973494, 0.0, 0.0, 0.0, 0.0, 0.0, 1.710388083151228E9, 0.0, 2024-03-13 20:48:03.151
58.0, -194.45048834616318, -279.5687413876876, 56.05923038581386, 2053.9979344643652, 0.01600000075995922, -0.19200000911951065, 1.0400000493973494, 0.0, 0.0, 0.0, 0.0, 0.0, 1.710388083151228E9, 0.0, 2024-03-13 20:48:03.151
59.0, -315.32218496408314, -221.82468607183546, -61.53257397096604, 2078.49801907409, 0.01600000075995922, -0.19200000911951065, 1.0400000493973494, 0.0, 0.0, 0.0, 0.0, 0.0, 1.7103880831648245E9, 0.0, 2024-03-13 20:48:03.164
59.0, -441.3979523703456, -90.49622917780653, -171.66888776607811, 2180.408422916662, 0.01600000075995922, -0.19200000911951065, 1.0400000493973494, 0.0, 0.0, 0.0, 0.0, 0.0, 1.7103880831648245E9, 0.0, 2024-03-13 20:48:03.164
60.0, -238.44667142489925, 80.75939964316785, 27.10118502890691, 2404.093709216453, 0.01600000075995922, -0.19200000911951065, 1.0400000493973494, 0.0, 0.0, 0.0, 0.0, 0.0, 1.71038808318056E9, 0.0, 2024-03-13 20:48:03.180
60.0, -407.1965672755614, 160.57260459754616, -167.8579297112301, 2483.1439745798707, 0.01600000075995922, -0.19200000911951065, 1.0400000493973494, 0.0, 0.0, 0.0, 0.0, 0.0, 1.71038808318056E9, 0.0, 2024-03-13 20:48:03.180
61.0, -322.13254278339446, 132.3961983313784, -52.85974597372115, 2395.510638818145, 0.01600000075995922, -0.19200000911951065, 1.0400000493973494, 0.0, 0.0, 0.0, 0.0, 0.0, 1.710388083181425E9, 0.0, 2024-03-13 20:48:03.181
61.0, -190.00374729884788, 73.111304233782, 74.17156587122008, 2376.7961794398725, 0.01600000075995922, -0.19200000911951065, 1.0400000493973494, 0.0, 0.0, 0.0, 0.0, 0.0, 1.710388083181425E9, 0.0, 2024-03-13 20:48:03.181
62.0, -80.63785289460793, -61.35118882311508, 173.34249299624935, 2272.9073685207404, 0.01600000075995922, -0.19200000911951065, 1.0400000493973494, 0.0, 0.0, 0.0, 0.0, 0.0, 1.710388083194845E9, 0.0, 2024-03-13 20:48:03.194
62.0, -278.0166829060763, -244.88490919861943, -17.573789891786873, 2039.3337867381051, 0.01600000075995922, -0.19200000911951065, 1.0400000493973494, 0.0, 0.0, 0.0, 0.0, 0.0, 1.710388083194845E9, 0.0, 2024-03-13 20:48:03.194
63.0, -95.00280862441286, -307.67782945465297, 182.9914348819293, 1981.335418225266, 0.01600000075995922, -0.19200000911951065, 1.0400000493973494, 0.0, 0.0, 0.0, 0.0, 0.0, 1.7103880832105496E9, 0.0, 2024-03-13 20:48:03.210
63.0, -202.1509423549287, -289.11296607460827, 56.62769517907873, 2044.9698159713298, 0.01600000075995922, -0.19200000911951065, 1.0400000493973494, 0.0, 0.0, 0.0, 0.0, 0.0, 1.7103880832105496E9, 0.0, 2024-03-13 20:48:03.210
64.0, -328.54647120740265, -235.04523241519928, -65.30239312630147, 2065.1727555319667, 0.01600000075995922, -0.19200000911951065, 1.0400000493973494, 0.0, 0.0, 0.0, 0.0, 0.0, 1.71038808321122E9, 0.0, 2024-03-13 20:48:03.211
64.0, -451.05063415598124, -100.87071165489033, -172.9329739511013, 2172.135764214676, 0.01600000075995922, -0.19200000911951065, 1.0400000493973494, 0.0, 0.0, 0.0, 0.0, 0.0, 1.71038808321122E9, 0.0, 2024-03-13 20:48:03.211
65.0, -234.7254709689878, 67.55381289962679, 17.313866844866425, 2390.7235668748617, 0.01600000075995922, -0.19200000911951065, 1.0400000493973494, 0.0, 0.0, 0.0, 0.0, 0.0, 1.7103880832248187E9, 0.0, 2024-03-13 20:48:03.224
65.0, -424.8788142660633, 155.39284315891564, -170.83115017600358, 2471.692400915548, 0.01600000075995922, -0.19200000911951065, 1.0400000493973494, 0.0, 0.0, 0.0, 0.0, 0.0, 1.7103880832248187E9, 0.0, 2024-03-13 20:48:03.224
66.0, -335.35682902671397, 110.87307408638299, -53.51422846596688, 2381.493493784219, 0.01600000075995922, -0.19200000911951065, 1.0400000493973494, 0.0, 0.0, 0.0, 0.0, 0.0, 1.7103880832406392E9, 0.0, 2024-03-13 20:48:03.240
66.0, -203.43746793968603, 67.19478250388056, 68.3448017402552, 2370.894617309794, 0.01600000075995922, -0.19200000911951065, 1.0400000493973494, 0.0, 0.0, 0.0, 0.0, 0.0, 1.7103880832406392E9, 0.0, 2024-03-13 20:48:03.240
67.0, -78.71554431738332, -63.82326269382611, 169.44551724242046, 2272.5445982250385, 0.01600000075995922, -0.19200000911951065, 1.0400000493973494, 0.0, 0.0, 0.0, 0.0, 0.0, 1.710388083241361E9, 0.0, 2024-03-13 20:48:03.241
67.0, -289.93574406486005, -239.0805844673887, -19.623255067504942, 2043.5374342883006, 0.01600000075995922, -0.19200000911951065, 1.0400000493973494, 0.0, 0.0, 0.0, 0.0, 0.0, 1.710388083241361E9, 0.0, 2024-03-13 20:48:03.241
68.0, -93.00570204807445, -301.5219541275874, 183.81795277213678, 1985.7597198728472, 0.01600000075995922, -0.19200000911951065, 1.0400000493973494, 0.0, 0.0, 0.0, 0.0, 0.0, 1.7103880832553306E9, 0.0, 2024-03-13 20:48:03.255
68.0, -203.35893004061654, -287.620745992288, 61.3811080227606, 2056.2044754382223, 0.01600000075995922, -0.19200000911951065, 1.0400000493973494, 0.0, 0.0, 0.0, 0.0, 0.0, 1.7103880832553306E9, 0.0, 2024-03-13 20:48:03.255
69.0, -319.7876255111769, -229.26708698365837, -56.74550202768296, 2079.5414511617273, 0.01600000075995922, -0.19200000911951065, 1.0400000493973494, 0.0, 0.0, 0.0, 0.0, 0.0, 1.7103880832708776E9, 0.0, 2024-03-13 20:48:03.270
69.0, -432.78122287243605, -93.57790674129501, -167.9364676102996, 2183.493840380106, 0.01600000075995922, -0.19200000911951065, 1.0400000493973494, 0.0, 0.0, 0.0, 0.0, 0.0, 1.7103880832708776E9, 0.0, 2024-03-13 20:48:03.270
70.0, -259.5135278753005, 56.88761822599918, 15.776767963077873, 2382.133016676642, 0.01600000075995922, -0.19200000911951065, 1.0400000493973494, 0.0, 0.0, 0.0, 0.0, 0.0, 1.7103880832715185E9, 0.0, 2024-03-13 20:48:03.271
70.0, -435.75070343725383, 137.41888397186995, -174.92634062748402, 2460.910269343294, 0.01600000075995922, -0.19200000911951065, 1.0400000493973494, 0.0, 0.0, 0.0, 0.0, 0.0, 1.7103880832715185E9, 0.0, 2024-03-13 20:48:03.271
71.0, -330.44260048493743, 106.30665624048561, -59.004401600919664, 2383.72247415781, 0.01600000075995922, -0.19200000911951065, 1.0400000493973494, 0.0, 0.0, 0.0, 0.0, 0.0, 1.710388083284866E9, 0.0, 2024-03-13 20:48:03.284
71.0, -202.6707884487696, 59.03806070052087, 71.83412839891389, 2367.2669143527746, 0.01600000075995922, -0.19200000911951065, 1.0400000493973494, 0.0, 0.0, 0.0, 0.0, 0.0, 1.710388083284866E9, 0.0, 2024-03-13 20:48:03.284
72.0, -86.00834923097864, -72.56714879022911, 173.6977834920399, 2265.8389576044865, 0.01600000075995922, -0.19200000911951065, 1.0400000493973494, 0.0, 0.0, 0.0, 0.0, 0.0, 1.7103880833009508E9, 0.0, 2024-03-13 20:48:03.300
72.0, -281.6930045625195, -240.10531705524772, -10.83449017163366, 2046.70512955077, 0.01600000075995922, -0.19200000911951065, 1.0400000493973494, 0.0, 0.0, 0.0, 0.0, 0.0, 1.7103880833009508E9, 0.0, 2024-03-13 20:48:03.300
73.0, -76.81567513989285, -290.82210035435855, 194.32707164762542, 1985.9018360711634, 0.01600000075995922, -0.19200000911951065, 1.0400000493973494, 0.0, 0.0, 0.0, 0.0, 0.0, 1.7103880833158329E9, 0.0, 2024-03-13 20:48:03.315
73.0, -198.77381269494072, -289.08678677491844, 53.964886410627514, 2050.6058452045545, 0.01600000075995922, -0.19200000911951065, 1.0400000493973494, 0.0, 0.0, 0.0, 0.0, 0.0, 1.7103880833158329E9, 0.0, 2024-03-13 20:48:03.315
74.0, -322.5962903779, -226.52574031613767, -65.77736042067409, 2072.6525554433465, 0.01600000075995922, -0.19200000911951065, 1.0400000493973494, 0.0, 0.0, 0.0, 0.0, 0.0, 1.71038808331624E9, 0.0, 2024-03-13 20:48:03.316
74.0, -436.3939662296325, -87.58284711232409, -169.98967268597335, 2183.987507174257, 0.01600000075995922, -0.19200000911951065, 1.0400000493973494, 0.0, 0.0, 0.0, 0.0, 0.0, 1.71038808331624E9, 0.0, 2024-03-13 20:48:03.316
75.0, -241.85372028453276, 64.12058474030346, 16.382631755899638, 2390.4243748784065, 0.01600000075995922, -0.19200000911951065, 1.0400000493973494, 0.0, 0.0, 0.0, 0.0, 0.0, 1.7103880833307197E9, 0.0, 2024-03-13 20:48:03.330
75.0, -432.26511667855084, 147.53531335201114, -171.98677926231176, 2472.7732320027426, 0.01600000075995922, -0.19200000911951065, 1.0400000493973494, 0.0, 0.0, 0.0, 0.0, 0.0, 1.7103880833307197E9, 0.0, 2024-03-13 20:48:03.330
76.0, -327.7199533171952, 117.4253788087517, -56.71558282803744, 2386.920088619925, 0.01600000075995922, -0.19200000911951065, 1.0400000493973494, 0.0, 0.0, 0.0, 0.0, 0.0, 1.710388083331336E9, 0.0, 2024-03-13 20:48:03.331
76.0, -198.48958029830828, 66.8095728084445, 71.24322420591488, 2375.053386060521, 0.01600000075995922, -0.19200000911951065, 1.0400000493973494, 0.0, 0.0, 0.0, 0.0, 0.0, 1.710388083331336E9, 0.0, 2024-03-13 20:48:03.331
77.0, -78.24431692296639, -69.70612532412633, 170.55252762930468, 2270.379196150694, 0.01600000075995922, -0.19200000911951065, 1.0400000493973494, 0.0, 0.0, 0.0, 0.0, 0.0, 1.7103880833448253E9, 0.0, 2024-03-13 20:48:03.344
77.0, -286.764308902435, -239.95946095697582, -15.554243915714324, 2048.320766331628, 0.01600000075995922, -0.19200000911951065, 1.0400000493973494, 0.0, 0.0, 0.0, 0.0, 0.0, 1.7103880833448253E9, 0.0, 2024-03-13 20:48:03.344
78.0, -88.63375899987295, -293.7990607190877, 191.7764598778449, 1993.4377344818786, 0.01600000075995922, -0.19200000911951065, 1.0400000493973494, 0.0, 0.0, 0.0, 0.0, 0.0, 1.7103880833605404E9, 0.0, 2024-03-13 20:48:03.360
78.0, -203.26917244167998, -289.2588221728802, 61.68777981912717, 2055.823005642742, 0.01600000075995922, -0.19200000911951065, 1.0400000493973494, 0.0, 0.0, 0.0, 0.0, 0.0, 1.7103880833605404E9, 0.0, 2024-03-13 20:48:03.360
79.0, -319.96714070905, -229.76823357772082, -50.33157360367477, 2087.372801668942, 0.01600000075995922, -0.19200000911951065, 1.0400000493973494, 0.0, 0.0, 0.0, 0.0, 0.0, 1.7103880833612852E9, 0.0, 2024-03-13 20:48:03.361
79.0, -444.25897583644837, -83.760669357609, -151.09569810982794, 2203.117095447611, 0.01600000075995922, -0.19200000911951065, 1.0400000493973494, 0.0, 0.0, 0.0, 0.0, 0.0, 1.7103880833612852E9, 0.0, 2024-03-13 20:48:03.361
80.0, -240.59711389942095, 73.87050392478704, 39.64106958033517, 2410.0738092456013, 0.01600000075995922, -0.19200000911951065, 1.0400000493973494, 0.0, 0.0, 0.0, 0.0, 0.0, 1.7103880833748217E9, 0.0, 2024-03-13 20:48:03.374
80.0, -423.1248011868447, 144.66681008599699, -165.95432063378394, 2478.169907638803, 0.01600000075995922, -0.19200000911951065, 1.0400000493973494, 0.0, 0.0, 0.0, 0.0, 0.0, 1.7103880833748217E9, 0.0, 2024-03-13 20:48:03.374
81.0, -328.44175400864333, 113.43864545598626, -46.54305494856089, 2400.753978556022, 0.01600000075995922, -0.20800000987946987, 1.0400000493973494, 0.0, 0.0, 0.0, 0.0, 0.0, 1.710388083390866E9, 0.0, 2024-03-13 20:48:03.390
81.0, -193.15274306153879, 64.74140813294798, 74.81482866359875, 2374.6494768653065, 0.01600000075995922, -0.20800000987946987, 1.0400000493973494, 0.0, 0.0, 0.0, 0.0, 0.0, 1.710388083390866E9, 0.0, 2024-03-13 20:48:03.390
82.0, -86.5431549246423, -72.9411387857981, 167.84857996134087, 2267.29377868725, 0.01600000075995922, -0.20800000987946987, 1.0400000493973494, 0.0, 0.0, 0.0, 0.0, 0.0, 1.710388083391266E9, 0.0, 2024-03-13 20:48:03.391
82.0, -278.2784759029746, -233.23886073660105, -12.109796056523919, 2054.398103759624, 0.01600000075995922, -0.20800000987946987, 1.0400000493973494, 0.0, 0.0, 0.0, 0.0, 0.0, 1.710388083391266E9, 0.0, 2024-03-13 20:48:03.391
83.0, -75.21873785881326, -288.70531697943807, 195.99506702786312, 2001.6617744844407, 0.01600000075995922, -0.20800000987946987, 1.0400000493973494, 0.0, 0.0, 0.0, 0.0, 0.0, 1.7103880834048553E9, 0.0, 2024-03-13 20:48:03.404
83.0, -203.16071534296498, -292.53123463410884, 59.27554434770718, 2053.567845969461, 0.01600000075995922, -0.20800000987946987, 1.0400000493973494, 0.0, 0.0, 0.0, 0.0, 0.0, 1.7103880834048553E9, 0.0, 2024-03-13 20:48:03.404
84.0, -322.31205798126757, -226.86981111206114, -61.798106867820024, 2078.6962337717414, 0.01600000075995922, -0.20800000987946987, 1.0400000493973494, 0.0, 0.0, 0.0, 0.0, 0.0, 1.7103880834209964E9, 0.0, 2024-03-13 20:48:03.420
84.0, -425.5744356578216, -82.7995150689967, -165.21008054260164, 2191.609423283953, 0.01600000075995922, -0.20800000987946987, 1.0400000493973494, 0.0, 0.0, 0.0, 0.0, 0.0, 1.7103880834209964E9, 0.0, 2024-03-13 20:48:03.420
85.0, -238.7645629211329, 61.59615227021277, 15.215782969724387, 2388.588084000163, 0.01600000075995922, -0.20800000987946987, 1.0400000493973494, 0.0, 0.0, 0.0, 0.0, 0.0, 1.7103880834215343E9, 0.0, 2024-03-13 20:48:03.421
85.0, -428.29708282556385, 141.64123102184385, -183.8609616216272, 2468.292831855826, 0.01600000075995922, -0.20800000987946987, 1.0400000493973494, 0.0, 0.0, 0.0, 0.0, 0.0, 1.7103880834215343E9, 0.0, 2024-03-13 20:48:03.421
86.0, -323.886555862613, 120.36494017392397, -60.612558581866324, 2393.977279836312, 0.01600000075995922, -0.20800000987946987, 1.0400000493973494, 0.0, 0.0, 0.0, 0.0, 0.0, 1.7103880834350157E9, 0.0, 2024-03-13 20:48:03.435
86.0, -188.5115272165276, 63.20430925115943, 66.13826076639816, 2365.8943710690364, 0.01600000075995922, -0.20800000987946987, 1.0400000493973494, 0.0, 0.0, 0.0, 0.0, 0.0, 1.7103880834350157E9, 0.0, 2024-03-13 20:48:03.435
87.0, -91.12453237036243, -78.4275720207952, 158.85038066795096, 2256.268553617876, 0.01600000075995922, -0.20800000987946987, 1.0400000493973494, 0.0, 0.0, 0.0, 0.0, 0.0, 1.7103880834508305E9, 0.0, 2024-03-13 20:48:03.450
87.0, -277.3584605138749, -233.25382033642381, -15.131635220721364, 2048.9789887238294, 0.01600000075995922, -0.20800000987946987, 1.0400000493973494, 0.0, 0.0, 0.0, 0.0, 0.0, 1.7103880834508305E9, 0.0, 2024-03-13 20:48:03.450
88.0, -71.43021920369938, -280.8365674726665, 194.8543975413777, 1998.329523623921, 0.01600000075995922, -0.20800000987946987, 1.0400000493973494, 0.0, 0.0, 0.0, 0.0, 0.0, 1.7103880834513416E9, 0.0, 2024-03-13 20:48:03.451
88.0, -196.38775652321056, -292.9837625287473, 53.0074720219709, 2039.6591580342501, 0.01600000075995922, -0.20800000987946987, 1.0400000493973494, 0.0, 0.0, 0.0, 0.0, 0.0, 1.7103880834513416E9, 0.0, 2024-03-13 20:48:03.451
89.0, -314.5966443726793, -220.3249861896038, -60.72475558053702, 2082.884921722114, 0.01600000075995922, -0.20800000987946987, 1.0400000493973494, 0.0, 0.0, 0.0, 0.0, 0.0, 1.7103880834650617E9, 0.0, 2024-03-13 20:48:03.465
89.0, -429.62474730983377, -77.99374362593517, -160.9615541929379, 2197.8513163099997, 0.01600000075995922, -0.20800000987946987, 1.0400000493973494, 0.0, 0.0, 0.0, 0.0, 0.0, 1.7103880834650617E9, 0.0, 2024-03-13 20:48:03.465
90.0, -227.8253555507399, 73.07764513418078, 26.154990340117365, 2397.5900231935084, 0.01600000075995922, -0.20800000987946987, 1.0400000493973494, 0.0, 0.0, 0.0, 0.0, 0.0, 1.710388083480591E9, 0.0, 2024-03-13 20:48:03.480
90.0, -435.48891044035554, 141.74220832064748, -176.20164651237428, 2466.280765679665, 0.01600000075995922, -0.20800000987946987, 1.0400000493973494, 0.0, 0.0, 0.0, 0.0, 0.0, 1.710388083480591E9, 0.0, 2024-03-13 20:48:03.480
91.0, -319.13314301893115, 128.94427067227662, -45.08823386579752, 2402.564090134576, 0.01600000075995922, -0.19200000911951065, 1.0400000493973494, 0.0, 0.0, 0.0, 0.0, 0.0, 1.7103880834812727E9, 0.0, 2024-03-13 20:48:03.481
91.0, -188.32453221874312, 73.14870323333889, 80.2788224988617, 2376.1416969476268, 0.01600000075995922, -0.19200000911951065, 1.0400000493973494, 0.0, 0.0, 0.0, 0.0, 0.0, 1.7103880834812727E9, 0.0, 2024-03-13 20:48:03.481
92.0, -87.52300871303305, -86.97324341954663, 157.6910116816871, 2252.446375863161, 0.01600000075995922, -0.19200000911951065, 1.0400000493973494, 0.0, 0.0, 0.0, 0.0, 0.0, 1.7103880834948275E9, 0.0, 2024-03-13 20:48:03.494
92.0, -291.3269868483767, -242.03510543238372, -22.16264713741839, 2044.4649294773117, 0.01600000075995922, -0.19200000911951065, 1.0400000493973494, 0.0, 0.0, 0.0, 0.0, 0.0, 1.7103880834948275E9, 0.0, 2024-03-13 20:48:03.494
93.0, -95.25712182139978, -306.01357397437096, 179.0682798284106, 1983.6354566980153, 0.01600000075995922, -0.19200000911951065, 1.0400000493973494, 0.0, 0.0, 0.0, 0.0, 0.0, 1.7103880835106006E9, 0.0, 2024-03-13 20:48:03.510
93.0, -220.9028007327579, -311.0026005152613, 40.665802168194205, 2032.9460376137868, 0.01600000075995922, -0.19200000911951065, 1.0400000493973494, 0.0, 0.0, 0.0, 0.0, 0.0, 1.7103880835106006E9, 0.0, 2024-03-13 20:48:03.510
94.0, -324.4512807559222, -247.94040746241808, -78.43692177068442, 2061.1224438799545, 0.01600000075995922, -0.19200000911951065, 1.0400000493973494, 0.0, 0.0, 0.0, 0.0, 0.0, 1.7103880835112836E9, 0.0, 2024-03-13 20:48:03.511
94.0, -444.5394683331251, -97.73667549202219, -175.4948054207489, 2178.946122033987, 0.01600000075995922, -0.19200000911951065, 1.0400000493973494, 0.0, 0.0, 0.0, 0.0, 0.0, 1.7103880835112836E9, 0.0, 2024-03-13 20:48:03.511
95.0, -248.0282951113768, 44.59830697160214, 7.171258165035397, 2378.27343992237, 0.01600000075995922, -0.19200000911951065, 1.0400000493973494, 0.0, 0.0, 0.0, 0.0, 0.0, 1.7103880835248394E9, 0.0, 2024-03-13 20:48:03.524
95.0, -451.5069019505754, 116.19495172332972, -199.93505163118243, 2444.484628737904, 0.01600000075995922, -0.19200000911951065, 1.0400000493973494, 0.0, 0.0, 0.0, 0.0, 0.0, 1.7103880835248394E9, 0.0, 2024-03-13 20:48:03.524
96.0, -336.2805843157694, 115.72746422886848, -63.847572043538094, 2385.9851136310026, 0.01600000075995922, -0.19200000911951065, 1.0400000493973494, 0.0, 0.0, 0.0, 0.0, 0.0, 1.7103880835405793E9, 0.0, 2024-03-13 20:48:03.540
96.0, -200.591404073406, 64.74888793285936, 66.4598921625875, 2365.8083533700556, 0.01600000075995922, -0.19200000911951065, 1.0400000493973494, 0.0, 0.0, 0.0, 0.0, 0.0, 1.7103880835405793E9, 0.0, 2024-03-13 20:48:03.540
97.0, -100.3620852609165, -86.99568281928077, 159.02989586582407, 2254.0320934443735, 0.01600000075995922, -0.19200000911951065, 1.0400000493973494, 0.0, 0.0, 0.0, 0.0, 0.0, 1.7103880835412612E9, 0.0, 2024-03-13 20:48:03.541
97.0, -287.34399339556694, -239.80612505879253, -20.412373958155513, 2050.4263300066814, 0.01600000075995922, -0.19200000911951065, 1.0400000493973494, 0.0, 0.0, 0.0, 0.0, 0.0, 1.7103880835412612E9, 0.0, 2024-03-13 20:48:03.541
98.0, -86.89844542043284, -286.93634430039674, 192.08313167421147, 1998.3557029236108, 0.01600000075995922, -0.19200000911951065, 1.0400000493973494, 0.0, 0.0, 0.0, 0.0, 0.0, 1.71038808355487E9, 0.0, 2024-03-13 20:48:03.554
98.0, -208.05624438496307, -299.53606725111604, 50.288564754184335, 2037.5535943591967, 0.01600000075995922, -0.19200000911951065, 1.0400000493973494, 0.0, 0.0, 0.0, 0.0, 0.0, 1.71038808355487E9, 0.0, 2024-03-13 20:48:03.554
99.0, -326.72887982893735, -233.2949592359364, -66.26728731486946, 2073.1948409369215, 0.01600000075995922, -0.19200000911951065, 1.0400000493973494, 0.0, 0.0, 0.0, 0.0, 0.0, 1.7103880835706248E9, 0.0, 2024-03-13 20:48:03.570
99.0, -448.0325348917395, -84.0561214541085, -157.04587893933058, 2199.0106852962635, 0.01600000075995922, -0.19200000911951065, 1.0400000493973494, 0.0, 0.0, 0.0, 0.0, 0.0, 1.7103880835706248E9, 0.0, 2024-03-13 20:48:03.570
100.0, -233.7605767804198, 67.18730270396918, 30.482054588850588, 2403.5102848233655, 0.01600000075995922, -0.19200000911951065, 1.0400000493973494, 0.0, 0.0, 0.0, 0.0, 0.0, 1.7103880835712569E9, 0.0, 2024-03-13 20:48:03.571
100.0, -441.5886872680858, 124.63590592332184, -177.69012669473886, 2465.9366948837414, 0.01600000075995922, -0.19200000911951065, 1.0400000493973494, 0.0, 0.0, 0.0, 0.0, 0.0, 1.7103880835712569E9, 0.0, 2024-03-13 20:48:03.571
0.0, -318.97793717077, 128.68247767537832, -42.16924195038155, -36.879153463058174, 0.01600000075995922, -0.19200000911951065, 1.0400000493973494, 0.0, 0.0, 0.0, 0.0, 0.0, 1.7103880835855856E9, 0.0, 2024-03-13 20:48:03.585
1.0, -186.51629059016705, 80.1497959503904, 87.01625226903707, -60.05905338842422, 0.01600000075995922, -0.20800000987946987, 1.0400000493973494, 0.0, 0.0, 0.0, 0.0, 0.0, 1.7103880835867567E9, 0.0, 2024-03-13 20:48:03.586
1.0, -90.55793752707541, -74.91580596240237, 174.7131663300097, -180.05561341671273, 0.01600000075995922, -0.20800000987946987, 1.0400000493973494, 0.0, 0.0, 0.0, 0.0, 0.0, 1.7103880835867567E9, 0.0, 2024-03-13 20:48:03.586
2.0, -276.7357671712525, -228.37325089424849, -5.383585986215621, -383.50430105626583, 0.01600000075995922, -0.20800000987946987, 1.0400000493973494, 0.0, 0.0, 0.0, 0.0, 0.0, 1.710388083600113E9, 0.0, 2024-03-13 20:48:03.600
2.0, -71.38721035420895, -276.7151977214962, 209.34090001974255, -432.3548742774874, 0.01600000075995922, -0.20800000987946987, 1.0400000493973494, 0.0, 0.0, 0.0, 0.0, 0.0, 1.710388083600113E9, 0.0, 2024-03-13 20:48:03.600
3.0, -203.88812588434666, -294.04963401611894, 60.115151887759566, -399.2567596696317, 0.01600000075995922, -0.20800000987946987, 1.0400000493973494, 0.0, 0.0, 0.0, 0.0, 0.0, 1.7103880836155565E9, 0.0, 2024-03-13 20:48:03.615
3.0, -322.8711730246432, -222.9990146579221, -57.86560206441209, -362.2467097081244, 0.01600000075995922, -0.20800000987946987, 1.0400000493973494, 0.0, 0.0, 0.0, 0.0, 0.0, 1.7103880836155565E9, 0.0, 2024-03-13 20:48:03.615
4.0, -420.1833698716946, -66.33647546404973, -151.22472465829924, -236.7599765448831, 0.01600000075995922, -0.20800000987946987, 1.0400000493973494, 0.0, 0.0, 0.0, 0.0, 0.0, 1.7103880836163924E9, 0.0, 2024-03-13 20:48:03.616
4.0, -243.97985340934247, 64.49457473587245, 24.343008811585605, -56.21817613393068, 0.01600000075995922, -0.20800000987946987, 1.0400000493973494, 0.0, 0.0, 0.0, 0.0, 0.0, 1.7103880836163924E9, 0.0, 2024-03-13 20:48:03.616
5.0, -441.3100647213869, 124.5760675240308, -184.1021851687692, 8.568110798485577, 0.01600000075995922, -0.20800000987946987, 1.0400000493973494, 0.0, 0.0, 0.0, 0.0, 0.0, 1.7103880836299012E9, 0.0, 2024-03-13 20:48:03.629
5.0, -328.1406920622103, 128.7310963748023, -46.90021539432928, -36.62858016602695, 0.01600000075995922, -0.20800000987946987, 1.0400000493973494, 0.0, 0.0, 0.0, 0.0, 0.0, 1.7103880836299012E9, 0.0, 2024-03-13 20:48:03.629
6.0, -187.77289697527885, 75.36646390706301, 87.84651005920023, -61.412897172383964, 0.01600000075995922, -0.20800000987946987, 1.0400000493973494, 0.0, 0.0, 0.0, 0.0, 0.0, 1.7103880836455333E9, 0.0, 2024-03-13 20:48:03.645
6.0, -84.45442079938948, -79.11945351259783, 169.61194279044867, -183.42526327678934, 0.01600000075995922, -0.20800000987946987, 1.0400000493973494, 0.0, 0.0, 0.0, 0.0, 0.0, 1.7103880836455333E9, 0.0, 2024-03-13 20:48:03.645
7.0, -275.20240818941966, -223.66845674999058, -7.623786059673876, -380.5198608916253, 0.01600000075995922, -0.20800000987946987, 1.0400000493973494, 0.0, 0.0, 0.0, 0.0, 0.0, 1.7103880836462703E9, 0.0, 2024-03-13 20:48:03.646
7.0, -69.00863398239017, -268.1919657224789, 206.1358057577163, -430.9037930946797, 0.01600000075995922, -0.20800000987946987, 1.0400000493973494, 0.0, 0.0, 0.0, 0.0, 0.0, 1.7103880836462703E9, 0.0, 2024-03-13 20:48:03.646
8.0, -199.2394302394241, -295.3548591006547, 57.14941122289747, -405.76418559253216, 0.01600000075995922, -0.20800000987946987, 1.0400000493973494, 0.0, 0.0, 0.0, 0.0, 0.0, 1.710388083659844E9, 0.0, 2024-03-13 20:48:03.659
8.0, -314.0898879286833, -224.71562873758376, -53.01869172183797, -363.81746768951416, 0.01600000075995922, -0.20800000987946987, 1.0400000493973494, 0.0, 0.0, 0.0, 0.0, 0.0, 1.710388083659844E9, 0.0, 2024-03-13 20:48:03.659
9.0, -425.6623233067803, -63.65870709577575, -140.55479008471593, -228.35642134444788, 0.01600000075995922, -0.20800000987946987, 1.0400000493973494, 0.0, 0.0, 0.0, 0.0, 0.0, 1.7103880836924593E9, 0.0, 2024-03-13 20:48:03.692
9.0, -220.33620588947088, 72.68869553878903, 38.70048474147916, -45.41734506189823, 0.01600000075995922, -0.20800000987946987, 1.0400000493973494, 0.0, 0.0, 0.0, 0.0, 0.0, 1.7103880836924593E9, 0.0, 2024-03-13 20:48:03.692
10.0, -426.8179523930885, 137.01497477665544, -174.12787198694423, 19.174467072822154, 0.01600000075995922, -0.20800000987946987, 1.0400000493973494, 0.0, 0.0, 0.0, 0.0, 0.0, 1.7103880836926868E9, 0.0, 2024-03-13 20:48:03.692
10.0, -321.2891953433864, 136.97009597718716, -45.13872251519933, -36.419145768508315, 0.01600000075995922, -0.20800000987946987, 1.0400000493973494, 0.0, 0.0, 0.0, 0.0, 0.0, 1.7103880836926868E9, 0.0, 2024-03-13 20:48:03.692
11.0, -184.84829520992935, 78.32472477201372, 83.20903411414474, -69.82767207268625, 0.01600000075995922, -0.20800000987946987, 1.0400000493973494, 0.0, 0.0, 0.0, 0.0, 0.0, 1.7103880836936104E9, 0.0, 2024-03-13 20:48:03.693
11.0, -95.14679477270693, -85.21175054041669, 160.28463230095804, -199.75366648333147, 0.01600000075995922, -0.20800000987946987, 1.0400000493973494, 0.0, 0.0, 0.0, 0.0, 0.0, 1.7103880836936104E9, 0.0, 2024-03-13 20:48:03.693
12.0, -274.05051900306717, -231.3277718592435, -16.962316249031574, -393.8563441336155, 0.01600000075995922, -0.20800000987946987, 1.0400000493973494, 0.0, 0.0, 0.0, 0.0, 0.0, 1.7103880836942692E9, 0.0, 2024-03-13 20:48:03.694
12.0, -79.95532115269452, -281.2554362677038, 193.22567111067474, -451.56674034986645, 0.01600000075995922, -0.20800000987946987, 1.0400000493973494, 0.0, 0.0, 0.0, 0.0, 0.0, 1.7103880836942692E9, 0.0, 2024-03-13 20:48:03.694
13.0, -203.10274689365178, -302.2512346189469, 44.55342817213386, -417.47755225375295, 0.01600000075995922, -0.20800000987946987, 1.0400000493973494, 0.0, 0.0, 0.0, 0.0, 0.0, 1.710388083705142E9, 0.0, 2024-03-13 20:48:03.705
13.0, -323.6079333159141, -228.84073838870972, -63.539030297193676, -373.89275817014277, 0.01600000075995922, -0.20800000987946987, 1.0400000493973494, 0.0, 0.0, 0.0, 0.0, 0.0, 1.710388083705142E9, 0.0, 2024-03-13 20:48:03.705
14.0, -416.0732198203914, -63.79334349418059, -157.80694858031347, -241.77892228541896, 0.01600000075995922, -0.20800000987946987, 1.0400000493973494, 0.0, 0.0, 0.0, 0.0, 0.0, 1.7103880837198224E9, 0.0, 2024-03-13 20:48:03.719
14.0, -241.02907234430313, 64.71522883325815, 18.837876076810062, -64.6591303339228, 0.01600000075995922, -0.20800000987946987, 1.0400000493973494, 0.0, 0.0, 0.0, 0.0, 0.0, 1.7103880837198224E9, 0.0, 2024-03-13 20:48:03.719
15.0, -444.43288118438795, 121.59536725934595, -190.4375756937079, -2.81240476667881, 0.01600000075995922, -0.20800000987946987, 1.0400000493973494, 0.0, 0.0, 0.0, 0.0, 0.0, 1.7103880837360637E9, 0.0, 2024-03-13 20:48:03.736
15.0, -316.9060325953178, 134.6588378045708, -49.114236168097705, -40.76490951701999, 0.01600000075995922, -0.20800000987946987, 1.0400000493973494, 0.0, 0.0, 0.0, 0.0, 0.0, 1.7103880837360637E9, 0.0, 2024-03-13 20:48:03.736
16.0, -180.80920325778425, 74.97003451175988, 86.05509798042476, -68.76554048527032, 0.01600000075995922, -0.20800000987946987, 1.0400000493973494, 0.0, 0.0, 0.0, 0.0, 0.0, 1.7103880837365212E9, 0.0, 2024-03-13 20:48:03.736
16.0, -101.0483569027856, -81.41575208539143, 168.6694880016148, -192.39728327048942, 0.01600000075995922, -0.20800000987946987, 1.0400000493973494, 0.0, 0.0, 0.0, 0.0, 0.0, 1.7103880837365212E9, 0.0, 2024-03-13 20:48:03.736
17.0, -267.06064598588273, -228.35829129442573, -12.021908407565206, -388.7065018946305, 0.01600000075995922, -0.20800000987946987, 1.0400000493973494, 0.0, 0.0, 0.0, 0.0, 0.0, 1.7103880837501006E9, 0.0, 2024-03-13 20:48:03.750
17.0, -72.54283944051713, -276.86105381976813, 201.44597121328115, -443.16318514943123, 0.01600000075995922, -0.20800000987946987, 1.0400000493973494, 0.0, 0.0, 0.0, 0.0, 0.0, 1.7103880837501006E9, 0.0, 2024-03-13 20:48:03.750
18.0, -213.96341636497527, -315.0716116670519, 44.26171597559005, -420.17776002176106, 0.01600000075995922, -0.20800000987946987, 1.0400000493973494, 0.0, 0.0, 0.0, 0.0, 0.0, 1.710388083765566E9, 0.0, 2024-03-13 20:48:03.765
18.0, -336.7761210598983, -243.3365906169638, -81.04924188973382, -388.38487049844116, 0.01600000075995922, -0.20800000987946987, 1.0400000493973494, 0.0, 0.0, 0.0, 0.0, 0.0, 1.710388083765566E9, 0.0, 2024-03-13 20:48:03.765
19.0, -420.6695568659343, -76.29208914609626, -164.00022290693596, -251.05013427557424, 0.01600000075995922, -0.20800000987946987, 1.0400000493973494, 0.0, 0.0, 0.0, 0.0, 0.0, 1.7103880837662337E9, 0.0, 2024-03-13 20:48:03.766
19.0, -241.57135783787817, 58.963262701407075, 14.555690627545118, -69.27042697928846, 0.01600000075995922, -0.20800000987946987, 1.0400000493973494, 0.0, 0.0, 0.0, 0.0, 0.0, 1.7103880837662337E9, 0.0, 2024-03-13 20:48:03.766
20.0, -445.98493966599926, 120.32754117436707, -203.0447784443386, -8.41851480025798, 0.01600000075995922, -0.20800000987946987, 1.0400000493973494, 0.0, 0.0, 0.0, 0.0, 0.0, 1.7103880837798588E9, 0.0, 2024-03-13 20:48:03.779
20.0, -319.6623388626613, 131.45748344250023, -60.29279713565484, -52.84852627385408, 0.01600000075995922, -0.20800000987946987, 1.0400000493973494, 0.0, 0.0, 0.0, 0.0, 0.0, 1.7103880837798588E9, 0.0, 2024-03-13 20:48:03.779
21.0, -178.43062688596547, 70.05954586993903, 69.18814918026328, -83.81489790696651, 0.01600000075995922, -0.19200000911951065, 1.0400000493973494, 0.0, 0.0, 0.0, 0.0, 0.0, 1.7103880837956536E9, 0.0, 2024-03-13 20:48:03.795
21.0, -100.50607140921056, -104.33759891381487, 140.85211213119328, -223.98447829624638, 0.01600000075995922, -0.19200000911951065, 1.0400000493973494, 0.0, 0.0, 0.0, 0.0, 0.0, 1.7103880837956536E9, 0.0, 2024-03-13 20:48:03.795
22.0, -283.1870945948176, -239.95198115706444, -30.253920691553503, -412.0808766176924, 0.01600000075995922, -0.19200000911951065, 1.0400000493973494, 0.0, 0.0, 0.0, 0.0, 0.0, 1.7103880837965896E9, 0.0, 2024-03-13 20:48:03.796
22.0, -65.61280482262373, -278.9105189954862, 194.98716398980469, -451.12543215509504, 0.01600000075995922, -0.19200000911951065, 1.0400000493973494, 0.0, 0.0, 0.0, 0.0, 0.0, 1.7103880837965896E9, 0.0, 2024-03-13 20:48:03.796
23.0, -209.3259404199198, -315.5278794616461, 39.36244703363627, -431.59941448643804, 0.01600000075995922, -0.19200000911951065, 1.0400000493973494, 0.0, 0.0, 0.0, 0.0, 0.0, 1.7103880838098087E9, 0.0, 2024-03-13 20:48:03.809
23.0, -338.85924533521757, -245.73760638851672, -77.80674862815067, -385.98385472688824, 0.01600000075995922, -0.19200000911951065, 1.0400000493973494, 0.0, 0.0, 0.0, 0.0, 0.0, 1.7103880838098087E9, 0.0, 2024-03-13 20:48:03.809
24.0, -429.2227080645971, -76.61372054228559, -155.84724100353196, -247.07462062267587, 0.01600000075995922, -0.19200000911951065, 1.0400000493973494, 0.0, 0.0, 0.0, 0.0, 0.0, 1.7103880838255892E9, 0.0, 2024-03-13 20:48:03.825
24.0, -247.5664174668491, 56.77168132737279, 26.332635588012636, -66.63005761057138, 0.01600000075995922, -0.19200000911951065, 1.0400000493973494, 0.0, 0.0, 0.0, 0.0, 0.0, 1.7103880838255892E9, 0.0, 2024-03-13 20:48:03.825
25.0, -431.13005704199895, 123.30450153909624, -182.98395508201793, 6.204494026489556, 0.01600000075995922, -0.19200000911951065, 1.0400000493973494, 0.0, 0.0, 0.0, 0.0, 0.0, 1.7103880838262815E9, 0.0, 2024-03-13 20:48:03.826
25.0, -314.55363552318886, 143.70939569734037, -33.90032314835116, -23.70722581911832, 0.01600000075995922, -0.19200000911951065, 1.0400000493973494, 0.0, 0.0, 0.0, 0.0, 0.0, 1.7103880838262815E9, 0.0, 2024-03-13 20:48:03.826
26.0, -181.5347438491881, 86.42908797599375, 93.50871859211475, -59.84587909094989, 0.01600000075995922, -0.19200000911951065, 1.0400000493973494, 0.0, 0.0, 0.0, 0.0, 0.0, 1.7103880838398497E9, 0.0, 2024-03-13 20:48:03.839
26.0, -88.37009605299681, -87.08918031817302, 165.38959574047476, -193.43323555821553, 0.01600000075995922, -0.19200000911951065, 1.0400000493973494, 0.0, 0.0, 0.0, 0.0, 0.0, 1.7103880838398497E9, 0.0, 2024-03-13 20:48:03.839
27.0, -282.58497070195153, -229.19228898454458, -9.777968434151262, -383.90821025148034, 0.01600000075995922, -0.19200000911951065, 1.0400000493973494, 0.0, 0.0, 0.0, 0.0, 0.0, 1.7103880838562312E9, 0.0, 2024-03-13 20:48:03.856
27.0, -56.01622153632343, -266.73714463971555, 212.6245321808383, -435.567448339425, 0.01600000075995922, -0.19200000911951065, 1.0400000493973494, 0.0, 0.0, 0.0, 0.0, 0.0, 1.7103880838562312E9, 0.0, 2024-03-13 20:48:03.856
28.0, -204.19853758066893, -314.2151745771989, 43.12478638906032, -427.9343125298619, 0.01600000075995922, -0.19200000911951065, 1.0400000493973494, 0.0, 0.0, 0.0, 0.0, 0.0, 1.71038808385704E9, 0.0, 2024-03-13 20:48:03.857
28.0, -327.5834469688125, -237.7790992828086, -76.24721034662798, -382.49078816827387, 0.01600000075995922, -0.19200000911951065, 1.0400000493973494, 0.0, 0.0, 0.0, 0.0, 0.0, 1.71038808385704E9, 0.0, 2024-03-13 20:48:03.857
29.0, -414.97742913337424, -58.366748658474535, -153.33776813326403, -240.37271990207955, 0.01600000075995922, -0.19200000911951065, 1.0400000493973494, 0.0, 0.0, 0.0, 0.0, 0.0, 1.7103880838701735E9, 0.0, 2024-03-13 20:48:03.870
29.0, -243.12341631948948, 59.67010379303247, 12.764278548769653, -72.14267014525831, 0.01600000075995922, -0.19200000911951065, 1.0400000493973494, 0.0, 0.0, 0.0, 0.0, 0.0, 1.7103880838701735E9, 0.0, 2024-03-13 20:48:03.870
30.0, -440.7490797280334, 125.00615601893514, -196.05490542715415, -3.107856863178313, 0.01600000075995922, -0.19200000911951065, 1.0400000493973494, 0.0, 0.0, 0.0, 0.0, 0.0, 1.7103880838856134E9, 0.0, 2024-03-13 20:48:03.885
30.0, -314.0524889291264, 134.05671391170472, -52.8204770241864, -41.94297800306231, 0.01600000075995922, -0.19200000911951065, 1.0400000493973494, 0.0, 0.0, 0.0, 0.0, 0.0, 1.7103880838856134E9, 0.0, 2024-03-13 20:48:03.885
31.0, -190.43570574373007, 68.44764898903668, 79.36815685965121, -77.77495947852731, 0.01600000075995922, -0.19200000911951065, 1.0400000493973494, 0.0, 0.0, 0.0, 0.0, 0.0, 1.7103880838863199E9, 0.0, 2024-03-13 20:48:03.886
31.0, -102.59667548444122, -107.64367047464475, 145.0669793812558, -223.02332400763407, 0.01600000075995922, -0.19200000911951065, 1.0400000493973494, 0.0, 0.0, 0.0, 0.0, 0.0, 1.7103880838863199E9, 0.0, 2024-03-13 20:48:03.886
32.0, -275.60631738463417, -230.83410506509244, -17.347525944467634, -395.58417791314423, 0.01600000075995922, -0.19200000911951065, 1.0400000493973494, 0.0, 0.0, 0.0, 0.0, 0.0, 1.7103880838998733E9, 0.0, 2024-03-13 20:48:03.899
32.0, -65.52304722368717, -276.1579526280984, 208.34234673157334, -436.9960901224986, 0.01600000075995922, -0.19200000911951065, 1.0400000493973494, 0.0, 0.0, 0.0, 0.0, 0.0, 1.7103880838998733E9, 0.0, 2024-03-13 20:48:03.899
33.0, -216.44297003559768, -316.7396070472896, 48.6897575231269, -423.40903358347714, 0.01600000075995922, -0.19200000911951065, 1.0400000493973494, 0.0, 0.0, 0.0, 0.0, 0.0, 1.710388083915582E9, 0.0, 2024-03-13 20:48:03.915
33.0, -342.5617462913506, -244.61189650185406, -70.25215071765706, -377.26614793017507, 0.01600000075995922, -0.19200000911951065, 1.0400000493973494, 0.0, 0.0, 0.0, 0.0, 0.0, 1.710388083915582E9, 0.0, 2024-03-13 20:48:03.915
34.0, -417.9207303985022, -58.50886485679075, -138.16873391298577, -226.3480950682424, 0.01600000075995922, -0.19200000911951065, 1.0400000493973494, 0.0, 0.0, 0.0, 0.0, 0.0, 1.7103880839163198E9, 0.0, 2024-03-13 20:48:03.916
34.0, -231.8139588534832, 70.16426306869835, 39.14927273616195, -53.64138506446034, 0.01600000075995922, -0.19200000911951065, 1.0400000493973494, 0.0, 0.0, 0.0, 0.0, 0.0, 1.7103880839163198E9, 0.0, 2024-03-13 20:48:03.916
35.0, -448.4233544371091, 124.52370892465115, -188.59754491550848, 5.789365131407976, 0.01600000075995922, -0.19200000911951065, 1.0400000493973494, 0.0, 0.0, 0.0, 0.0, 0.0, 1.7103880839298513E9, 0.0, 2024-03-13 20:48:03.929
35.0, -303.58450895315036, 154.76453996635973, -37.815998401958495, -18.10111578553915, 0.01600000075995922, -0.19200000911951065, 1.0400000493973494, 0.0, 0.0, 0.0, 0.0, 0.0, 1.7103880839298513E9, 0.0, 2024-03-13 20:48:03.929
36.0, -167.76069231238216, 93.23944579530507, 94.53345117997378, -56.165817534551024, 0.01600000075995922, -0.19200000911951065, 1.0400000493973494, 0.0, 0.0, 0.0, 0.0, 0.0, 1.7103880839455457E9, 0.0, 2024-03-13 20:48:03.945
36.0, -93.78921108879149, -88.69359739916399, 153.79216597788036, -204.27146562980488, 0.01600000075995922, -0.19200000911951065, 1.0400000493973494, 0.0, 0.0, 0.0, 0.0, 0.0, 1.7103880839455457E9, 0.0, 2024-03-13 20:48:03.945
37.0, -269.4055632581003, -221.98550176993012, -19.389511320274323, -383.86333145201206, 0.01600000075995922, -0.19200000911951065, 1.0400000493973494, 0.0, 0.0, 0.0, 0.0, 0.0, 1.7103880839462843E9, 0.0, 2024-03-13 20:48:03.946
37.0, -58.23398221004754, -256.91990725602955, 207.59436674043536, -430.00621710531414, 0.01600000075995922, -0.19200000911951065, 1.0400000493973494, 0.0, 0.0, 0.0, 0.0, 0.0, 1.7103880839462843E9, 0.0, 2024-03-13 20:48:03.946
38.0, -201.00466301850975, -303.08149240911007, 42.63485949486494, -429.48263111151755, 0.01600000075995922, -0.19200000911951065, 1.0400000493973494, 0.0, 0.0, 0.0, 0.0, 0.0, 1.7103880839598305E9, 0.0, 2024-03-13 20:48:03.959
38.0, -323.33492061914876, -229.33814508281648, -75.39077325677499, -378.97154230996966, 0.01600000075995922, -0.19200000911951065, 1.0400000493973494, 0.0, 0.0, 0.0, 0.0, 0.0, 1.7103880839598305E9, 0.0, 2024-03-13 20:48:03.959
39.0, -409.34887970006093, -53.83398991217837, -149.3472948805429, -237.279822638724, 0.01600000075995922, -0.19200000911951065, 1.0400000493973494, 0.0, 0.0, 0.0, 0.0, 0.0, 1.710388083975755E9, 0.0, 2024-03-13 20:48:03.975
39.0, -236.60477069672197, 54.28838775679469, 18.0450172862038, -74.68954201508313, 0.01600000075995922, -0.19200000911951065, 1.0400000493973494, 0.0, 0.0, 0.0, 0.0, 0.0, 1.710388083975755E9, 0.0, 2024-03-13 20:48:03.975
40.0, -454.14914126927033, 112.69066546484828, -202.88022284628823, -11.69466716144234, 0.01600000075995922, -0.19200000911951065, 1.0400000493973494, 0.0, 0.0, 0.0, 0.0, 0.0, 1.7103880839765189E9, 0.0, 2024-03-13 20:48:03.976
40.0, -322.4410845297389, 137.74799516797066, -47.70429388480261, -35.14009998366237, 0.01600000075995922, -0.19200000911951065, 1.0400000493973494, 0.0, 0.0, 0.0, 0.0, 0.0, 1.7103880839765189E9, 0.0, 2024-03-13 20:48:03.976
41.0, -171.48189276829362, 84.16270860284567, 96.92324725165963, -63.810173043981194, 0.01600000075995922, -0.19200000911951065, 1.0400000493973494, 0.0, 0.0, 0.0, 0.0, 0.0, 1.710388083989848E9, 0.0, 2024-03-13 20:48:03.989
41.0, -104.17865316569805, -109.02369355829433, 146.0730124693364, -220.51385113736615, 0.01600000075995922, -0.19200000911951065, 1.0400000493973494, 0.0, 0.0, 0.0, 0.0, 0.0, 1.710388083989848E9, 0.0, 2024-03-13 20:48:03.989
42.0, -276.2533200769685, -229.82059217710048, -22.235575186554343, -393.0672252429649, 0.01600000075995922, -0.19200000911951065, 1.0400000493973494, 0.0, 0.0, 0.0, 0.0, 0.0, 1.7103880840064592E9, 0.0, 2024-03-13 20:48:04.006
42.0, -69.56213917583227, -269.1306806113571, 205.9151516603306, -435.9788373345509, 0.01600000075995922, -0.19200000911951065, 1.0400000493973494, 0.0, 0.0, 0.0, 0.0, 0.0, 1.7103880840064592E9, 0.0, 2024-03-13 20:48:04.006
43.0, -215.63141174521297, -319.3724966160953, 40.55921501945704, -430.69809859711677, 0.01600000075995922, -0.19200000911951065, 1.0400000493973494, 0.0, 0.0, 0.0, 0.0, 0.0, 1.7103880840066593E9, 0.0, 2024-03-13 20:48:04.006
43.0, -324.610226504039, -234.83953791763633, -70.99639080883935, -375.216682754457, 0.01600000075995922, -0.19200000911951065, 1.0400000493973494, 0.0, 0.0, 0.0, 0.0, 0.0, 1.7103880840066593E9, 0.0, 2024-03-13 20:48:04.006
44.0, -417.72251570085064, -49.895875258836895, -140.70438608294353, -225.30092308064923, 0.01600000075995922, -0.19200000911951065, 1.0400000493973494, 0.0, 0.0, 0.0, 0.0, 0.0, 1.7103880840203192E9, 0.0, 2024-03-13 20:48:04.020
44.0, -233.47447443380952, 59.61026539374143, 30.14733354281634, -59.18391679879278, 0.01600000075995922, -0.19200000911951065, 1.0400000493973494, 0.0, 0.0, 0.0, 0.0, 0.0, 1.7103880840203192E9, 0.0, 2024-03-13 20:48:04.020
45.0, -451.0450243060477, 115.30859543383121, -197.3302113120444, -5.591150433756411, 0.01600000075995922, -0.19200000911951065, 1.0400000493973494, 0.0, 0.0, 0.0, 0.0, 0.0, 1.7103880840360303E9, 0.0, 2024-03-13 20:48:04.036
45.0, -312.863200743217, 150.1457635210827, -40.01879947585985, -24.93391300458461, 0.01600000075995922, -0.19200000911951065, 1.0400000493973494, 0.0, 0.0, 0.0, 0.0, 0.0, 1.7103880840360303E9, 0.0, 2024-03-13 20:48:04.036
46.0, -182.0845091426745, 79.63368975650519, 78.61269706860185, -73.35439773090184, 0.01600000075995922, -0.19200000911951065, 1.0400000493973494, 0.0, 0.0, 0.0, 0.0, 0.0, 1.710388084036488E9, 0.0, 2024-03-13 20:48:04.036
46.0, -109.18263930641115, -109.22938805585727, 139.33371274918318, -224.93067298503593, 0.01600000075995922, -0.19200000911951065, 1.0400000493973494, 0.0, 0.0, 0.0, 0.0, 0.0, 1.710388084036488E9, 0.0, 2024-03-13 20:48:04.036
47.0, -274.16271600173786, -228.0366598982364, -27.56867252336815, -398.119830083102, 0.01600000075995922, -0.19200000911951065, 1.0400000493973494, 0.0, 0.0, 0.0, 0.0, 0.0, 1.710388084050154E9, 0.0, 2024-03-13 20:48:04.050
47.0, -62.39649086073041, -264.48198496643454, 203.60389348771423, -439.6962978905067, 0.01600000075995922, -0.19200000911951065, 1.0400000493973494, 0.0, 0.0, 0.0, 0.0, 0.0, 1.710388084050154E9, 0.0, 2024-03-13 20:48:04.050
48.0, -212.67689078021795, -322.7384065762162, 37.78420925233513, -436.4351051291451, 0.01600000075995922, -0.19200000911951065, 1.0400000493973494, 0.0, 0.0, 0.0, 0.0, 0.0, 1.7103880840655963E9, 0.0, 2024-03-13 20:48:04.065
48.0, -345.38163085794076, -244.06213120836765, -79.96093100262806, -385.17229643650353, 0.01600000075995922, -0.19200000911951065, 1.0400000493973494, 0.0, 0.0, 0.0, 0.0, 0.0, 1.7103880840655963E9, 0.0, 2024-03-13 20:48:04.065
49.0, -423.5829389314167, -59.4176605460234, -144.8668947336264, -230.58540171803907, 0.01600000075995922, -0.19200000911951065, 1.0400000493973494, 0.0, 0.0, 0.0, 0.0, 0.0, 1.7103880840663223E9, 0.0, 2024-03-13 20:48:04.066
49.0, -241.3020850410685, 53.22251626942307, 28.374620963819325, -68.94131578318775, 0.01600000075995922, -0.19200000911951065, 1.0400000493973494, 0.0, 0.0, 0.0, 0.0, 0.0, 1.7103880840663223E9, 0.0, 2024-03-13 20:48:04.066
50.0, -457.10366223426536, 103.68498637154698, -202.69696774845943, -16.620115403085947, 0.01600000075995922, -0.19200000911951065, 1.0400000493973494, 0.0, 0.0, 0.0, 0.0, 0.0, 1.7103880840798993E9, 0.0, 2024-03-13 20:48:04.079
50.0, -322.8300341251306, 134.69997670408338, -44.13268942711875, -32.49225081503391, 0.01600000075995922, -0.19200000911951065, 1.0400000493973494, 0.0, 0.0, 0.0, 0.0, 0.0, 1.7103880840798993E9, 0.0, 2024-03-13 20:48:04.079
51.0, -189.2763367574662, 72.13893024530262, 84.39458240009844, -72.12023074552417, 0.01600000075995922, -0.20800000987946987, 1.0400000493973494, 0.0, 0.0, 0.0, 0.0, 0.0, 1.7103880840955768E9, 0.0, 2024-03-13 20:48:04.095
51.0, -109.12280090712011, -115.72933417884633, 142.04514021705836, -220.20717934099957, 0.01600000075995922, -0.20800000987946987, 1.0400000493973494, 0.0, 0.0, 0.0, 0.0, 0.0, 1.7103880840955768E9, 0.0, 2024-03-13 20:48:04.095
52.0, -294.79948395723477, -235.1499496139586, -25.747341244947165, -389.0468327905983, 0.01600000075995922, -0.20800000987946987, 1.0400000493973494, 0.0, 0.0, 0.0, 0.0, 0.0, 1.7103880840962827E9, 0.0, 2024-03-13 20:48:04.096
52.0, -65.1789764277637, -268.1620465228334, 208.40218513086438, -431.63681348599494, 0.01600000075995922, -0.20800000987946987, 1.0400000493973494, 0.0, 0.0, 0.0, 0.0, 0.0, 1.7103880840962827E9, 0.0, 2024-03-13 20:48:04.096
53.0, -219.6256248978898, -326.57554393075407, 35.84694107528776, -438.5032698046416, 0.01600000075995922, -0.20800000987946987, 1.0400000493973494, 0.0, 0.0, 0.0, 0.0, 0.0, 1.7103880841101673E9, 0.0, 2024-03-13 20:48:04.110
53.0, -340.86757161142305, -248.32561715785414, -86.03826843062416, -392.20330835320055, 0.01600000075995922, -0.20800000987946987, 1.0400000493973494, 0.0, 0.0, 0.0, 0.0, 0.0, 1.7103880841101673E9, 0.0, 2024-03-13 20:48:04.110
54.0, -417.5430005029775, -60.46483253361657, -153.76785662816837, -237.07412814116105, 0.01600000075995922, -0.20800000987946987, 1.0400000493973494, 0.0, 0.0, 0.0, 0.0, 0.0, 1.7103880841257377E9, 0.0, 2024-03-13 20:48:04.125
54.0, -251.57559021934867, 41.236136911436915, 12.311750654131174, -85.52777208667248, 0.01600000075995922, -0.20800000987946987, 1.0400000493973494, 0.0, 0.0, 0.0, 0.0, 0.0, 1.7103880841257377E9, 0.0, 2024-03-13 20:48:04.125
55.0, -462.36944137187675, 100.44249310996383, -214.74318550573662, -27.79867637064308, 0.01600000075995922, -0.20800000987946987, 1.0400000493973494, 0.0, 0.0, 0.0, 0.0, 0.0, 1.7103880841263638E9, 0.0, 2024-03-13 20:48:04.126
55.0, -313.88793333107606, 142.93149650655687, -52.4128279290162, -34.777329687960446, 0.01600000075995922, -0.20800000987946987, 1.0400000493973494, 0.0, 0.0, 0.0, 0.0, 0.0, 1.7103880841263638E9, 0.0, 2024-03-13 20:48:04.126
56.0, -177.21889930032194, 76.50713339354843, 86.64600217342377, -71.28997295536101, 0.01600000075995922, -0.20800000987946987, 1.0400000493973494, 0.0, 0.0, 0.0, 0.0, 0.0, 1.710388084139892E9, 0.0, 2024-03-13 20:48:04.139
56.0, -116.5390225192532, -117.2215542611666, 145.86731797177345, -226.69590576412156, 0.01600000075995922, -0.20800000987946987, 1.0400000493973494, 0.0, 0.0, 0.0, 0.0, 0.0, 1.710388084139892E9, 0.0, 2024-03-13 20:48:04.139
57.0, -280.1203766311519, -222.74470146093518, -13.005502095911652, -381.71662887744606, 0.01600000075995922, -0.20800000987946987, 1.0400000493973494, 0.0, 0.0, 0.0, 0.0, 0.0, 1.7103880841556509E9, 0.0, 2024-03-13 20:48:04.155
57.0, -60.22734888643026, -258.6327814357355, 219.19179650302976, -422.3768211957067, 0.01600000075995922, -0.20800000987946987, 1.0400000493973494, 0.0, 0.0, 0.0, 0.0, 0.0, 1.7103880841556509E9, 0.0, 2024-03-13 20:48:04.155
58.0, -226.46216201689094, -327.6301957182586, 43.04624848999083, -432.4334121765569, 0.01600000075995922, -0.20800000987946987, 1.0400000493973494, 0.0, 0.0, 0.0, 0.0, 0.0, 1.7103880841565695E9, 0.0, 2024-03-13 20:48:04.156
58.0, -346.2642472474836, -252.84715620428324, -81.5017697843723, -387.9622618034482, 0.01600000075995922, -0.20800000987946987, 1.0400000493973494, 0.0, 0.0, 0.0, 0.0, 0.0, 1.7103880841565695E9, 0.0, 2024-03-13 20:48:04.156
59.0, -427.08722518989816, -60.57702953228727, -147.84385509835556, -230.47320471936837, 0.01600000075995922, -0.20800000987946987, 1.0400000493973494, 0.0, 0.0, 0.0, 0.0, 0.0, 1.7103880841698704E9, 0.0, 2024-03-13 20:48:04.169
59.0, -250.73037282936275, 39.01089643780142, 21.930773340165615, -79.49905335810035, 0.01600000075995922, -0.20800000987946987, 1.0400000493973494, 0.0, 0.0, 0.0, 0.0, 0.0, 1.7103880841698704E9, 0.0, 2024-03-13 20:48:04.169
60.0, -473.96687113447115, 92.92903409898281, -203.71422053640708, -22.92558672837913, 0.01600000075995922, -0.20800000987946987, 1.0400000493973494, 0.0, 0.0, 0.0, 0.0, 0.0, 1.7103880841856892E9, 0.0, 2024-03-13 20:48:04.185
60.0, -324.15021880948916, 135.31706019677222, -43.21641393797472, -30.15481334272772, 0.01600000075995922, -0.20800000987946987, 1.0400000493973494, 0.0, 0.0, 0.0, 0.0, 0.0, 1.7103880841856892E9, 0.0, 2024-03-13 20:48:04.185
61.0, -175.17317402455956, 72.92804913595319, 91.5602307152003, -66.6973758097738, 0.01600000075995922, -0.20800000987946987, 1.0400000493973494, 0.0, 0.0, 0.0, 0.0, 0.0, 1.7103880841863196E9, 0.0, 2024-03-13 20:48:04.186
61.0, -125.30908791534603, -127.05001134471968, 140.53422063495964, -235.25653676269576, 0.01600000075995922, -0.20800000987946987, 1.0400000493973494, 0.0, 0.0, 0.0, 0.0, 0.0, 1.7103880841863196E9, 0.0, 2024-03-13 20:48:04.186
62.0, -291.7926043928601, -235.02279301546514, -20.178630210924894, -395.707594611682, 0.01600000075995922, -0.20800000987946987, 1.0400000493973494, 0.0, 0.0, 0.0, 0.0, 0.0, 1.7103880842000165E9, 0.0, 2024-03-13 20:48:04.200
62.0, -63.402523948810995, -267.7506575277075, 210.37311240751296, -432.32869497779757, 0.01600000075995922, -0.20800000987946987, 1.0400000493973494, 0.0, 0.0, 0.0, 0.0, 0.0, 1.7103880842000165E9, 0.0, 2024-03-13 20:48:04.200
63.0, -222.31835286598653, -335.2259325282648, 32.5333897145465, -449.4424771750346, 0.01600000075995922, -0.20800000987946987, 1.0400000493973494, 0.0, 0.0, 0.0, 0.0, 0.0, 1.7103880842157617E9, 0.0, 2024-03-13 20:48:04.215
63.0, -348.68022261885926, -249.7841781405732, -87.5043092132546, -392.6034776484594, 0.01600000075995922, -0.20800000987946987, 1.0400000493973494, 0.0, 0.0, 0.0, 0.0, 0.0, 1.7103880842157617E9, 0.0, 2024-03-13 20:48:04.215
64.0, -411.15525137865916, -51.71346663730219, -146.87148110987619, -228.427479443606, 0.01600000075995922, -0.20800000987946987, 1.0400000493973494, 0.0, 0.0, 0.0, 0.0, 0.0, 1.7103880842165294E9, 0.0, 2024-03-13 20:48:04.216
64.0, -247.5252785673365, 40.52181601990014, 18.419007281772792, -84.28238540142775, 0.01600000075995922, -0.20800000987946987, 1.0400000493973494, 0.0, 0.0, 0.0, 0.0, 0.0, 1.7103880842165294E9, 0.0, 2024-03-13 20:48:04.216
65.0, -455.9442932480015, 93.57229689136147, -211.64654834242538, -25.966125392355025, 0.01600000075995922, -0.20800000987946987, 1.0400000493973494, 0.0, 0.0, 0.0, 0.0, 0.0, 1.7103880842298677E9, 0.0, 2024-03-13 20:48:04.229
65.0, -315.70926460949704, 142.53880701120943, -46.91891489410773, -26.93475948087871, 0.01600000075995922, -0.20800000987946987, 1.0400000493973494, 0.0, 0.0, 0.0, 0.0, 0.0, 1.7103880842298677E9, 0.0, 2024-03-13 20:48:04.229
66.0, -181.71051914710552, 76.9970602877438, 85.35573668871075, -68.9936743825674, 0.01600000075995922, -0.20800000987946987, 1.0400000493973494, 0.0, 0.0, 0.0, 0.0, 0.0, 1.7103880842455227E9, 0.0, 2024-03-13 20:48:04.245
66.0, -109.88574049808085, -122.36017680028453, 131.34902634378523, -232.52266989508644, 0.01600000075995922, -0.20800000987946987, 1.0400000493973494, 0.0, 0.0, 0.0, 0.0, 0.0, 1.7103880842455227E9, 0.0, 2024-03-13 20:48:04.245
67.0, -287.8507498395629, -224.52489383984357, -24.098045364487916, -389.4507419858128, 0.01600000075995922, -0.20800000987946987, 1.0400000493973494, 0.0, 0.0, 0.0, 0.0, 0.0, 1.7103880842462819E9, 0.0, 2024-03-13 20:48:04.246
