%OpenBCI Raw EXG Data
%Number of channels = 4
%Sample Rate = 200 Hz
%Board = OpenBCI_GUI$BoardGanglionBLE
Sample Index, EXG Channel 0, EXG Channel 1, EXG Channel 2, EXG Channel 3, Accel Channel 0, Accel Channel 1, Accel Channel 2, Other, Other, Other, Other, Other, Timestamp, Other, Timestamp (Formatted)
2.0, 25.670673295855522, 17.225979195907712, 6.806617919355631, 9.585363586433232, 0.6560000311583281, 0.0, 0.0, 0.0, 0.0, 0.0, 0.0, 0.0, 1.7103952495253768E9, 0.0, 2024-03-13 22:47:29.525
2.0, 7.6667949091643095, 0.19073489774018526, -15.251312019303441, -8.119322803802788, 0.6560000311583281, 0.0, 0.0, 0.0, 0.0, 0.0, 0.0, 0.0, 1.7103952495253768E9, 0.0, 2024-03-13 22:47:29.525
3.0, 44.56464787200093, 32.24167751800269, 15.064317021518946, 14.712766425684094, 0.6560000311583281, 0.0, 0.0, 0.0, 0.0, 0.0, 0.0, 0.0, 1.7103952495395257E9, 0.0, 2024-03-13 22:47:29.539
3.0, 25.550996497273445, 14.91098112333566, 14.529511327855289, 7.591996910050511, 0.6560000311583281, 0.0, 0.0, 0.0, 0.0, 0.0, 0.0, 0.0, 1.7103952495395257E9, 0.0, 2024-03-13 22:47:29.539
4.0, 23.74462481867522, 13.957306634634733, 3.455667559057474, 4.312104648910463, 0.6560000311583281, 0.0, 0.0, 0.0, 0.0, 0.0, 0.0, 0.0, 1.710395249540062E9, 0.0, 2024-03-13 22:47:29.540
4.0, 16.010511710308492, 11.3019776660949, -0.6544824922457337, 3.6763216564431787, 0.6560000311583281, 0.0, 0.0, 0.0, 0.0, 0.0, 0.0, 0.0, 1.710395249540062E9, 0.0, 2024-03-13 22:47:29.540
5.0, 25.446279298514128, 17.72712578997016, 21.885894540697336, 10.4866794757545, 0.6560000311583281, 0.0, 0.0, 0.0, 0.0, 0.0, 0.0, 0.0, 1.7103952495536675E9, 0.0, 2024-03-13 22:47:29.553
5.0, 5.348056936636567, 6.234413226135075, 4.588857245631516, 3.7959984550252557, 0.6560000311583281, 0.0, 0.0, 0.0, 0.0, 0.0, 0.0, 0.0, 1.7103952495536675E9, 0.0, 2024-03-13 22:47:29.553
6.0, 11.073843768797815, 8.108103103935719, -3.014359364286065, -3.0779376635327935, 0.6560000311583281, 0.0, 0.0, 0.0, 0.0, 0.0, 0.0, 0.0, 1.7103952495693865E9, 0.0, 2024-03-13 22:47:29.569
6.0, 20.633028055541217, 13.867549035698175, 8.261439002119005, -0.7479799911379814, 0.6560000311583281, 0.0, 0.0, 0.0, 0.0, 0.0, 0.0, 0.0, 1.7103952495693865E9, 0.0, 2024-03-13 22:47:29.569
7.0, 11.627348962239921, 7.760292408056557, -0.5834243930876255, -2.935821465216577, 0.6560000311583281, 0.0, 0.0, 0.0, 0.0, 0.0, 0.0, 0.0, 1.7103952495700507E9, 0.0, 2024-03-13 22:47:29.570
7.0, 28.019330468028784, 32.798922611400485, 13.123308944515884, 18.07493648584932, 0.6560000311583281, 0.0, 0.0, 0.0, 0.0, 0.0, 0.0, 0.0, 1.7103952495700507E9, 0.0, 2024-03-13 22:47:29.570
8.0, 27.439645974896848, 24.305609812028706, 28.57283566147089, 22.16638703737408, 0.6560000311583281, 0.0, 0.0, 0.0, 0.0, 0.0, 0.0, 0.0, 1.7103952495836203E9, 0.0, 2024-03-13 22:47:29.583
8.0, 18.86405537649989, 15.756198513321579, 19.25300497189164, 9.087956892326474, 0.6560000311583281, 0.0, 0.0, 0.0, 0.0, 0.0, 0.0, 0.0, 1.7103952495836203E9, 0.0, 2024-03-13 22:47:29.583
9.0, 8.687787597067654, 3.2050942620262504, -12.704440149478614, -5.9352212296798825, 0.6560000311583281, 0.0, 0.0, 0.0, 0.0, 0.0, 0.0, 0.0, 1.7103952495993304E9, 0.0, 2024-03-13 22:47:29.599
9.0, 28.18014616612345, 24.369188111275434, 6.787918419577181, 8.908441694453359, 0.6560000311583281, 0.0, 0.0, 0.0, 0.0, 0.0, 0.0, 0.0, 1.7103952495993304E9, 0.0, 2024-03-13 22:47:29.599
10.0, 25.618314696475863, 20.47595225740224, 20.16180066112429, 5.961400529369712, 0.6560000311583281, 0.0, 0.35200001671910286, 0.0, 0.0, 0.0, 0.0, 0.0, 1.7103952496000485E9, 0.0, 2024-03-13 22:47:29.600
10.0, -4.693574444390833, 4.629996145144105, -7.311504413373768, -7.083370516076684, 0.6560000311583281, 0.0, 0.35200001671910286, 0.0, 0.0, 0.0, 0.0, 0.0, 1.7103952496000485E9, 0.0, 2024-03-13 22:47:29.600
11.0, 18.183393584564328, 17.71590609010309, -6.327910725027323, 1.9522277768701315, 0.6560000311583281, 0.7360000349581242, 0.35200001671910286, 0.0, 0.0, 0.0, 0.0, 0.0, 1.7103952496135738E9, 0.0, 2024-03-13 22:47:29.613
11.0, 8.186641003005207, 11.174821067601442, -7.285325113683939, -9.544224686920643, 0.6560000311583281, 0.7360000349581242, 0.35200001671910286, 0.0, 0.0, 0.0, 0.0, 0.0, 1.7103952496135738E9, 0.0, 2024-03-13 22:47:29.613
12.0, 12.259392054751515, 11.922801058739424, 6.4475875236094, -4.2073874501511455, 0.6720000319182873, 0.7360000349581242, 0.35200001671910286, 0.0, 0.0, 0.0, 0.0, 0.0, 1.7103952496294959E9, 0.0, 2024-03-13 22:47:29.629
12.0, -2.3112581726163626, 8.298838001675904, -4.876829542219639, 1.0509118875488639, 0.6720000319182873, 0.7360000349581242, 0.35200001671910286, 0.0, 0.0, 0.0, 0.0, 0.0, 1.7103952496294959E9, 0.0, 2024-03-13 22:47:29.629
13.0, 20.378714858554304, 13.762831836938858, 7.352643312886357, 3.0816775634884834, 0.6720000319182873, 0.7360000349581242, 0.35200001671910286, 0.0, 0.0, 0.0, 0.0, 0.0, 1.7103952496302855E9, 0.0, 2024-03-13 22:47:29.630
13.0, 33.599261201918125, 11.990119257941842, 3.3135513607412577, -9.383408988825977, 0.6720000319182873, 0.7360000349581242, 0.35200001671910286, 0.0, 0.0, 0.0, 0.0, 0.0, 1.7103952496302855E9, 0.0, 2024-03-13 22:47:29.630
14.0, 7.973466705530882, 4.966587141156197, -7.053451316431165, -10.426841076463461, 0.6720000319182873, 0.7360000349581242, 0.35200001671910286, 0.0, 0.0, 0.0, 0.0, 0.0, 1.7103952496439312E9, 0.0, 2024-03-13 22:47:29.643
14.0, 4.83569064270705, 22.719892230816185, 20.13936126139015, 13.28786454256624, 0.6720000319182873, 0.7360000349581242, 0.35200001671910286, 0.0, 0.0, 0.0, 0.0, 0.0, 1.7103952496439312E9, 0.0, 2024-03-13 22:47:29.643
15.0, 16.96792609896511, 14.51829162798822, 30.9775913329795, 13.396321641281247, 0.6720000319182873, 0.7360000349581242, 0.35200001671910286, 0.0, 0.0, 0.0, 0.0, 0.0, 1.7103952496596203E9, 0.0, 2024-03-13 22:47:29.659
15.0, 29.586348549462855, 24.51130430959165, 27.80989607051015, 14.637968426570296, 0.6720000319182873, 0.7360000349581242, 0.35200001671910286, 0.0, 0.0, 0.0, 0.0, 0.0, 1.7103952496596203E9, 0.0, 2024-03-13 22:47:29.659
16.0, -1.8662100778892636, -7.483539811335504, -33.73015770036727, -25.29668330028653, 0.6720000319182873, 0.7360000349581242, 0.35200001671910286, 0.0, 0.0, 0.0, 0.0, 0.0, 1.7103952496603246E9, 0.0, 2024-03-13 22:47:29.660
16.0, 15.075536721386015, 4.192427850328386, -11.765725260600448, -12.977452846243978, 0.6720000319182873, 0.7360000349581242, 0.35200001671910286, 0.0, 0.0, 0.0, 0.0, 0.0, 1.7103952496603246E9, 0.0, 2024-03-13 22:47:29.660
17.0, 16.05539050977677, 8.310057701542974, 11.70588686130941, 0.33285109605640173, 0.6720000319182873, 0.7360000349581242, 0.35200001671910286, 0.0, 0.0, 0.0, 0.0, 0.0, 1.7103952496739264E9, 0.0, 2024-03-13 22:47:29.673
17.0, 21.968172339722514, 9.046817992813885, -9.892035382799804, -8.238999602384865, 0.6720000319182873, 0.7360000349581242, 0.35200001671910286, 0.0, 0.0, 0.0, 0.0, 0.0, 1.7103952496739264E9, 0.0, 2024-03-13 22:47:29.673
18.0, 22.345902235247195, 20.1206617616117, 11.421654464676976, 12.569803751073778, 0.6720000319182873, 0.7360000349581242, 0.35200001671910286, 0.0, 0.0, 0.0, 0.0, 0.0, 1.7103952496893709E9, 0.0, 2024-03-13 22:47:29.689
18.0, 27.83607537019998, 25.034890303388238, 25.240584800951183, 19.058530174195766, 0.6720000319182873, 0.7360000349581242, 0.35200001671910286, 0.0, 0.0, 0.0, 0.0, 0.0, 1.7103952496893709E9, 0.0, 2024-03-13 22:47:29.689
19.0, 16.317183506675065, 8.665348197333515, -22.439399734139442, -10.352043077349663, 0.6720000319182873, 0.7360000349581242, 0.35200001671910286, 0.0, 0.0, 0.0, 0.0, 0.0, 1.7103952496903234E9, 0.0, 2024-03-13 22:47:29.690
19.0, 29.657406648620963, 17.173620596528053, -4.181208150461316, 3.1938745621591806, 0.6720000319182873, 0.7360000349581242, 0.35200001671910286, 0.0, 0.0, 0.0, 0.0, 0.0, 1.7103952496903234E9, 0.0, 2024-03-13 22:47:29.690
20.0, 49.85286640934646, 40.1665255241096, 36.478984167799354, 26.471011886373162, 0.6720000319182873, 0.7360000349581242, 0.35200001671910286, 0.0, 0.0, 0.0, 0.0, 0.0, 1.7103952497038765E9, 0.0, 2024-03-13 22:47:29.703
20.0, 31.172066130675375, 26.62808768451214, 16.91556749958545, 13.785271236672997, 0.6720000319182873, 0.7360000349581242, 0.35200001671910286, 0.0, 0.0, 0.0, 0.0, 0.0, 1.7103952497038765E9, 0.0, 2024-03-13 22:47:29.703
21.0, 16.410681005567312, 19.630734867416322, 6.163355126976967, 9.432027688249946, 0.6720000319182873, 0.7200000341981649, 0.35200001671910286, 0.0, 0.0, 0.0, 0.0, 0.0, 1.7103952497198455E9, 0.0, 2024-03-13 22:47:29.719
21.0, 34.10414769593626, 26.54206998553127, 25.77539049461484, 23.471612121909857, 0.6720000319182873, 0.7200000341981649, 0.35200001671910286, 0.0, 0.0, 0.0, 0.0, 0.0, 1.7103952497198455E9, 0.0, 2024-03-13 22:47:29.719
22.0, 33.34120810497552, 21.141654449515045, 8.732666396535933, 7.692974208854139, 0.6720000319182873, 0.7200000341981649, 0.35200001671910286, 0.0, 0.0, 0.0, 0.0, 0.0, 1.7103952497200625E9, 0.0, 2024-03-13 22:47:29.720
22.0, 22.416960334405303, 16.332143106497824, 14.731465925462544, 13.598276238888502, 0.6720000319182873, 0.7200000341981649, 0.35200001671910286, 0.0, 0.0, 0.0, 0.0, 0.0, 1.7103952497200625E9, 0.0, 2024-03-13 22:47:29.720
23.0, 19.948626363649964, 5.8940823301672935, 2.367356671951711, -4.345763748511672, 0.6720000319182873, 0.7200000341981649, 0.35200001671910286, 0.0, 0.0, 0.0, 0.0, 0.0, 1.7103952497338495E9, 0.0, 2024-03-13 22:47:29.733
23.0, 0.602123892866075, -2.288818772882223, 13.112089244648814, -3.904455553740263, 0.6720000319182873, 0.7200000341981649, 0.35200001671910286, 0.0, 0.0, 0.0, 0.0, 0.0, 1.7103952497338495E9, 0.0, 2024-03-13 22:47:29.733
24.0, 9.25251249037683, -0.80407849047333, -8.8560830950737, -7.951027305796742, 0.6720000319182873, 0.7200000341981649, 0.35200001671910286, 0.0, 0.0, 0.0, 0.0, 0.0, 1.7103952497494228E9, 0.0, 2024-03-13 22:47:29.749
24.0, 16.51913810428232, 14.671627526171505, 7.752812608145177, 5.7744055315852165, 0.6720000319182873, 0.7200000341981649, 0.35200001671910286, 0.0, 0.0, 0.0, 0.0, 0.0, 1.7103952497494228E9, 0.0, 2024-03-13 22:47:29.749
25.0, 6.2979915253818035, -0.34033089596778154, 9.121615991927683, -6.226933426223695, 0.6720000319182873, 0.7200000341981649, 0.35200001671910286, 0.0, 0.0, 0.0, 0.0, 0.0, 1.7103952497502728E9, 0.0, 2024-03-13 22:47:29.750
25.0, 18.50876488070935, 12.05743745714426, 4.805771443061531, -0.9162754891440272, 0.6720000319182873, 0.7200000341981649, 0.35200001671910286, 0.0, 0.0, 0.0, 0.0, 0.0, 1.7103952497502728E9, 0.0, 2024-03-13 22:47:29.750
26.0, 6.8215775191783905, 3.975513652898371, -6.784178519621491, -11.354336265474558, 0.6720000319182873, 0.7200000341981649, 0.35200001671910286, 0.0, 0.0, 0.0, 0.0, 0.0, 1.7103952497636602E9, 0.0, 2024-03-13 22:47:29.763
26.0, 17.7495651897043, 4.323324348777533, 7.001092717051506, -6.0960369277745485, 0.6720000319182873, 0.7200000341981649, 0.35200001671910286, 0.0, 0.0, 0.0, 0.0, 0.0, 1.7103952497636602E9, 0.0, 2024-03-13 22:47:29.763
27.0, 0.6956213917583227, -10.340823377482593, 7.180607914924622, -10.329603677615523, 0.6720000319182873, 0.7200000341981649, 0.35200001671910286, 0.0, 0.0, 0.0, 0.0, 0.0, 1.7103952497793217E9, 0.0, 2024-03-13 22:47:29.779
27.0, -16.186287008225918, -23.39307422284037, -24.260731012560427, -22.054190038703382, 0.6720000319182873, 0.7200000341981649, 0.35200001671910286, 0.0, 0.0, 0.0, 0.0, 0.0, 1.7103952497793217E9, 0.0, 2024-03-13 22:47:29.779
28.0, 5.722046932205558, 1.043432087637484, 1.0957906870171428, -0.8788764895871282, 0.6720000319182873, 0.7200000341981649, 0.35200001671910286, 0.0, 0.0, 0.0, 0.0, 0.0, 1.7103952497800393E9, 0.0, 2024-03-13 22:47:29.780
28.0, 30.334328540600836, 14.723986125551164, 14.578130027279258, 3.825917654670775, 0.6720000319182873, 0.7200000341981649, 0.35200001671910286, 0.0, 0.0, 0.0, 0.0, 0.0, 1.7103952497800393E9, 0.0, 2024-03-13 22:47:29.780
29.0, -6.118476327508688, -21.624101543799043, -26.489711386151612, -30.99255093280226, 0.6720000319182873, 0.7200000341981649, 0.35200001671910286, 0.0, 0.0, 0.0, 0.0, 0.0, 1.7103952497940063E9, 0.0, 2024-03-13 22:47:29.794
29.0, 25.42383989877999, 15.32237011846155, 7.618176209740341, 1.0583916874602437, 0.6720000319182873, 0.7200000341981649, 0.35200001671910286, 0.0, 0.0, 0.0, 0.0, 0.0, 1.7103952497940063E9, 0.0, 2024-03-13 22:47:29.794
30.0, 13.553397439420223, 9.398368588648736, 18.624701779335737, 6.529865322634578, 0.6720000319182873, 0.7200000341981649, 0.33600001595914364, 0.0, 0.0, 0.0, 0.0, 0.0, 1.71039524980968E9, 0.0, 2024-03-13 22:47:29.809
30.0, -8.111843003891408, -6.997352817095816, -14.035844533704221, -17.218499395996332, 0.6720000319182873, 0.7200000341981649, 0.33600001595914364, 0.0, 0.0, 0.0, 0.0, 0.0, 1.71039524980968E9, 0.0, 2024-03-13 22:47:29.809
31.0, 2.094343975186348, -3.665101956576109, -17.521431292407215, -12.607202750630677, 0.6720000319182873, 0.7200000341981649, 0.33600001595914364, 0.0, 0.0, 0.0, 0.0, 0.0, 1.710395249810263E9, 0.0, 2024-03-13 22:47:29.810
31.0, 34.13406689558178, 28.434459363110363, 16.07782990951091, 7.670534809119999, 0.6720000319182873, 0.7200000341981649, 0.33600001595914364, 0.0, 0.0, 0.0, 0.0, 0.0, 1.710395249810263E9, 0.0, 2024-03-13 22:47:29.810
32.0, 6.223193526268005, 5.24707963783294, 2.3037783727049828, -3.4369680592790246, 0.6720000319182873, 0.7200000341981649, 0.33600001595914364, 0.0, 0.0, 0.0, 0.0, 0.0, 1.710395249823978E9, 0.0, 2024-03-13 22:47:29.823
32.0, 12.917614446952939, 10.08277028053999, -4.577637545764446, 0.7442400911822915, 0.6720000319182873, 0.7200000341981649, 0.33600001595914364, 0.0, 0.0, 0.0, 0.0, 0.0, 1.710395249823978E9, 0.0, 2024-03-13 22:47:29.823
33.0, 20.58066945616156, 21.930773340165615, 6.4588072234764695, 9.772358584217727, 0.6720000319182873, 0.7200000341981649, 0.33600001595914364, 0.0, 0.0, 0.0, 0.0, 0.0, 1.710395249840076E9, 0.0, 2024-03-13 22:47:29.840
33.0, 18.5648633800447, 7.550858010537922, 7.726633308455348, 1.0396921876817942, 0.6720000319182873, 0.7200000341981649, 0.33600001595914364, 0.0, 0.0, 0.0, 0.0, 0.0, 1.710395249840076E9, 0.0, 2024-03-13 22:47:29.840
34.0, 39.56066173128784, 20.98831855133176, 3.6314428569748998, 6.110996527597308, 0.6720000319182873, 0.7200000341981649, 0.33600001595914364, 0.0, 0.0, 0.0, 0.0, 0.0, 1.7103952498408687E9, 0.0, 2024-03-13 22:47:29.840
34.0, 33.621700601652265, 20.90978065226227, 3.493066558614373, 11.137422068044543, 0.6720000319182873, 0.7200000341981649, 0.33600001595914364, 0.0, 0.0, 0.0, 0.0, 0.0, 1.7103952498408687E9, 0.0, 2024-03-13 22:47:29.840
35.0, 17.27459789533168, 8.007125805132091, 7.25540591403842, -1.686694880016148, 0.6720000319182873, 0.7200000341981649, 0.33600001595914364, 0.0, 0.0, 0.0, 0.0, 0.0, 1.7103952498536477E9, 0.0, 2024-03-13 22:47:29.853
35.0, 15.808557112701237, 6.45132742356509, -0.17951519787311554, -4.925448241643608, 0.6720000319182873, 0.7200000341981649, 0.33600001595914364, 0.0, 0.0, 0.0, 0.0, 0.0, 1.7103952498536477E9, 0.0, 2024-03-13 22:47:29.853
36.0, -0.6544824922457337, 4.42804154753685, -1.8811696777120233, -2.367356671951711, 0.6720000319182873, 0.7200000341981649, 0.33600001595914364, 0.0, 0.0, 0.0, 0.0, 0.0, 1.7103952498694124E9, 0.0, 2024-03-13 22:47:29.869
36.0, -14.226579431444407, -16.43312040530145, -15.359769118018448, -15.935713711194694, 0.6720000319182873, 0.7200000341981649, 0.33600001595914364, 0.0, 0.0, 0.0, 0.0, 0.0, 1.7103952498694124E9, 0.0, 2024-03-13 22:47:29.869
37.0, -1.8662100778892636, -11.896621759049594, -12.85403614770621, -13.639415138401091, 0.6720000319182873, 0.7200000341981649, 0.33600001595914364, 0.0, 0.0, 0.0, 0.0, 0.0, 1.710395249870058E9, 0.0, 2024-03-13 22:47:29.870
37.0, 14.200400131754577, 6.915075018070638, 6.45132742356509, 4.865609842352569, 0.6720000319182873, 0.7200000341981649, 0.33600001595914364, 0.0, 0.0, 0.0, 0.0, 0.0, 1.710395249870058E9, 0.0, 2024-03-13 22:47:29.870
38.0, 13.830150036141276, 6.185794526711106, 20.853682152926922, 14.207879931665957, 0.6720000319182873, 0.7200000341981649, 0.33600001595914364, 0.0, 0.0, 0.0, 0.0, 0.0, 1.7103952498836591E9, 0.0, 2024-03-13 22:47:29.883
38.0, -0.8265178902074695, -8.212820302695036, 1.2640861850231886, -7.599476709961891, 0.6720000319182873, 0.7200000341981649, 0.33600001595914364, 0.0, 0.0, 0.0, 0.0, 0.0, 1.7103952498836591E9, 0.0, 2024-03-13 22:47:29.883
39.0, 1.1518891863524914, -9.723739884793758, -21.35482874698937, -18.183393584564328, 0.6720000319182873, 0.7200000341981649, 0.33600001595914364, 0.0, 0.0, 0.0, 0.0, 0.0, 1.71039524989927E9, 0.0, 2024-03-13 22:47:29.899
39.0, 8.138022303581238, -7.479799911379814, -13.860069235786796, -18.0450172862038, 0.6720000319182873, 0.7200000341981649, 0.33600001595914364, 0.0, 0.0, 0.0, 0.0, 0.0, 1.71039524989927E9, 0.0, 2024-03-13 22:47:29.899
40.0, -1.9110888773575425, -13.392581741325557, 2.2663793731480837, -4.02413235232234, 0.6720000319182873, 0.7200000341981649, 0.35200001671910286, 0.0, 0.0, 0.0, 0.0, 0.0, 1.7103952499001095E9, 0.0, 2024-03-13 22:47:29.900
40.0, -1.1070103868842125, -5.965140429325402, 0.886356289498508, -8.336237001232803, 0.6720000319182873, 0.7200000341981649, 0.35200001671910286, 0.0, 0.0, 0.0, 0.0, 0.0, 1.7103952499001095E9, 0.0, 2024-03-13 22:47:29.900
41.0, 15.961893010884523, 2.890942665748298, -0.02617929968982935, -3.7174605559557676, 0.6720000319182873, 0.7200000341981649, 0.35200001671910286, 0.0, 0.0, 0.0, 0.0, 0.0, 1.7103952499136505E9, 0.0, 2024-03-13 22:47:29.913
41.0, -15.011958422139287, -26.11946129053831, -30.19595224224031, -33.187872206792235, 0.6720000319182873, 0.7200000341981649, 0.35200001671910286, 0.0, 0.0, 0.0, 0.0, 0.0, 1.7103952499136505E9, 0.0, 2024-03-13 22:47:29.913
42.0, -15.142854920588434, -14.323816830292344, -6.346610224805772, -19.26422467175871, 0.6720000319182873, 0.7200000341981649, 0.35200001671910286, 0.0, 0.0, 0.0, 0.0, 0.0, 1.7103952499294732E9, 0.0, 2024-03-13 22:47:29.929
42.0, 7.554597910493612, -1.7614928791299462, -7.962247005663812, -9.177714491263032, 0.6720000319182873, 0.7200000341981649, 0.35200001671910286, 0.0, 0.0, 0.0, 0.0, 0.0, 1.7103952499294732E9, 0.0, 2024-03-13 22:47:29.929
43.0, 19.024871074594557, 5.045125040225685, 3.545425157994032, -4.371943048201501, 0.6720000319182873, 0.7200000341981649, 0.35200001671910286, 0.0, 0.0, 0.0, 0.0, 0.0, 1.7103952499300327E9, 0.0, 2024-03-13 22:47:29.930
43.0, 28.11282796692103, 14.192920331843197, 20.820023053325713, 8.06696420442313, 0.6720000319182873, 0.7200000341981649, 0.35200001671910286, 0.0, 0.0, 0.0, 0.0, 0.0, 1.7103952499300327E9, 0.0, 2024-03-13 22:47:29.930
44.0, -0.22813389729708433, -4.00917275249958, -9.899515182711184, -14.439753728918731, 0.6720000319182873, 0.7200000341981649, 0.35200001671910286, 0.0, 0.0, 0.0, 0.0, 0.0, 1.7103952499438324E9, 0.0, 2024-03-13 22:47:29.943
44.0, 5.703347432427108, 1.9933666763827205, -7.577037310227752, -4.659915344789624, 0.6720000319182873, 0.7200000341981649, 0.35200001671910286, 0.0, 0.0, 0.0, 0.0, 0.0, 1.7103952499438324E9, 0.0, 2024-03-13 22:47:29.943
45.0, 48.944070720113814, 24.391627511009574, 22.787210430018604, 12.308010754175484, 0.6720000319182873, 0.7200000341981649, 0.35200001671910286, 0.0, 0.0, 0.0, 0.0, 0.0, 1.7103952499593184E9, 0.0, 2024-03-13 22:47:29.959
45.0, 38.850080739706755, 21.915813740342855, 17.809403588995337, 13.493559040129185, 0.6720000319182873, 0.7200000341981649, 0.35200001671910286, 0.0, 0.0, 0.0, 0.0, 0.0, 1.7103952499593184E9, 0.0, 2024-03-13 22:47:29.959
46.0, 35.566448578611016, 31.617114225402474, 26.474751786328852, 27.72387837152928, 0.6720000319182873, 0.7200000341981649, 0.35200001671910286, 0.0, 0.0, 0.0, 0.0, 0.0, 1.710395249960116E9, 0.0, 2024-03-13 22:47:29.960
46.0, 39.74391682911664, 23.168680225498974, 21.35108884703368, 16.03295111004263, 0.6720000319182873, 0.7200000341981649, 0.35200001671910286, 0.0, 0.0, 0.0, 0.0, 0.0, 1.710395249960116E9, 0.0, 2024-03-13 22:47:29.960
47.0, 7.928587906062603, -2.688988068141043, -0.0523585993796587, -4.959107341244817, 0.6720000319182873, 0.7200000341981649, 0.35200001671910286, 0.0, 0.0, 0.0, 0.0, 0.0, 1.7103952499736335E9, 0.0, 2024-03-13 22:47:29.973
47.0, 27.3087494764477, 17.77574448939413, 2.569311269558966, 9.64146208576858, 0.6720000319182873, 0.7200000341981649, 0.35200001671910286, 0.0, 0.0, 0.0, 0.0, 0.0, 1.7103952499736335E9, 0.0, 2024-03-13 22:47:29.973
48.0, -1.7016544798389077, -0.5048864940181375, -8.758845696225762, -8.108103103935719, 0.6720000319182873, 0.7200000341981649, 0.35200001671910286, 0.0, 0.0, 0.0, 0.0, 0.0, 1.710395249989336E9, 0.0, 2024-03-13 22:47:29.989
48.0, 16.93800689931959, 10.07529048062861, 4.480400146916509, 3.9717737529426813, 0.6720000319182873, 0.7200000341981649, 0.35200001671910286, 0.0, 0.0, 0.0, 0.0, 0.0, 1.710395249989336E9, 0.0, 2024-03-13 22:47:29.989
49.0, 26.800123082473874, 19.563416668213904, -3.4855867587029934, -0.6170834926888347, 0.6720000319182873, 0.7200000341981649, 0.35200001671910286, 0.0, 0.0, 0.0, 0.0, 0.0, 1.710395249989996E9, 0.0, 2024-03-13 22:47:29.989
49.0, 28.397060363553464, 27.132974178530276, 9.813497483730316, 17.027764498256147, 0.6720000319182873, 0.7200000341981649, 0.35200001671910286, 0.0, 0.0, 0.0, 0.0, 0.0, 1.710395249989996E9, 0.0, 2024-03-13 22:47:29.989
50.0, -0.762939590960741, -7.23296651430428, -8.893482094630599, -14.709026525728405, 0.6720000319182873, 0.7200000341981649, 0.35200001671910286, 0.0, 0.0, 0.0, 0.0, 0.0, 1.7103952500036857E9, 0.0, 2024-03-13 22:47:30.003
50.0, -6.04367832839489, -14.540731027722359, -22.761031130328774, -23.243478224612772, 0.6720000319182873, 0.7200000341981649, 0.35200001671910286, 0.0, 0.0, 0.0, 0.0, 0.0, 1.7103952500036857E9, 0.0, 2024-03-13 22:47:30.003
51.0, 37.76924965251237, 20.662947255186737, -3.3659099601209164, -1.6567756803706288, 0.6720000319182873, 0.7200000341981649, 0.35200001671910286, 0.0, 0.0, 0.0, 0.0, 0.0, 1.7103952500193467E9, 0.0, 2024-03-13 22:47:30.019
51.0, 29.462931850925088, 14.047064233571291, 11.399215064942837, 11.447833764366806, 0.6720000319182873, 0.7200000341981649, 0.35200001671910286, 0.0, 0.0, 0.0, 0.0, 0.0, 1.7103952500193467E9, 0.0, 2024-03-13 22:47:30.019
52.0, 31.235644429922104, 16.997845298610628, 16.751011901535094, 9.140315491706133, 0.6720000319182873, 0.7200000341981649, 0.35200001671910286, 0.0, 0.0, 0.0, 0.0, 0.0, 1.7103952500200446E9, 0.0, 2024-03-13 22:47:30.020
52.0, 13.530958039686084, 4.158768750727177, -17.36809539422393, -10.84196997154504, 0.6720000319182873, 0.7200000341981649, 0.35200001671910286, 0.0, 0.0, 0.0, 0.0, 0.0, 1.7103952500200446E9, 0.0, 2024-03-13 22:47:30.020
53.0, 20.18050016090274, 11.814343960024416, 0.6694420920684934, -5.202200838364661, 0.6720000319182873, 0.7200000341981649, 0.35200001671910286, 0.0, 0.0, 0.0, 0.0, 0.0, 1.7103952500336235E9, 0.0, 2024-03-13 22:47:30.033
53.0, 3.9680338529869914, 0.8265178902074695, -4.880569442175329, -14.376175429672003, 0.6720000319182873, 0.7200000341981649, 0.35200001671910286, 0.0, 0.0, 0.0, 0.0, 0.0, 1.7103952500336235E9, 0.0, 2024-03-13 22:47:30.033
54.0, 1.1967679858207703, -3.141515962779522, -11.574990362860262, -10.643755273893476, 0.6720000319182873, 0.7200000341981649, 0.35200001671910286, 0.0, 0.0, 0.0, 0.0, 0.0, 1.7103952500494106E9, 0.0, 2024-03-13 22:47:30.049
54.0, -6.03619852848351, -8.508272399194539, -16.50043860450387, -12.162154655903578, 0.6720000319182873, 0.7200000341981649, 0.35200001671910286, 0.0, 0.0, 0.0, 0.0, 0.0, 1.7103952500494106E9, 0.0, 2024-03-13 22:47:30.049
55.0, 3.347210460342467, -9.102916492149234, -2.771265867166221, -14.593089627102017, 0.6720000319182873, 0.7200000341981649, 0.35200001671910286, 0.0, 0.0, 0.0, 0.0, 0.0, 1.7103952500501077E9, 0.0, 2024-03-13 22:47:30.050
55.0, -0.482447094283998, -6.294251625426114, -15.27001151908189, -15.367248917929828, 0.6720000319182873, 0.7200000341981649, 0.35200001671910286, 0.0, 0.0, 0.0, 0.0, 0.0, 1.7103952500501077E9, 0.0, 2024-03-13 22:47:30.050
56.0, -8.88600229471922, -8.953320493921638, -17.64484799094498, -14.88480182364583, 0.6720000319182873, 0.7200000341981649, 0.35200001671910286, 0.0, 0.0, 0.0, 0.0, 0.0, 1.7103952500636396E9, 0.0, 2024-03-13 22:47:30.063
56.0, 30.831735234707594, 11.877922259271145, 11.821823759935796, 6.013759128749371, 0.6720000319182873, 0.7200000341981649, 0.35200001671910286, 0.0, 0.0, 0.0, 0.0, 0.0, 1.7103952500636396E9, 0.0, 2024-03-13 22:47:30.063
57.0, 18.340469382703304, 6.43636782374233, 7.289065013639629, -8.47835319954902, 0.6720000319182873, 0.7200000341981649, 0.35200001671910286, 0.0, 0.0, 0.0, 0.0, 0.0, 1.710395250079581E9, 0.0, 2024-03-13 22:47:30.079
57.0, -4.656175444833934, -6.686941120773554, -13.358922641724348, -11.735806060954928, 0.6720000319182873, 0.7200000341981649, 0.35200001671910286, 0.0, 0.0, 0.0, 0.0, 0.0, 1.710395250079581E9, 0.0, 2024-03-13 22:47:30.079
58.0, 7.367602912709117, 1.368803383782506, -0.5722046932205558, -6.2568526258692145, 0.6720000319182873, 0.7200000341981649, 0.35200001671910286, 0.0, 0.0, 0.0, 0.0, 0.0, 1.7103952500800433E9, 0.0, 2024-03-13 22:47:30.080
58.0, -1.7988918786868453, 0.4637475945055485, 3.5641246577724814, -4.876829542219639, 0.6720000319182873, 0.7200000341981649, 0.35200001671910286, 0.0, 0.0, 0.0, 0.0, 0.0, 1.7103952500800433E9, 0.0, 2024-03-13 22:47:30.080
59.0, 11.429134264588356, 7.300284713506699, 0.684401691891253, 2.1055636750534177, 0.6720000319182873, 0.7200000341981649, 0.35200001671910286, 0.0, 0.0, 0.0, 0.0, 0.0, 1.7103952500938413E9, 0.0, 2024-03-13 22:47:30.093
59.0, 23.69600611925125, 20.98831855133176, 9.390888788737357, 12.50622545182705, 0.6720000319182873, 0.7200000341981649, 0.35200001671910286, 0.0, 0.0, 0.0, 0.0, 0.0, 1.7103952500938413E9, 0.0, 2024-03-13 22:47:30.093
60.0, 46.853466644883156, 35.45051167998463, 20.449772957712412, 16.12270870897919, 0.6720000319182873, 0.7200000341981649, 0.35200001671910286, 0.0, 0.0, 0.0, 0.0, 0.0, 1.710395250109589E9, 0.0, 2024-03-13 22:47:30.109
60.0, 6.731819920241833, -1.5370988817885518, -9.884555582888424, -19.507318168878555, 0.6720000319182873, 0.7200000341981649, 0.35200001671910286, 0.0, 0.0, 0.0, 0.0, 0.0, 1.710395250109589E9, 0.0, 2024-03-13 22:47:30.109
61.0, -31.695652124471962, -29.627487448975444, -51.719076487235725, -47.04420154262334, 0.6720000319182873, 0.7200000341981649, 0.35200001671910286, 0.0, 0.0, 0.0, 0.0, 0.0, 1.710395250110194E9, 0.0, 2024-03-13 22:47:30.110
61.0, -19.67187376692891, -22.779730630107224, -27.862254669889808, -27.7911965707317, 0.6720000319182873, 0.7200000341981649, 0.35200001671910286, 0.0, 0.0, 0.0, 0.0, 0.0, 1.710395250110194E9, 0.0, 2024-03-13 22:47:30.110
62.0, -2.580530969426036, -5.998799528926611, -0.8265178902074695, -7.2254867143929005, 0.6720000319182873, 0.7200000341981649, 0.35200001671910286, 0.0, 0.0, 0.0, 0.0, 0.0, 1.7103952501236546E9, 0.0, 2024-03-13 22:47:30.123
62.0, -3.175175062380731, -7.9098884062841535, -23.209819125011563, -19.903747564181685, 0.6720000319182873, 0.7200000341981649, 0.35200001671910286, 0.0, 0.0, 0.0, 0.0, 0.0, 1.7103952501236546E9, 0.0, 2024-03-13 22:47:30.123
63.0, -17.128741797059774, -24.09243551455438, -21.912073840387166, -28.456898762844503, 0.6720000319182873, 0.7200000341981649, 0.35200001671910286, 0.0, 0.0, 0.0, 0.0, 0.0, 1.7103952501393797E9, 0.0, 2024-03-13 22:47:30.139
63.0, -9.218853390775621, -26.732804883271456, -16.47425930481404, -27.207772177644074, 0.6720000319182873, 0.7200000341981649, 0.35200001671910286, 0.0, 0.0, 0.0, 0.0, 0.0, 1.7103952501393797E9, 0.0, 2024-03-13 22:47:30.139
64.0, -10.09025008045137, -15.374728717841208, -12.412727952934802, -20.689126554876566, 0.6720000319182873, 0.7200000341981649, 0.35200001671910286, 0.0, 0.0, 0.0, 0.0, 0.0, 1.7103952501400275E9, 0.0, 2024-03-13 22:47:30.140
64.0, -2.9133820654824376, -15.943193511106074, -6.967433617450297, -19.238045372068882, 0.6720000319182873, 0.7200000341981649, 0.35200001671910286, 0.0, 0.0, 0.0, 0.0, 0.0, 1.7103952501400275E9, 0.0, 2024-03-13 22:47:30.140
65.0, -24.89277410507202, -28.872027657926083, -29.601308149285614, -41.95419770292938, 0.6720000319182873, 0.7200000341981649, 0.35200001671910286, 0.0, 0.0, 0.0, 0.0, 0.0, 1.7103952501536624E9, 0.0, 2024-03-13 22:47:30.153
65.0, -31.73305112402886, -33.69649860076606, -27.32370907627046, -34.859607486985624, 0.6720000319182873, 0.7200000341981649, 0.35200001671910286, 0.0, 0.0, 0.0, 0.0, 0.0, 1.7103952501536624E9, 0.0, 2024-03-13 22:47:30.153
66.0, -18.14225468505174, -29.608787949196994, -33.199091906659305, -35.648726377636194, 0.6720000319182873, 0.7200000341981649, 0.35200001671910286, 0.0, 0.0, 0.0, 0.0, 0.0, 1.710395250169669E9, 0.0, 2024-03-13 22:47:30.169
66.0, -20.771404353901744, -34.50057709123939, -26.332635588012636, -36.16109267156571, 0.6720000319182873, 0.7200000341981649, 0.35200001671910286, 0.0, 0.0, 0.0, 0.0, 0.0, 1.710395250169669E9, 0.0, 2024-03-13 22:47:30.169
67.0, -28.95430545695126, -39.3886263333261, -35.30839548166841, -45.249049563892186, 0.6720000319182873, 0.7200000341981649, 0.35200001671910286, 0.0, 0.0, 0.0, 0.0, 0.0, 1.7103952501700473E9, 0.0, 2024-03-13 22:47:30.170
67.0, -9.27121199015528, -18.8603154765442, -38.51348974369466, -27.162893378175795, 0.6720000319182873, 0.7200000341981649, 0.35200001671910286, 0.0, 0.0, 0.0, 0.0, 0.0, 1.7103952501700473E9, 0.0, 2024-03-13 22:47:30.170
68.0, -15.225132719613612, -28.023070367984474, -36.10499417223036, -35.989057273603976, 0.6720000319182873, 0.7200000341981649, 0.35200001671910286, 0.0, 0.0, 0.0, 0.0, 0.0, 1.710395250183607E9, 0.0, 2024-03-13 22:47:30.183
68.0, -5.804324731230736, -22.783470530062914, -18.45640628132969, -29.986517844721675, 0.6720000319182873, 0.7200000341981649, 0.35200001671910286, 0.0, 0.0, 0.0, 0.0, 0.0, 1.710395250183607E9, 0.0, 2024-03-13 22:47:30.183
69.0, 5.0526048401370645, -14.406094629317522, -12.958753346465528, -15.6739207142964, 0.6720000319182873, 0.7200000341981649, 0.35200001671910286, 0.0, 0.0, 0.0, 0.0, 0.0, 1.7103952501994383E9, 0.0, 2024-03-13 22:47:30.199
69.0, 13.69925353769213, -0.06357829924672842, -6.668241620995104, -6.634582521393895, 0.6720000319182873, 0.7200000341981649, 0.35200001671910286, 0.0, 0.0, 0.0, 0.0, 0.0, 1.7103952501994383E9, 0.0, 2024-03-13 22:47:30.199
70.0, 2.696467868052423, -12.255652154795825, -8.979499793611467, -17.551350492052734, 0.6720000319182873, 0.7200000341981649, 0.35200001671910286, 0.0, 0.0, 0.0, 0.0, 0.0, 1.7103952502000036E9, 0.0, 2024-03-13 22:47:30.200
70.0, 1.5146594820544124, -18.254451683722436, -26.441092686727643, -26.037183491513133, 0.6720000319182873, 0.7200000341981649, 0.35200001671910286, 0.0, 0.0, 0.0, 0.0, 0.0, 1.7103952502000036E9, 0.0, 2024-03-13 22:47:30.200
71.0, 16.702393202111125, -2.647849168628454, -7.442400911822915, -6.810357819311321, 0.6720000319182873, 0.7200000341981649, 0.35200001671910286, 0.0, 0.0, 0.0, 0.0, 0.0, 1.7103952502136288E9, 0.0, 2024-03-13 22:47:30.213
71.0, -0.762939590960741, -17.061423597857356, -18.643401279114187, -22.435659834183753, 0.6720000319182873, 0.7200000341981649, 0.35200001671910286, 0.0, 0.0, 0.0, 0.0, 0.0, 1.7103952502136288E9, 0.0, 2024-03-13 22:47:30.213
72.0, 2.778745667077601, -21.122954949736595, -14.331296630203724, -24.462685610167682, 0.6720000319182873, 0.7200000341981649, 0.35200001671910286, 0.0, 0.0, 0.0, 0.0, 0.0, 1.7103952502293012E9, 0.0, 2024-03-13 22:47:30.229
72.0, 10.194967279210687, 2.8011850668117404, -11.189780667424202, -6.989873017184436, 0.6720000319182873, 0.7200000341981649, 0.35200001671910286, 0.0, 0.0, 0.0, 0.0, 0.0, 1.7103952502293012E9, 0.0, 2024-03-13 22:47:30.229
73.0, 11.919061158783734, -6.612143121659756, -18.284370883367956, -22.701192731037736, 0.6720000319182873, 0.7200000341981649, 0.35200001671910286, 0.0, 0.0, 0.0, 0.0, 0.0, 1.7103952502300172E9, 0.0, 2024-03-13 22:47:30.230
73.0, 15.135375120677054, -7.767772207967937, -19.226825672201812, -20.273997659794986, 0.6720000319182873, 0.7200000341981649, 0.35200001671910286, 0.0, 0.0, 0.0, 0.0, 0.0, 1.7103952502300172E9, 0.0, 2024-03-13 22:47:30.230
74.0, 6.361569824628532, -3.6800615563988686, -26.755244283005595, -15.255051919259131, 0.6720000319182873, 0.7200000341981649, 0.35200001671910286, 0.0, 0.0, 0.0, 0.0, 0.0, 1.710395250244108E9, 0.0, 2024-03-13 22:47:30.244
74.0, 4.061531351879239, -4.4878799468278885, -9.375929188914597, -9.929434382356703, 0.6720000319182873, 0.7200000341981649, 0.35200001671910286, 0.0, 0.0, 0.0, 0.0, 0.0, 1.710395250244108E9, 0.0, 2024-03-13 22:47:30.244
75.0, 13.904948035255075, -3.9642939530313015, -6.372789524495602, -13.145748344250023, 0.6720000319182873, 0.7200000341981649, 0.35200001671910286, 0.0, 0.0, 0.0, 0.0, 0.0, 1.7103952502597454E9, 0.0, 2024-03-13 22:47:30.259
75.0, 8.605509798042476, -5.460253935307264, -17.461592893116176, -12.50996535178274, 0.6720000319182873, 0.7200000341981649, 0.35200001671910286, 0.0, 0.0, 0.0, 0.0, 0.0, 1.7103952502597454E9, 0.0, 2024-03-13 22:47:30.259
76.0, 21.066856450401247, 9.398368588648736, -16.339622906409204, -7.105809915810823, 0.6720000319182873, 0.7200000341981649, 0.35200001671910286, 0.0, 0.0, 0.0, 0.0, 0.0, 1.7103952502601948E9, 0.0, 2024-03-13 22:47:30.260
76.0, 23.482831821776927, 13.568357039242983, 3.22753366176039, 0.7143208915367723, 0.6720000319182873, 0.7200000341981649, 0.35200001671910286, 0.0, 0.0, 0.0, 0.0, 0.0, 1.7103952502601948E9, 0.0, 2024-03-13 22:47:30.260
77.0, 21.968172339722514, 6.750519420020282, 4.682354744523764, 5.276998837478459, 0.6720000319182873, 0.7200000341981649, 0.35200001671910286, 0.0, 0.0, 0.0, 0.0, 0.0, 1.7103952502740445E9, 0.0, 2024-03-13 22:47:30.274
77.0, 36.72581756487489, 26.882400881499052, 16.025471310131252, 19.989765263162553, 0.6720000319182873, 0.7200000341981649, 0.35200001671910286, 0.0, 0.0, 0.0, 0.0, 0.0, 1.7103952502740445E9, 0.0, 2024-03-13 22:47:30.274
78.0, 0.9611542886123061, -3.949334353208542, -3.425748359411955, -4.495359746739268, 0.6720000319182873, 0.7200000341981649, 0.35200001671910286, 0.0, 0.0, 0.0, 0.0, 0.0, 1.7103952502893565E9, 0.0, 2024-03-13 22:47:30.289
78.0, 13.67681413795799, 0.9424547888338566, -8.627949197776616, -8.224040002562106, 0.6720000319182873, 0.7200000341981649, 0.35200001671910286, 0.0, 0.0, 0.0, 0.0, 0.0, 1.7103952502893565E9, 0.0, 2024-03-13 22:47:30.289
79.0, 10.381962276995182, -0.9200153890997171, -14.716506325639784, -9.974313181824982, 0.6720000319182873, 0.7200000341981649, 0.35200001671910286, 0.0, 0.0, 0.0, 0.0, 0.0, 1.710395250290497E9, 0.0, 2024-03-13 22:47:30.290
79.0, 0.34407079592347145, -10.43432087637484, -22.742331630550325, -15.236352419480681, 0.6720000319182873, 0.7200000341981649, 0.35200001671910286, 0.0, 0.0, 0.0, 0.0, 0.0, 1.710395250290497E9, 0.0, 2024-03-13 22:47:30.290
80.0, 9.577883786521852, -1.5894574811682105, 2.1616621743887663, -6.283031925559044, 0.6720000319182873, 0.7200000341981649, 0.35200001671910286, 0.0, 0.0, 0.0, 0.0, 0.0, 1.7103952503036375E9, 0.0, 2024-03-13 22:47:30.303
80.0, 37.70567135326564, 25.29668330028653, 11.623609062284231, 12.263131954707205, 0.6720000319182873, 0.7200000341981649, 0.35200001671910286, 0.0, 0.0, 0.0, 0.0, 0.0, 1.7103952503036375E9, 0.0, 2024-03-13 22:47:30.303
81.0, 14.596829527057707, 1.6717352801933885, -21.35856864694506, -17.072643297724426, 0.6720000319182873, 0.7200000341981649, 0.35200001671910286, 0.0, 0.0, 0.0, 0.0, 0.0, 1.7103952503195417E9, 0.0, 2024-03-13 22:47:30.319
81.0, 3.990473252721131, -10.45302037615329, -29.44423235114664, -28.090388567186892, 0.6720000319182873, 0.7200000341981649, 0.35200001671910286, 0.0, 0.0, 0.0, 0.0, 0.0, 1.7103952503195417E9, 0.0, 2024-03-13 22:47:30.319
82.0, 8.530711798928678, -4.132589451037347, -16.223686007782817, -13.833889936096966, 0.6880000326782465, 0.7200000341981649, 0.35200001671910286, 0.0, 0.0, 0.0, 0.0, 0.0, 1.710395250320392E9, 0.0, 2024-03-13 22:47:30.320
82.0, -17.65232779085636, -22.97046552784741, -39.654159230180085, -24.821716005913913, 0.6880000326782465, 0.7200000341981649, 0.35200001671910286, 0.0, 0.0, 0.0, 0.0, 0.0, 1.710395250320392E9, 0.0, 2024-03-13 22:47:30.320
83.0, 18.220792584121227, -0.35155059583485126, -15.026918021962047, -7.494759511202574, 0.6880000326782465, 0.7200000341981649, 0.35200001671910286, 0.0, 0.0, 0.0, 0.0, 0.0, 1.7103952503338182E9, 0.0, 2024-03-13 22:47:30.333
83.0, 3.4519276591017842, -8.900961894541979, -15.924494011327624, -17.876721788197756, 0.6880000326782465, 0.7200000341981649, 0.35200001671910286, 0.0, 0.0, 0.0, 0.0, 0.0, 1.7103952503338182E9, 0.0, 2024-03-13 22:47:30.333
84.0, 29.620007649064064, 14.49959212820977, -2.5132127702236176, 3.6052635572850704, 0.6880000326782465, 0.7200000341981649, 0.35200001671910286, 0.0, 0.0, 0.0, 0.0, 0.0, 1.7103952503493555E9, 0.0, 2024-03-13 22:47:30.349
84.0, 25.81278949417174, 5.9763601291924715, -8.377375900745392, -6.563524422235787, 0.6880000326782465, 0.7200000341981649, 0.35200001671910286, 0.0, 0.0, 0.0, 0.0, 0.0, 1.7103952503493555E9, 0.0, 2024-03-13 22:47:30.349
85.0, 11.425394364632666, -2.180361674167216, -8.302577901631594, -11.144901867955923, 0.6880000326782465, 0.7200000341981649, 0.35200001671910286, 0.0, 0.0, 0.0, 0.0, 0.0, 1.710395250350075E9, 0.0, 2024-03-13 22:47:30.350
85.0, 0.7517198910936713, -20.8985609523952, -37.83656785171479, -31.108487831428647, 0.6880000326782465, 0.7200000341981649, 0.35200001671910286, 0.0, 0.0, 0.0, 0.0, 0.0, 1.710395250350075E9, 0.0, 2024-03-13 22:47:30.350
86.0, 16.709873002022505, 2.4683339707553387, -17.828103088773787, -11.028964969329536, 0.6880000326782465, 0.7200000341981649, 0.35200001671910286, 0.0, 0.0, 0.0, 0.0, 0.0, 1.710395250363947E9, 0.0, 2024-03-13 22:47:30.363
86.0, 41.239876811392605, 22.678753331303596, 17.73460558988154, 12.46508655231446, 0.6880000326782465, 0.7200000341981649, 0.35200001671910286, 0.0, 0.0, 0.0, 0.0, 0.0, 1.710395250363947E9, 0.0, 2024-03-13 22:47:30.363
87.0, -13.115829144604504, -19.129588273353875, -20.16928046103567, -22.51045783329755, 0.6880000326782465, 0.7200000341981649, 0.35200001671910286, 0.0, 0.0, 0.0, 0.0, 0.0, 1.7103952503793907E9, 0.0, 2024-03-13 22:47:30.379
87.0, 6.197014226578176, -9.390888788737357, -32.89616001024842, -17.110042297281325, 0.6880000326782465, 0.7200000341981649, 0.35200001671910286, 0.0, 0.0, 0.0, 0.0, 0.0, 1.7103952503793907E9, 0.0, 2024-03-13 22:47:30.379
88.0, 15.359769118018448, -2.651589068584144, -29.3843939518556, -17.876721788197756, 0.6880000326782465, 0.7200000341981649, 0.35200001671910286, 0.0, 0.0, 0.0, 0.0, 0.0, 1.710395250380082E9, 0.0, 2024-03-13 22:47:30.380
88.0, 10.707333573140204, -11.578730262815952, -21.7512581422925, -22.90314732864499, 0.6880000326782465, 0.7200000341981649, 0.35200001671910286, 0.0, 0.0, 0.0, 0.0, 0.0, 1.710395250380082E9, 0.0, 2024-03-13 22:47:30.380
89.0, 21.515644445084035, 2.700207768008113, -13.145748344250023, -0.7218006914481521, 0.6880000326782465, 0.7200000341981649, 0.35200001671910286, 0.0, 0.0, 0.0, 0.0, 0.0, 1.7103952503938358E9, 0.0, 2024-03-13 22:47:30.393
89.0, 47.0217621428892, 16.10400920920074, 4.551458246074617, 6.4588072234764695, 0.6880000326782465, 0.7200000341981649, 0.35200001671910286, 0.0, 0.0, 0.0, 0.0, 0.0, 1.7103952503938358E9, 0.0, 2024-03-13 22:47:30.393
90.0, 23.022824127227068, -1.3426240840926766, -0.28423239663243294, -3.2088341619819403, 0.6880000326782465, 0.7200000341981649, 0.35200001671910286, 0.0, 0.0, 0.0, 0.0, 0.0, 1.7103952504097335E9, 0.0, 2024-03-13 22:47:30.409
90.0, 7.801431307569146, -11.821823759935796, -27.207772177644074, -22.630134631879628, 0.6880000326782465, 0.7200000341981649, 0.35200001671910286, 0.0, 0.0, 0.0, 0.0, 0.0, 1.7103952504097335E9, 0.0, 2024-03-13 22:47:30.409
91.0, 5.766925731673837, -9.061777592636645, -25.057329703122377, -20.707826054655015, 0.6880000326782465, 0.7200000341981649, 0.35200001671910286, 0.0, 0.0, 0.0, 0.0, 0.0, 1.7103952504102952E9, 0.0, 2024-03-13 22:47:30.410
91.0, 6.342870324850082, -3.9568141531199217, -16.178807208314538, -11.601169662550092, 0.6880000326782465, 0.7200000341981649, 0.35200001671910286, 0.0, 0.0, 0.0, 0.0, 0.0, 1.7103952504102952E9, 0.0, 2024-03-13 22:47:30.410
92.0, 44.72172367013991, 25.00871100369841, 22.08036933839321, 14.836183124221861, 0.6880000326782465, 0.7200000341981649, 0.35200001671910286, 0.0, 0.0, 0.0, 0.0, 0.0, 1.7103952504240513E9, 0.0, 2024-03-13 22:47:30.424
92.0, 17.233458995819092, 0.6956213917583227, -28.086648667231202, -14.293897630646825, 0.6880000326782465, 0.7200000341981649, 0.35200001671910286, 0.0, 0.0, 0.0, 0.0, 0.0, 1.7103952504240513E9, 0.0, 2024-03-13 22:47:30.424
93.0, 17.035244298167527, 0.564724893309176, -24.230811812914908, -6.42514812387526, 0.6880000326782465, 0.7200000341981649, 0.35200001671910286, 0.0, 0.0, 0.0, 0.0, 0.0, 1.710395250439409E9, 0.0, 2024-03-13 22:47:30.439
93.0, 11.750765660777688, -2.255159673281014, -2.00832627620548, -0.2655328968539834, 0.6880000326782465, 0.7200000341981649, 0.35200001671910286, 0.0, 0.0, 0.0, 0.0, 0.0, 1.710395250439409E9, 0.0, 2024-03-13 22:47:30.439
94.0, 7.66305500920862, -5.0488649401813745, -33.08315500803292, -19.900007664225996, 0.6880000326782465, 0.7200000341981649, 0.35200001671910286, 0.0, 0.0, 0.0, 0.0, 0.0, 1.7103952504400811E9, 0.0, 2024-03-13 22:47:30.440
94.0, 26.92353978101164, 12.180854155682027, -5.321877636946738, 4.5290188463404775, 0.6880000326782465, 0.7200000341981649, 0.35200001671910286, 0.0, 0.0, 0.0, 0.0, 0.0, 1.7103952504400811E9, 0.0, 2024-03-13 22:47:30.440
95.0, 14.50707192812115, -2.217760673724115, -5.018945740535855, -1.5857175812125206, 0.6880000326782465, 0.7200000341981649, 0.35200001671910286, 0.0, 0.0, 0.0, 0.0, 0.0, 1.7103952504536629E9, 0.0, 2024-03-13 22:47:30.453
95.0, 29.997737544588745, 3.751119655556977, -14.544470927678049, -4.345763748511672, 0.6880000326782465, 0.7200000341981649, 0.35200001671910286, 0.0, 0.0, 0.0, 0.0, 0.0, 1.7103952504536629E9, 0.0, 2024-03-13 22:47:30.453
96.0, 33.550642502494156, 18.04127738624811, 11.395475164987147, 12.50248555187136, 0.6880000326782465, 0.7200000341981649, 0.35200001671910286, 0.0, 0.0, 0.0, 0.0, 0.0, 1.7103952504698818E9, 0.0, 2024-03-13 22:47:30.469
96.0, 3.134036162868142, -6.750519420020282, -6.4214082239195704, -8.257699102163315, 0.6880000326782465, 0.7200000341981649, 0.35200001671910286, 0.0, 0.0, 0.0, 0.0, 0.0, 1.7103952504698818E9, 0.0, 2024-03-13 22:47:30.469
97.0, 20.431073457933962, 2.9208618653938174, 2.3972758715972304, -5.953920729458332, 0.6880000326782465, 0.7200000341981649, 0.35200001671910286, 0.0, 0.0, 0.0, 0.0, 0.0, 1.7103952504700089E9, 0.0, 2024-03-13 22:47:30.470
97.0, 21.650280843488872, -1.6679953802376986, -21.571742944419384, -10.44554057624191, 0.6880000326782465, 0.7200000341981649, 0.35200001671910286, 0.0, 0.0, 0.0, 0.0, 0.0, 1.7103952504700089E9, 0.0, 2024-03-13 22:47:30.470
98.0, 26.762724082916975, -0.033659099601209164, -13.156968044117093, -9.570403986610472, 0.6880000326782465, 0.7200000341981649, 0.35200001671910286, 0.0, 0.0, 0.0, 0.0, 0.0, 1.7103952504838617E9, 0.0, 2024-03-13 22:47:30.483
98.0, 31.273043429479003, 10.019191981293261, 3.695021156221628, 7.7864717077463865, 0.6880000326782465, 0.7200000341981649, 0.35200001671910286, 0.0, 0.0, 0.0, 0.0, 0.0, 1.7103952504838617E9, 0.0, 2024-03-13 22:47:30.483
99.0, 16.605155803263187, -2.531912270002067, -15.849696012213826, -2.6403693687170744, 0.6880000326782465, 0.7200000341981649, 0.35200001671910286, 0.0, 0.0, 0.0, 0.0, 0.0, 1.7103952504994009E9, 0.0, 2024-03-13 22:47:30.499
99.0, 20.378714858554304, 8.534451698884368, 2.737606767565012, 9.731219684705138, 0.6880000326782465, 0.7200000341981649, 0.35200001671910286, 0.0, 0.0, 0.0, 0.0, 0.0, 1.7103952504994009E9, 0.0, 2024-03-13 22:47:30.499
100.0, 13.557137339375913, 1.7427933793514967, 13.048510945402086, 5.329357436858118, 0.6880000326782465, 0.7200000341981649, 0.33600001595914364, 0.0, 0.0, 0.0, 0.0, 0.0, 1.7103952505000627E9, 0.0, 2024-03-13 22:47:30.500
100.0, 19.099669073708355, 0.34781069587916136, -1.7091342797502875, 8.657868397422135, 0.6880000326782465, 0.7200000341981649, 0.33600001595914364, 0.0, 0.0, 0.0, 0.0, 0.0, 1.7103952505000627E9, 0.0, 2024-03-13 22:47:30.500
0.0, -824.7489175284281, -446.615112808533, -531.8044239492156, -498.2668710965663, 0.6880000326782465, 0.7200000341981649, 0.33600001595914364, 0.0, 0.0, 0.0, 0.0, 0.0, 1.7103952505143406E9, 0.0, 2024-03-13 22:47:30.514
1.0, -818.2452315054834, -443.1818846492097, -526.3628695136867, -502.1563670504838, 0.6880000326782465, 0.7200000341981649, 0.33600001595914364, 0.0, 0.0, 0.0, 0.0, 0.0, 1.7103952505150497E9, 0.0, 2024-03-13 22:47:30.515
1.0, -852.2671014023945, -474.24923358112574, -563.1784446774982, -532.1391449952498, 0.6880000326782465, 0.7200000341981649, 0.33600001595914364, 0.0, 0.0, 0.0, 0.0, 0.0, 1.7103952505150497E9, 0.0, 2024-03-13 22:47:30.515
2.0, -834.6334731113166, -455.1159054078162, -548.1851857551374, -513.9520115107298, 0.6880000326782465, 0.7200000341981649, 0.33600001595914364, 0.0, 0.0, 0.0, 0.0, 0.0, 1.710395250529006E9, 0.0, 2024-03-13 22:47:30.529
2.0, -827.5912414947525, -441.52510896883905, -525.383015725296, -491.5687102759257, 0.6880000326782465, 0.7200000341981649, 0.33600001595914364, 0.0, 0.0, 0.0, 0.0, 0.0, 1.710395250529006E9, 0.0, 2024-03-13 22:47:30.529
3.0, -830.3288482623175, -453.7620616238564, -521.5084793712012, -503.51395073439926, 0.6880000326782465, 0.7200000341981649, 0.33600001595914364, 0.0, 0.0, 0.0, 0.0, 0.0, 1.7103952505443125E9, 0.0, 2024-03-13 22:47:30.544
3.0, -832.6849852344021, -449.96606316883117, -531.714666350279, -504.18713272642344, 0.6880000326782465, 0.7200000341981649, 0.33600001595914364, 0.0, 0.0, 0.0, 0.0, 0.0, 1.7103952505443125E9, 0.0, 2024-03-13 22:47:30.544
4.0, -844.8060009907931, -464.9181831916794, -550.6460399259813, -515.807001888752, 0.6880000326782465, 0.7200000341981649, 0.33600001595914364, 0.0, 0.0, 0.0, 0.0, 0.0, 1.71039525054503E9, 0.0, 2024-03-13 22:47:30.545
4.0, -841.6046466287225, -470.7524271225557, -557.2806224473752, -524.1058398904279, 0.6880000326782465, 0.7200000341981649, 0.33600001595914364, 0.0, 0.0, 0.0, 0.0, 0.0, 1.71039525054503E9, 0.0, 2024-03-13 22:47:30.545
5.0, -815.6123419366777, -446.8881255052984, -534.2091796207242, -503.47281183488667, 0.6880000326782465, 0.7200000341981649, 0.33600001595914364, 0.0, 0.0, 0.0, 0.0, 0.0, 1.7103952505586317E9, 0.0, 2024-03-13 22:47:30.558
5.0, -838.5641079647467, -458.30604007001966, -550.7283177250065, -515.8294412884861, 0.6880000326782465, 0.7200000341981649, 0.33600001595914364, 0.0, 0.0, 0.0, 0.0, 0.0, 1.7103952505586317E9, 0.0, 2024-03-13 22:47:30.558
6.0, -839.3607066553086, -470.3709573270753, -559.1991911246441, -525.3474866757169, 0.6880000326782465, 0.7200000341981649, 0.33600001595914364, 0.0, 0.0, 0.0, 0.0, 0.0, 1.7103952505747063E9, 0.0, 2024-03-13 22:47:30.574
6.0, -835.0299025066197, -460.53128054365516, -529.4258475773968, -512.9310188228264, 0.6880000326782465, 0.7200000341981649, 0.33600001595914364, 0.0, 0.0, 0.0, 0.0, 0.0, 1.7103952505747063E9, 0.0, 2024-03-13 22:47:30.574
7.0, -839.0615146588534, -472.16236940585077, -556.0314958621748, -521.1438391255215, 0.6880000326782465, 0.7200000341981649, 0.33600001595914364, 0.0, 0.0, 0.0, 0.0, 0.0, 1.710395250575258E9, 0.0, 2024-03-13 22:47:30.575
7.0, -838.7174438629299, -462.9958746144548, -544.7669171956368, -521.4916498214006, 0.6880000326782465, 0.7200000341981649, 0.33600001595914364, 0.0, 0.0, 0.0, 0.0, 0.0, 1.710395250575258E9, 0.0, 2024-03-13 22:47:30.575
8.0, -821.6821995647624, -454.5437007145956, -534.1792604210787, -513.8098953124136, 0.6880000326782465, 0.7200000341981649, 0.33600001595914364, 0.0, 0.0, 0.0, 0.0, 0.0, 1.7103952505886219E9, 0.0, 2024-03-13 22:47:30.588
8.0, -827.8492945916951, -457.83481267560273, -542.5267171221785, -515.492850292474, 0.6880000326782465, 0.7200000341981649, 0.33600001595914364, 0.0, 0.0, 0.0, 0.0, 0.0, 1.7103952505886219E9, 0.0, 2024-03-13 22:47:30.588
9.0, -829.7716031689197, -460.8155129402876, -549.3333350415342, -522.6771981073543, 0.6880000326782465, 0.7200000341981649, 0.33600001595914364, 0.0, 0.0, 0.0, 0.0, 0.0, 1.71039525060433E9, 0.0, 2024-03-13 22:47:30.604
9.0, -848.1569513510913, -480.54722510650754, -540.0135043519549, -521.8170211175457, 0.6880000326782465, 0.7200000341981649, 0.33600001595914364, 0.0, 0.0, 0.0, 0.0, 0.0, 1.71039525060433E9, 0.0, 2024-03-13 22:47:30.604
10.0, -834.1024073176086, -464.94810239132494, -539.3066632603295, -519.075674450025, 0.6880000326782465, 0.7200000341981649, 0.35200001671910286, 0.0, 0.0, 0.0, 0.0, 0.0, 1.710395250605275E9, 0.0, 2024-03-13 22:47:30.605
10.0, -830.3999063614756, -462.2591143231839, -559.8461938169785, -524.068440890871, 0.6880000326782465, 0.7200000341981649, 0.35200001671910286, 0.0, 0.0, 0.0, 0.0, 0.0, 1.710395250605275E9, 0.0, 2024-03-13 22:47:30.605
11.0, -836.30520839151, -462.1768365241587, -549.9130195346661, -525.467163474299, 0.6880000326782465, 0.7200000341981649, 0.35200001671910286, 0.0, 0.0, 0.0, 0.0, 0.0, 1.7103952506188035E9, 0.0, 2024-03-13 22:47:30.618
11.0, -838.9418378602713, -469.2938661398366, -545.223184990231, -521.9441777160391, 0.6880000326782465, 0.7200000341981649, 0.35200001671910286, 0.0, 0.0, 0.0, 0.0, 0.0, 1.7103952506188035E9, 0.0, 2024-03-13 22:47:30.618
12.0, -843.455897106789, -463.12677111290395, -536.116528598126, -510.77683644834906, 0.6880000326782465, 0.7200000341981649, 0.35200001671910286, 0.0, 0.0, 0.0, 0.0, 0.0, 1.7103952506343248E9, 0.0, 2024-03-13 22:47:30.634
12.0, -841.937497724779, -456.57072649057955, -525.1885409276001, -509.3070557657629, 0.6880000326782465, 0.7200000341981649, 0.35200001671910286, 0.0, 0.0, 0.0, 0.0, 0.0, 1.7103952506343248E9, 0.0, 2024-03-13 22:47:30.634
13.0, -852.7682479964569, -476.9943201486021, -551.5772750149481, -525.3661861754954, 0.6880000326782465, 0.7200000341981649, 0.35200001671910286, 0.0, 0.0, 0.0, 0.0, 0.0, 1.710395250635054E9, 0.0, 2024-03-13 22:47:30.635
13.0, -854.6793368738145, -467.5174136608839, -561.5740275965072, -524.8725193813443, 0.6880000326782465, 0.7200000341981649, 0.35200001671910286, 0.0, 0.0, 0.0, 0.0, 0.0, 1.710395250635054E9, 0.0, 2024-03-13 22:47:30.635
14.0, -835.4637309014797, -459.97777535021305, -550.7731965244748, -522.8828926049173, 0.6880000326782465, 0.7200000341981649, 0.35200001671910286, 0.0, 0.0, 0.0, 0.0, 0.0, 1.7103952506486497E9, 0.0, 2024-03-13 22:47:30.648
14.0, -837.4234384782612, -449.7603686712682, -524.2573058386333, -506.4684716993943, 0.6880000326782465, 0.7200000341981649, 0.35200001671910286, 0.0, 0.0, 0.0, 0.0, 0.0, 1.7103952506486497E9, 0.0, 2024-03-13 22:47:30.648
15.0, -845.2921879850328, -469.31256563961506, -543.0577829158865, -522.7183370068669, 0.6880000326782465, 0.7200000341981649, 0.35200001671910286, 0.0, 0.0, 0.0, 0.0, 0.0, 1.7103952506642811E9, 0.0, 2024-03-13 22:47:30.664
15.0, -843.0557278115302, -461.7280485294759, -554.8609071760438, -525.1118729785085, 0.6880000326782465, 0.7200000341981649, 0.35200001671910286, 0.0, 0.0, 0.0, 0.0, 0.0, 1.7103952506642811E9, 0.0, 2024-03-13 22:47:30.664
16.0, -827.4566050963476, -455.5085949031636, -545.5074173868634, -516.6970980782062, 0.6880000326782465, 0.7200000341981649, 0.35200001671910286, 0.0, 0.0, 0.0, 0.0, 0.0, 1.7103952506651895E9, 0.0, 2024-03-13 22:47:30.665
16.0, -833.5975208235905, -461.7018692297861, -539.5983754568733, -518.3501338586211, 0.6880000326782465, 0.7200000341981649, 0.35200001671910286, 0.0, 0.0, 0.0, 0.0, 0.0, 1.7103952506651895E9, 0.0, 2024-03-13 22:47:30.665
17.0, -830.7888559568673, -450.57192696165293, -550.1149741322733, -519.3374674469233, 0.6880000326782465, 0.7200000341981649, 0.35200001671910286, 0.0, 0.0, 0.0, 0.0, 0.0, 1.7103952506786551E9, 0.0, 2024-03-13 22:47:30.678
17.0, -843.6204527048394, -460.87161143962294, -547.8448548591696, -523.1259861020371, 0.6880000326782465, 0.7200000341981649, 0.35200001671910286, 0.0, 0.0, 0.0, 0.0, 0.0, 1.7103952506786551E9, 0.0, 2024-03-13 22:47:30.678
18.0, -835.991056795232, -455.60209240205586, -525.7831850205548, -510.4664247520268, 0.6880000326782465, 0.7200000341981649, 0.35200001671910286, 0.0, 0.0, 0.0, 0.0, 0.0, 1.7103952506943343E9, 0.0, 2024-03-13 22:47:30.694
18.0, -822.1422072593123, -442.2057707607746, -534.8300030133687, -505.14828701503575, 0.6880000326782465, 0.7200000341981649, 0.35200001671910286, 0.0, 0.0, 0.0, 0.0, 0.0, 1.7103952506943343E9, 0.0, 2024-03-13 22:47:30.694
19.0, -820.9865781730041, -440.1637853849679, -547.8411149592139, -512.261576730758, 0.6880000326782465, 0.7200000341981649, 0.35200001671910286, 0.0, 0.0, 0.0, 0.0, 0.0, 1.7103952506950505E9, 0.0, 2024-03-13 22:47:30.695
19.0, -835.8115415973589, -456.35007239319384, -555.1563592725433, -523.5523346969858, 0.6880000326782465, 0.7200000341981649, 0.35200001671910286, 0.0, 0.0, 0.0, 0.0, 0.0, 1.7103952506950505E9, 0.0, 2024-03-13 22:47:30.695
20.0, -826.5104104075581, -439.00815629865974, -532.5449241404422, -505.3913805121556, 0.6880000326782465, 0.7200000341981649, 0.35200001671910286, 0.0, 0.0, 0.0, 0.0, 0.0, 1.710395250709021E9, 0.0, 2024-03-13 22:47:30.709
20.0, -832.7410837337375, -441.29697507154197, -526.3254705141298, -496.55025701690465, 0.6880000326782465, 0.7200000341981649, 0.35200001671910286, 0.0, 0.0, 0.0, 0.0, 0.0, 1.710395250709021E9, 0.0, 2024-03-13 22:47:30.709
21.0, -844.0767204994336, -455.6955899009481, -537.7059860792942, -517.8415074646473, 0.6880000326782465, 0.7200000341981649, 0.35200001671910286, 0.0, 0.0, 0.0, 0.0, 0.0, 1.710395250724848E9, 0.0, 2024-03-13 22:47:30.724
21.0, -845.2809682851657, -458.82962606381625, -542.3359822244383, -522.2545894123614, 0.6880000326782465, 0.7200000341981649, 0.35200001671910286, 0.0, 0.0, 0.0, 0.0, 0.0, 1.710395250724848E9, 0.0, 2024-03-13 22:47:30.724
22.0, -832.7074246341363, -452.6139123374596, -560.4632773096673, -526.757428959012, 0.6880000326782465, 0.7200000341981649, 0.35200001671910286, 0.0, 0.0, 0.0, 0.0, 0.0, 1.710395250725221E9, 0.0, 2024-03-13 22:47:30.725
22.0, -831.1740656523034, -458.7697876645252, -557.2694027475081, -528.6647779364139, 0.6880000326782465, 0.7200000341981649, 0.35200001671910286, 0.0, 0.0, 0.0, 0.0, 0.0, 1.710395250725221E9, 0.0, 2024-03-13 22:47:30.725
23.0, -840.7033307394013, -460.06005314923823, -541.0868556392379, -523.3017613999546, 0.6880000326782465, 0.7200000341981649, 0.35200001671910286, 0.0, 0.0, 0.0, 0.0, 0.0, 1.710395250738924E9, 0.0, 2024-03-13 22:47:30.738
23.0, -833.3693869262934, -445.9868096159771, -534.1381215215661, -506.6218075975776, 0.6880000326782465, 0.7200000341981649, 0.35200001671910286, 0.0, 0.0, 0.0, 0.0, 0.0, 1.710395250738924E9, 0.0, 2024-03-13 22:47:30.738
24.0, -809.5873631080613, -428.2821232257411, -520.7604993800633, -496.1987064210698, 0.6880000326782465, 0.7200000341981649, 0.35200001671910286, 0.0, 0.0, 0.0, 0.0, 0.0, 1.7103952507543528E9, 0.0, 2024-03-13 22:47:30.754
24.0, -845.0902333874255, -460.93892963882536, -552.1868787077256, -529.1808841302991, 0.6880000326782465, 0.7200000341981649, 0.35200001671910286, 0.0, 0.0, 0.0, 0.0, 0.0, 1.7103952507543528E9, 0.0, 2024-03-13 22:47:30.754
25.0, -846.2458624737337, -458.94556296244264, -548.0094104572199, -527.3071942524984, 0.6880000326782465, 0.7200000341981649, 0.35200001671910286, 0.0, 0.0, 0.0, 0.0, 0.0, 1.7103952507550826E9, 0.0, 2024-03-13 22:47:30.755
25.0, -836.0471552945673, -447.845539893955, -538.1398144741543, -511.5435159392655, 0.6880000326782465, 0.7200000341981649, 0.35200001671910286, 0.0, 0.0, 0.0, 0.0, 0.0, 1.7103952507550826E9, 0.0, 2024-03-13 22:47:30.755
26.0, -831.6976516461, -444.71150373108685, -527.215566703584, -506.51709039881825, 0.6880000326782465, 0.7200000341981649, 0.35200001671910286, 0.0, 0.0, 0.0, 0.0, 0.0, 1.7103952507687564E9, 0.0, 2024-03-13 22:47:30.768
26.0, -817.0596832195297, -440.27224248368293, -521.2317267744802, -503.7981831310317, 0.6880000326782465, 0.7200000341981649, 0.35200001671910286, 0.0, 0.0, 0.0, 0.0, 0.0, 1.7103952507687564E9, 0.0, 2024-03-13 22:47:30.768
27.0, -840.2545427447185, -464.8209457928315, -553.0545354974456, -523.6046932963654, 0.6880000326782465, 0.7200000341981649, 0.35200001671910286, 0.0, 0.0, 0.0, 0.0, 0.0, 1.7103952507843845E9, 0.0, 2024-03-13 22:47:30.784
27.0, -851.1675708154216, -474.2529734810814, -565.6093796486966, -543.003554366529, 0.6880000326782465, 0.7200000341981649, 0.35200001671910286, 0.0, 0.0, 0.0, 0.0, 0.0, 1.7103952507843845E9, 0.0, 2024-03-13 22:47:30.784
28.0, -846.5039155706763, -471.4854475138709, -545.077328891959, -536.3689718451351, 0.6880000326782465, 0.7200000341981649, 0.35200001671910286, 0.0, 0.0, 0.0, 0.0, 0.0, 1.710395250785359E9, 0.0, 2024-03-13 22:47:30.785
28.0, -859.7169821141288, -471.53406621329486, -561.6263861958869, -537.4610226321965, 0.6880000326782465, 0.7200000341981649, 0.35200001671910286, 0.0, 0.0, 0.0, 0.0, 0.0, 1.710395250785359E9, 0.0, 2024-03-13 22:47:30.785
29.0, -871.4041694756597, -484.73217315692455, -556.8954127519391, -537.4124039327726, 0.6880000326782465, 0.7200000341981649, 0.35200001671910286, 0.0, 0.0, 0.0, 0.0, 0.0, 1.710395250798836E9, 0.0, 2024-03-13 22:47:30.798
29.0, -874.3960894402117, -486.7778984326869, -563.2382830767892, -544.5256936484948, 0.6880000326782465, 0.7200000341981649, 0.35200001671910286, 0.0, 0.0, 0.0, 0.0, 0.0, 1.710395250798836E9, 0.0, 2024-03-13 22:47:30.798
30.0, -853.2656546905637, -475.0084332721308, -547.3960668644868, -522.778175406158, 0.6880000326782465, 0.7200000341981649, 0.35200001671910286, 0.0, 0.0, 0.0, 0.0, 0.0, 1.7103952508140988E9, 0.0, 2024-03-13 22:47:30.814
30.0, -824.8648544270545, -446.2074637133628, -531.0414843582548, -503.9776983289048, 0.6880000326782465, 0.7200000341981649, 0.35200001671910286, 0.0, 0.0, 0.0, 0.0, 0.0, 1.7103952508140988E9, 0.0, 2024-03-13 22:47:30.814
31.0, -859.170956720598, -479.8628234146163, -551.7418306129985, -525.8261938700452, 0.6880000326782465, 0.7200000341981649, 0.35200001671910286, 0.0, 0.0, 0.0, 0.0, 0.0, 1.710395250829459E9, 0.0, 2024-03-13 22:47:30.829
31.0, -843.8485866021365, -458.6575906658545, -532.9413535357453, -511.9810842340812, 0.6880000326782465, 0.7200000341981649, 0.35200001671910286, 0.0, 0.0, 0.0, 0.0, 0.0, 1.710395250829459E9, 0.0, 2024-03-13 22:47:30.829
32.0, -842.6630383161828, -458.6351512661204, -547.6092411619611, -521.4318114221096, 0.6720000319182873, 0.7200000341981649, 0.35200001671910286, 0.0, 0.0, 0.0, 0.0, 0.0, 1.7103952508303983E9, 0.0, 2024-03-13 22:47:30.830
32.0, -841.6457855282351, -457.4346433803439, -547.8485947591253, -521.3981523225084, 0.6720000319182873, 0.7200000341981649, 0.35200001671910286, 0.0, 0.0, 0.0, 0.0, 0.0, 1.7103952508303983E9, 0.0, 2024-03-13 22:47:30.830
33.0, -843.0071091121063, -464.1103648012504, -537.7508648787625, -522.1573520135134, 0.6720000319182873, 0.7200000341981649, 0.35200001671910286, 0.0, 0.0, 0.0, 0.0, 0.0, 1.71039525084456E9, 0.0, 2024-03-13 22:47:30.844
33.0, -812.2950506759807, -426.8609612425789, -516.1866017342545, -493.47605925332755, 0.6720000319182873, 0.7200000341981649, 0.35200001671910286, 0.0, 0.0, 0.0, 0.0, 0.0, 1.71039525084456E9, 0.0, 2024-03-13 22:47:30.844
34.0, -837.8797062728554, -453.93409702181816, -544.1199145033024, -515.9790372867137, 0.6720000319182873, 0.7200000341981649, 0.35200001671910286, 0.0, 0.0, 0.0, 0.0, 0.0, 1.7103952508450873E9, 0.0, 2024-03-13 22:47:30.845
34.0, -832.830841332674, -446.53283500950783, -533.0572904343717, -509.44543206412345, 0.6720000319182873, 0.7200000341981649, 0.35200001671910286, 0.0, 0.0, 0.0, 0.0, 0.0, 1.7103952508450873E9, 0.0, 2024-03-13 22:47:30.845
35.0, -843.347440008074, -457.0382139850408, -534.2802377198823, -510.77683644834906, 0.6720000319182873, 0.7200000341981649, 0.35200001671910286, 0.0, 0.0, 0.0, 0.0, 0.0, 1.710395250858684E9, 0.0, 2024-03-13 22:47:30.858
35.0, -816.0947890309617, -426.9432390416041, -533.9025078243576, -494.61672873981297, 0.6720000319182873, 0.7200000341981649, 0.35200001671910286, 0.0, 0.0, 0.0, 0.0, 0.0, 1.710395250858684E9, 0.0, 2024-03-13 22:47:30.858
36.0, -821.083815571852, -433.7535968609154, -525.3867556252517, -494.4297337420285, 0.6720000319182873, 0.7200000341981649, 0.35200001671910286, 0.0, 0.0, 0.0, 0.0, 0.0, 1.7103952508742583E9, 0.0, 2024-03-13 22:47:30.874
36.0, -823.5521495426074, -436.6482794266194, -517.2225540219806, -497.1262016100809, 0.6720000319182873, 0.7200000341981649, 0.35200001671910286, 0.0, 0.0, 0.0, 0.0, 0.0, 1.7103952508742583E9, 0.0, 2024-03-13 22:47:30.874
37.0, -819.6215146891773, -427.9492721296847, -530.1177290691994, -491.4826925769448, 0.6720000319182873, 0.7200000341981649, 0.35200001671910286, 0.0, 0.0, 0.0, 0.0, 0.0, 1.7103952508892796E9, 0.0, 2024-03-13 22:47:30.889
37.0, -800.9855932099745, -416.62859496381134, -518.4380215075798, -488.7114267097786, 0.6720000319182873, 0.7200000341981649, 0.35200001671910286, 0.0, 0.0, 0.0, 0.0, 0.0, 1.7103952508892796E9, 0.0, 2024-03-13 22:47:30.889
38.0, -784.2682404080406, -410.3343433383852, -501.60847170697525, -478.3406841326505, 0.6720000319182873, 0.7200000341981649, 0.35200001671910286, 0.0, 0.0, 0.0, 0.0, 0.0, 1.7103952508900108E9, 0.0, 2024-03-13 22:47:30.890
38.0, -809.7668783059344, -417.5785295525566, -505.80089955730364, -476.54179225396365, 0.6720000319182873, 0.7200000341981649, 0.35200001671910286, 0.0, 0.0, 0.0, 0.0, 0.0, 1.7103952508900108E9, 0.0, 2024-03-13 22:47:30.890
39.0, -809.5312646087259, -422.4329196950421, -517.0692181237973, -486.73301963321865, 0.6720000319182873, 0.7200000341981649, 0.35200001671910286, 0.0, 0.0, 0.0, 0.0, 0.0, 1.7103952509207237E9, 0.0, 2024-03-13 22:47:30.920
39.0, -809.7332192063332, -427.84829483088106, -507.98126123147085, -487.43238092493266, 0.6720000319182873, 0.7200000341981649, 0.35200001671910286, 0.0, 0.0, 0.0, 0.0, 0.0, 1.7103952509207237E9, 0.0, 2024-03-13 22:47:30.920
40.0, -820.4143734797835, -436.7642163252458, -523.8085178439505, -496.92050711251795, 0.6720000319182873, 0.7200000341981649, 0.35200001671910286, 0.0, 0.0, 0.0, 0.0, 0.0, 1.7103952509214644E9, 0.0, 2024-03-13 22:47:30.921
40.0, -785.24061439652, -404.4440009081736, -498.1004455485381, -472.8916498972103, 0.6720000319182873, 0.7200000341981649, 0.35200001671910286, 0.0, 0.0, 0.0, 0.0, 0.0, 1.7103952509214644E9, 0.0, 2024-03-13 22:47:30.921
41.0, -795.3720033764839, -415.58890277612954, -501.64587070653215, -485.7494259448722, 0.6720000319182873, 0.7360000349581242, 0.35200001671910286, 0.0, 0.0, 0.0, 0.0, 0.0, 1.7103952509221947E9, 0.0, 2024-03-13 22:47:30.922
41.0, -812.1454546777532, -425.58939525764436, -501.5561131075956, -493.2441854560748, 0.6720000319182873, 0.7360000349581242, 0.35200001671910286, 0.0, 0.0, 0.0, 0.0, 0.0, 1.7103952509221947E9, 0.0, 2024-03-13 22:47:30.922
42.0, -812.6914800712839, -429.48637101147324, -524.4854397359304, -495.3834082307294, 0.6720000319182873, 0.7360000349581242, 0.35200001671910286, 0.0, 0.0, 0.0, 0.0, 0.0, 1.7103952509229424E9, 0.0, 2024-03-13 22:47:30.922
42.0, -840.0451083471999, -456.2490950943902, -544.5275635984726, -521.4579907217994, 0.6720000319182873, 0.7360000349581242, 0.35200001671910286, 0.0, 0.0, 0.0, 0.0, 0.0, 1.7103952509229424E9, 0.0, 2024-03-13 22:47:30.922
43.0, -818.3237694045529, -443.45489734597504, -524.1189295402728, -504.5087641226128, 0.6720000319182873, 0.7360000349581242, 0.35200001671910286, 0.0, 0.0, 0.0, 0.0, 0.0, 1.7103952509336684E9, 0.0, 2024-03-13 22:47:30.933
43.0, -837.3523803791031, -452.3222001409158, -538.1846932736225, -510.9488718463108, 0.6720000319182873, 0.7360000349581242, 0.35200001671910286, 0.0, 0.0, 0.0, 0.0, 0.0, 1.7103952509336684E9, 0.0, 2024-03-13 22:47:30.933
44.0, -823.1258009476587, -437.7253706138581, -521.3214843734168, -499.2803839845583, 0.6720000319182873, 0.7360000349581242, 0.35200001671910286, 0.0, 0.0, 0.0, 0.0, 0.0, 1.710395250948706E9, 0.0, 2024-03-13 22:47:30.948
44.0, -834.9326651077718, -449.7229696717113, -526.7555590090342, -508.7535505723208, 0.6720000319182873, 0.7360000349581242, 0.35200001671910286, 0.0, 0.0, 0.0, 0.0, 0.0, 1.710395250948706E9, 0.0, 2024-03-13 22:47:30.948
45.0, -831.0543888537213, -454.68207701295614, -547.6541199614294, -527.337113452144, 0.6720000319182873, 0.7360000349581242, 0.35200001671910286, 0.0, 0.0, 0.0, 0.0, 0.0, 1.7103952509644377E9, 0.0, 2024-03-13 22:47:30.964
45.0, -828.7618301808834, -449.2816614769399, -550.481484327931, -514.3222616063431, 0.6720000319182873, 0.7360000349581242, 0.35200001671910286, 0.0, 0.0, 0.0, 0.0, 0.0, 1.7103952509644377E9, 0.0, 2024-03-13 22:47:30.964
46.0, -853.9276169827208, -467.94376225583255, -559.4759437213652, -528.8667325340211, 0.6720000319182873, 0.7360000349581242, 0.35200001671910286, 0.0, 0.0, 0.0, 0.0, 0.0, 1.7103952509651108E9, 0.0, 2024-03-13 22:47:30.965
46.0, -828.6870321817696, -449.184424078092, -536.1838467973284, -512.9758976222947, 0.6720000319182873, 0.7360000349581242, 0.35200001671910286, 0.0, 0.0, 0.0, 0.0, 0.0, 1.7103952509651108E9, 0.0, 2024-03-13 22:47:30.965
47.0, -830.8561741560698, -450.5532274618745, -542.4182600234635, -511.1283870441839, 0.6720000319182873, 0.7360000349581242, 0.35200001671910286, 0.0, 0.0, 0.0, 0.0, 0.0, 1.7103952509787138E9, 0.0, 2024-03-13 22:47:30.978
47.0, -826.4094331087545, -440.82574767712504, -507.09490494197235, -495.9331735242158, 0.6720000319182873, 0.7360000349581242, 0.35200001671910286, 0.0, 0.0, 0.0, 0.0, 0.0, 1.7103952509787138E9, 0.0, 2024-03-13 22:47:30.978
48.0, -831.757490045391, -457.56553987879306, -533.0385909345932, -512.9160592230037, 0.6720000319182873, 0.7360000349581242, 0.35200001671910286, 0.0, 0.0, 0.0, 0.0, 0.0, 1.7103952509946787E9, 0.0, 2024-03-13 22:47:30.994
48.0, -854.866331871599, -470.91324282065034, -570.2505954937078, -537.0758129367605, 0.6720000319182873, 0.7360000349581242, 0.35200001671910286, 0.0, 0.0, 0.0, 0.0, 0.0, 1.7103952509946787E9, 0.0, 2024-03-13 22:47:30.994
49.0, -854.9411298707128, -477.031719148159, -573.8408994511701, -544.2900799512863, 0.6720000319182873, 0.7360000349581242, 0.35200001671910286, 0.0, 0.0, 0.0, 0.0, 0.0, 1.7103952509951477E9, 0.0, 2024-03-13 22:47:30.995
49.0, -846.8779055662453, -463.53442020807415, -536.5316574932076, -520.4482177337632, 0.6720000319182873, 0.7360000349581242, 0.35200001671910286, 0.0, 0.0, 0.0, 0.0, 0.0, 1.7103952509951477E9, 0.0, 2024-03-13 22:47:30.995
50.0, -845.1388520868495, -459.3719115573913, -550.4627848281525, -522.5687410086393, 0.6720000319182873, 0.7360000349581242, 0.35200001671910286, 0.0, 0.0, 0.0, 0.0, 0.0, 1.7103952510089421E9, 0.0, 2024-03-13 22:47:31.008
50.0, -831.7724496452138, -445.89331211708486, -536.4381599943154, -508.58899497427046, 0.6720000319182873, 0.7360000349581242, 0.35200001671910286, 0.0, 0.0, 0.0, 0.0, 0.0, 1.7103952510089421E9, 0.0, 2024-03-13 22:47:31.008
51.0, -844.4955892944708, -450.74396235961467, -531.1910803564824, -510.08121505659074, 0.6720000319182873, 0.7200000341981649, 0.35200001671910286, 0.0, 0.0, 0.0, 0.0, 0.0, 1.7103952510244632E9, 0.0, 2024-03-13 22:47:31.024
51.0, -843.2315031094477, -454.45394311565906, -540.8624616418965, -521.2859553238377, 0.6720000319182873, 0.7200000341981649, 0.35200001671910286, 0.0, 0.0, 0.0, 0.0, 0.0, 1.7103952510244632E9, 0.0, 2024-03-13 22:47:31.024
52.0, -844.5741271935403, -460.20216934755445, -559.345047222916, -524.236736388877, 0.6720000319182873, 0.7200000341981649, 0.35200001671910286, 0.0, 0.0, 0.0, 0.0, 0.0, 1.7103952510254228E9, 0.0, 2024-03-13 22:47:31.025
52.0, -824.7937963278964, -442.4264248581603, -540.9185601412319, -512.2466171309352, 0.6720000319182873, 0.7200000341981649, 0.35200001671910286, 0.0, 0.0, 0.0, 0.0, 0.0, 1.7103952510254228E9, 0.0, 2024-03-13 22:47:31.025
53.0, -853.2918339902535, -460.76315434090793, -552.5122500038706, -523.8103877939284, 0.6720000319182873, 0.7200000341981649, 0.35200001671910286, 0.0, 0.0, 0.0, 0.0, 0.0, 1.7103952510387144E9, 0.0, 2024-03-13 22:47:31.038
53.0, -847.1696177627891, -458.3583986693993, -558.1557590370066, -521.1550588253886, 0.6720000319182873, 0.7200000341981649, 0.35200001671910286, 0.0, 0.0, 0.0, 0.0, 0.0, 1.7103952510387144E9, 0.0, 2024-03-13 22:47:31.038
54.0, -855.9883018583059, -454.68581691291183, -545.1708263908513, -513.7949357125908, 0.6720000319182873, 0.7200000341981649, 0.35200001671910286, 0.0, 0.0, 0.0, 0.0, 0.0, 1.7103952510545757E9, 0.0, 2024-03-13 22:47:31.054
54.0, -854.1632306799293, -457.64033787790686, -545.223184990231, -514.8308880003169, 0.6720000319182873, 0.7200000341981649, 0.35200001671910286, 0.0, 0.0, 0.0, 0.0, 0.0, 1.7103952510545757E9, 0.0, 2024-03-13 22:47:31.054
55.0, -854.3053468782455, -462.0758592253551, -563.1896643773653, -534.6560976654291, 0.6720000319182873, 0.7200000341981649, 0.35200001671910286, 0.0, 0.0, 0.0, 0.0, 0.0, 1.7103952510550296E9, 0.0, 2024-03-13 22:47:31.055
55.0, -851.5191214112565, -456.48844869155437, -559.7265170183964, -527.6550049483776, 0.6720000319182873, 0.7200000341981649, 0.35200001671910286, 0.0, 0.0, 0.0, 0.0, 0.0, 1.7103952510550296E9, 0.0, 2024-03-13 22:47:31.055
56.0, -855.4160971650854, -468.227994652465, -555.5303492681123, -530.9610765092075, 0.6720000319182873, 0.7200000341981649, 0.35200001671910286, 0.0, 0.0, 0.0, 0.0, 0.0, 1.710395251068723E9, 0.0, 2024-03-13 22:47:31.068
56.0, -875.5479786265641, -474.8214382743463, -549.2697567422874, -532.1690641948953, 0.6720000319182873, 0.7200000341981649, 0.35200001671910286, 0.0, 0.0, 0.0, 0.0, 0.0, 1.710395251068723E9, 0.0, 2024-03-13 22:47:31.068
57.0, -863.935589264147, -474.4474482787773, -563.0774673786946, -533.8520191749558, 0.6720000319182873, 0.7200000341981649, 0.35200001671910286, 0.0, 0.0, 0.0, 0.0, 0.0, 1.7103952510845811E9, 0.0, 2024-03-13 22:47:31.084
57.0, -883.3755892338231, -495.9107341244817, -585.4383292137645, -553.8791834376752, 0.6720000319182873, 0.7200000341981649, 0.35200001671910286, 0.0, 0.0, 0.0, 0.0, 0.0, 1.7103952510845811E9, 0.0, 2024-03-13 22:47:31.084
58.0, -875.3385442290455, -494.0071250470355, -567.7411226234399, -548.0972981061786, 0.6720000319182873, 0.7200000341981649, 0.35200001671910286, 0.0, 0.0, 0.0, 0.0, 0.0, 1.7103952510853007E9, 0.0, 2024-03-13 22:47:31.085
58.0, -868.1354969143867, -478.6660554287955, -575.4153973325156, -545.7972596334293, 0.6720000319182873, 0.7200000341981649, 0.35200001671910286, 0.0, 0.0, 0.0, 0.0, 0.0, 1.7103952510853007E9, 0.0, 2024-03-13 22:47:31.085
59.0, -876.4792137155309, -484.2759053623304, -569.4315574034117, -539.2823539106175, 0.6720000319182873, 0.7200000341981649, 0.35200001671910286, 0.0, 0.0, 0.0, 0.0, 0.0, 1.710395251098747E9, 0.0, 2024-03-13 22:47:31.098
59.0, -871.7295407718047, -478.51271953061223, -549.2697567422874, -528.3094874406233, 0.6720000319182873, 0.7200000341981649, 0.35200001671910286, 0.0, 0.0, 0.0, 0.0, 0.0, 1.710395251098747E9, 0.0, 2024-03-13 22:47:31.098
60.0, -867.6231306204572, -489.76981839723885, -574.9628694378771, -545.9094566321, 0.6720000319182873, 0.7200000341981649, 0.35200001671910286, 0.0, 0.0, 0.0, 0.0, 0.0, 1.7103952511143632E9, 0.0, 2024-03-13 22:47:31.114
60.0, -873.9847004450858, -482.0469249887392, -578.3624384975992, -535.6509110536426, 0.6720000319182873, 0.7200000341981649, 0.35200001671910286, 0.0, 0.0, 0.0, 0.0, 0.0, 1.7103952511143632E9, 0.0, 2024-03-13 22:47:31.114
61.0, -850.0343811288476, -466.7694336697459, -539.7666709548794, -516.7494566775858, 0.6720000319182873, 0.7200000341981649, 0.35200001671910286, 0.0, 0.0, 0.0, 0.0, 0.0, 1.710395251115044E9, 0.0, 2024-03-13 22:47:31.115
61.0, -846.8704257663339, -465.41932978574187, -559.2627694238909, -534.3344662692398, 0.6720000319182873, 0.7200000341981649, 0.35200001671910286, 0.0, 0.0, 0.0, 0.0, 0.0, 1.710395251115044E9, 0.0, 2024-03-13 22:47:31.115
62.0, -863.3521648710594, -470.47193462587893, -553.2228309954517, -528.3730657398701, 0.6720000319182873, 0.7200000341981649, 0.35200001671910286, 0.0, 0.0, 0.0, 0.0, 0.0, 1.71039525112868E9, 0.0, 2024-03-13 22:47:31.128
62.0, -861.7477477900684, -468.3701108507812, -548.7723500481807, -518.9036390520632, 0.6720000319182873, 0.7200000341981649, 0.35200001671910286, 0.0, 0.0, 0.0, 0.0, 0.0, 1.71039525112868E9, 0.0, 2024-03-13 22:47:31.128
63.0, -849.0096485409886, -461.67568993009627, -543.0802223156206, -518.3463939586654, 0.6720000319182873, 0.7200000341981649, 0.35200001671910286, 0.0, 0.0, 0.0, 0.0, 0.0, 1.7103952511447973E9, 0.0, 2024-03-13 22:47:31.144
63.0, -866.733034431003, -480.53974530659616, -570.5834465897642, -536.5821461426094, 0.6720000319182873, 0.7200000341981649, 0.35200001671910286, 0.0, 0.0, 0.0, 0.0, 0.0, 1.7103952511447973E9, 0.0, 2024-03-13 22:47:31.144
64.0, -861.5944118918851, -465.20615548826754, -550.3094489299692, -522.7519961064681, 0.6720000319182873, 0.7200000341981649, 0.35200001671910286, 0.0, 0.0, 0.0, 0.0, 0.0, 1.7103952511452804E9, 0.0, 2024-03-13 22:47:31.145
64.0, -855.8761048596352, -471.31715201586485, -555.4518113690428, -532.2588217938319, 0.6720000319182873, 0.7200000341981649, 0.35200001671910286, 0.0, 0.0, 0.0, 0.0, 0.0, 1.7103952511452804E9, 0.0, 2024-03-13 22:47:31.145
65.0, -847.3977516600862, -460.83047254011035, -548.3011226537637, -521.3981523225084, 0.6720000319182873, 0.7200000341981649, 0.35200001671910286, 0.0, 0.0, 0.0, 0.0, 0.0, 1.7103952511587107E9, 0.0, 2024-03-13 22:47:31.158
65.0, -852.1324650039896, -449.4686564747244, -536.8719883891754, -504.1235544271767, 0.6720000319182873, 0.7200000341981649, 0.35200001671910286, 0.0, 0.0, 0.0, 0.0, 0.0, 1.7103952511587107E9, 0.0, 2024-03-13 22:47:31.158
66.0, -858.8979440238327, -467.8240854572505, -546.3040160774253, -516.446524781175, 0.6720000319182873, 0.7200000341981649, 0.35200001671910286, 0.0, 0.0, 0.0, 0.0, 0.0, 1.710395251174312E9, 0.0, 2024-03-13 22:47:31.174
66.0, -869.3472245000303, -473.4750742902979, -542.7772904192097, -524.7752819824964, 0.6720000319182873, 0.7200000341981649, 0.35200001671910286, 0.0, 0.0, 0.0, 0.0, 0.0, 1.710395251174312E9, 0.0, 2024-03-13 22:47:31.174
67.0, -836.4510644897819, -447.52016859780997, -531.5800299518742, -505.81772910710424, 0.6720000319182873, 0.7200000341981649, 0.35200001671910286, 0.0, 0.0, 0.0, 0.0, 0.0, 1.7103952511750357E9, 0.0, 2024-03-13 22:47:31.175
67.0, -836.0247158948332, -452.0940662436187, -524.4517806363292, -504.84535511862487, 0.6720000319182873, 0.7200000341981649, 0.35200001671910286, 0.0, 0.0, 0.0, 0.0, 0.0, 1.7103952511750357E9, 0.0, 2024-03-13 22:47:31.175
68.0, -855.1356046684086, -469.61923743598163, -537.2123192851432, -518.2341969599947, 0.6720000319182873, 0.7200000341981649, 0.35200001671910286, 0.0, 0.0, 0.0, 0.0, 0.0, 1.7103952511886485E9, 0.0, 2024-03-13 22:47:31.188
68.0, -869.3434846000746, -474.90745597332716, -560.1266863136552, -528.892911833711, 0.6720000319182873, 0.7200000341981649, 0.35200001671910286, 0.0, 0.0, 0.0, 0.0, 0.0, 1.7103952511886485E9, 0.0, 2024-03-13 22:47:31.188
69.0, -852.3942580008879, -458.2948203701526, -550.926532422658, -519.5843008439988, 0.6720000319182873, 0.7200000341981649, 0.35200001671910286, 0.0, 0.0, 0.0, 0.0, 0.0, 1.710395251204332E9, 0.0, 2024-03-13 22:47:31.204
69.0, -864.5227535571903, -467.1471635652706, -537.455412782263, -513.7874559126794, 0.6720000319182873, 0.7200000341981649, 0.35200001671910286, 0.0, 0.0, 0.0, 0.0, 0.0, 1.710395251204332E9, 0.0, 2024-03-13 22:47:31.204
70.0, -859.8665781123564, -464.4020769977942, -535.7500184024684, -513.4246856169775, 0.6720000319182873, 0.7200000341981649, 0.35200001671910286, 0.0, 0.0, 0.0, 0.0, 0.0, 1.7103952512050734E9, 0.0, 2024-03-13 22:47:31.205
70.0, -871.2732729772106, -472.90286959707737, -552.4000530051999, -524.3377136876807, 0.6720000319182873, 0.7200000341981649, 0.35200001671910286, 0.0, 0.0, 0.0, 0.0, 0.0, 1.7103952512050734E9, 0.0, 2024-03-13 22:47:31.205
71.0, -843.4633769067004, -461.60089193098247, -550.5375828272663, -519.1467325491831, 0.6720000319182873, 0.7200000341981649, 0.35200001671910286, 0.0, 0.0, 0.0, 0.0, 0.0, 1.7103952512187107E9, 0.0, 2024-03-13 22:47:31.218
71.0, -851.9379902062938, -458.3658784693107, -547.0108571690507, -520.631472831592, 0.6720000319182873, 0.7200000341981649, 0.35200001671910286, 0.0, 0.0, 0.0, 0.0, 0.0, 1.7103952512187107E9, 0.0, 2024-03-13 22:47:31.218
72.0, -860.9436692995951, -460.86413163971156, -545.1596066909842, -514.2175444075838, 0.6720000319182873, 0.7200000341981649, 0.35200001671910286, 0.0, 0.0, 0.0, 0.0, 0.0, 1.7103952512345104E9, 0.0, 2024-03-13 22:47:31.234
72.0, -847.1770975627005, -450.15305816661566, -540.0883023510687, -508.59647477418184, 0.6720000319182873, 0.7200000341981649, 0.35200001671910286, 0.0, 0.0, 0.0, 0.0, 0.0, 1.7103952512345104E9, 0.0, 2024-03-13 22:47:31.234
73.0, -839.7085173511878, -446.3645395115018, -530.4543200652115, -509.7334043607116, 0.6720000319182873, 0.7200000341981649, 0.35200001671910286, 0.0, 0.0, 0.0, 0.0, 0.0, 1.7103952512350776E9, 0.0, 2024-03-13 22:47:31.235
73.0, -858.0602064337581, -463.07815241348, -574.08399294829, -534.1811303710565, 0.6720000319182873, 0.7200000341981649, 0.35200001671910286, 0.0, 0.0, 0.0, 0.0, 0.0, 1.7103952512350776E9, 0.0, 2024-03-13 22:47:31.235
74.0, -847.9175977539271, -456.86617858707905, -555.8407609644346, -526.0356282675639, 0.6720000319182873, 0.7200000341981649, 0.35200001671910286, 0.0, 0.0, 0.0, 0.0, 0.0, 1.7103952512486713E9, 0.0, 2024-03-13 22:47:31.248
74.0, -859.810479613021, -464.28240019921213, -554.8571672760881, -525.6952973715961, 0.6720000319182873, 0.7200000341981649, 0.35200001671910286, 0.0, 0.0, 0.0, 0.0, 0.0, 1.7103952512486713E9, 0.0, 2024-03-13 22:47:31.248
75.0, -853.8565588835627, -459.4766287561506, -553.3051087944768, -521.5589680206031, 0.6720000319182873, 0.7200000341981649, 0.35200001671910286, 0.0, 0.0, 0.0, 0.0, 0.0, 1.7103952512643285E9, 0.0, 2024-03-13 22:47:31.264
75.0, -842.9285712130368, -457.4795221798122, -552.6768056019209, -523.2344432007521, 0.6720000319182873, 0.7200000341981649, 0.35200001671910286, 0.0, 0.0, 0.0, 0.0, 0.0, 1.7103952512643285E9, 0.0, 2024-03-13 22:47:31.264
76.0, -846.930264165625, -457.60667877830565, -536.1838467973284, -513.3199684182182, 0.6720000319182873, 0.7200000341981649, 0.35200001671910286, 0.0, 0.0, 0.0, 0.0, 0.0, 1.7103952512650516E9, 0.0, 2024-03-13 22:47:31.265
76.0, -846.9601833652705, -461.05486653745174, -555.4181522694416, -529.8428464224562, 0.6720000319182873, 0.7200000341981649, 0.35200001671910286, 0.0, 0.0, 0.0, 0.0, 0.0, 1.7103952512650516E9, 0.0, 2024-03-13 22:47:31.265
77.0, -833.844354220666, -444.29637483600527, -548.177705955226, -515.4180522933602, 0.6720000319182873, 0.7200000341981649, 0.35200001671910286, 0.0, 0.0, 0.0, 0.0, 0.0, 1.7103952512786222E9, 0.0, 2024-03-13 22:47:31.278
77.0, -849.5519340345636, -453.743362124078, -546.5396297746338, -521.3944124225527, 0.6720000319182873, 0.7200000341981649, 0.35200001671910286, 0.0, 0.0, 0.0, 0.0, 0.0, 1.7103952512786222E9, 0.0, 2024-03-13 22:47:31.278
78.0, -852.9028843948618, -460.6733967419714, -541.6141815329902, -520.257482836023, 0.6720000319182873, 0.7200000341981649, 0.35200001671910286, 0.0, 0.0, 0.0, 0.0, 0.0, 1.7103952512946208E9, 0.0, 2024-03-13 22:47:31.294
78.0, -872.5037000626326, -479.13728282321244, -569.0351280081086, -533.1900568827987, 0.6720000319182873, 0.7200000341981649, 0.35200001671910286, 0.0, 0.0, 0.0, 0.0, 0.0, 1.7103952512946208E9, 0.0, 2024-03-13 22:47:31.294
79.0, -850.7524419203401, -458.94182306248695, -550.335628229659, -522.0825540143996, 0.6720000319182873, 0.7200000341981649, 0.35200001671910286, 0.0, 0.0, 0.0, 0.0, 0.0, 1.7103952512952597E9, 0.0, 2024-03-13 22:47:31.295
79.0, -857.4356431411579, -467.4762747613713, -549.034143045079, -526.974343156442, 0.6720000319182873, 0.7200000341981649, 0.35200001671910286, 0.0, 0.0, 0.0, 0.0, 0.0, 1.7103952512952597E9, 0.0, 2024-03-13 22:47:31.295
80.0, -846.1785442745313, -458.4331966685131, -549.782123036217, -523.1222462020814, 0.6720000319182873, 0.7200000341981649, 0.35200001671910286, 0.0, 0.0, 0.0, 0.0, 0.0, 1.7103952513089256E9, 0.0, 2024-03-13 22:47:31.308
80.0, -850.9955354174599, -461.5447934316471, -557.8715266403742, -522.0825540143996, 0.6720000319182873, 0.7200000341981649, 0.35200001671910286, 0.0, 0.0, 0.0, 0.0, 0.0, 1.7103952513089256E9, 0.0, 2024-03-13 22:47:31.308
81.0, -849.5220148349181, -459.45418935641646, -539.0523500633426, -518.858760252595, 0.6720000319182873, 0.7200000341981649, 0.35200001671910286, 0.0, 0.0, 0.0, 0.0, 0.0, 1.710395251324582E9, 0.0, 2024-03-13 22:47:31.324
81.0, -856.807339948602, -465.53526668436825, -554.509356580209, -527.1426386544481, 0.6720000319182873, 0.7200000341981649, 0.35200001671910286, 0.0, 0.0, 0.0, 0.0, 0.0, 1.710395251324582E9, 0.0, 2024-03-13 22:47:31.324
82.0, -856.1603372562677, -464.76110739354044, -560.3211611113511, -531.3612458044663, 0.6720000319182873, 0.7200000341981649, 0.35200001671910286, 0.0, 0.0, 0.0, 0.0, 0.0, 1.7103952513252044E9, 0.0, 2024-03-13 22:47:31.325
82.0, -832.3745735380799, -448.23074958939105, -549.3108956418, -516.7419768776745, 0.6720000319182873, 0.7200000341981649, 0.35200001671910286, 0.0, 0.0, 0.0, 0.0, 0.0, 1.7103952513252044E9, 0.0, 2024-03-13 22:47:31.325
83.0, -828.3654007855803, -449.86508587002754, -534.9496798119508, -510.2869095541537, 0.6720000319182873, 0.7200000341981649, 0.35200001671910286, 0.0, 0.0, 0.0, 0.0, 0.0, 1.7103952513387628E9, 0.0, 2024-03-13 22:47:31.338
83.0, -871.8566973702982, -476.1453628586605, -559.1954512246884, -526.4395374627784, 0.6720000319182873, 0.7200000341981649, 0.35200001671910286, 0.0, 0.0, 0.0, 0.0, 0.0, 1.7103952513387628E9, 0.0, 2024-03-13 22:47:31.338
84.0, -856.6278247507289, -465.09021858964115, -558.0173827386461, -527.5502877496183, 0.6720000319182873, 0.7200000341981649, 0.35200001671910286, 0.0, 0.0, 0.0, 0.0, 0.0, 1.7103952513543792E9, 0.0, 2024-03-13 22:47:31.354
84.0, -855.6629305621609, -467.9175829561427, -546.2441776781343, -528.6236390369013, 0.6720000319182873, 0.7200000341981649, 0.35200001671910286, 0.0, 0.0, 0.0, 0.0, 0.0, 1.7103952513543792E9, 0.0, 2024-03-13 22:47:31.354
85.0, -862.9632152756676, -474.57086497731507, -559.6891180188395, -531.6641777008772, 0.6720000319182873, 0.7200000341981649, 0.35200001671910286, 0.0, 0.0, 0.0, 0.0, 0.0, 1.7103952513550613E9, 0.0, 2024-03-13 22:47:31.355
85.0, -848.5571206463501, -461.57471263129264, -554.8683869759552, -529.3529195282608, 0.6720000319182873, 0.7200000341981649, 0.35200001671910286, 0.0, 0.0, 0.0, 0.0, 0.0, 1.7103952513550613E9, 0.0, 2024-03-13 22:47:31.355
86.0, -847.786701255478, -463.56807930767536, -544.0937352036126, -526.2525424649939, 0.6720000319182873, 0.7200000341981649, 0.35200001671910286, 0.0, 0.0, 0.0, 0.0, 0.0, 1.7103952513688452E9, 0.0, 2024-03-13 22:47:31.368
86.0, -843.1716647101566, -468.3738507507369, -554.1129271849059, -530.1308187190443, 0.6720000319182873, 0.7200000341981649, 0.35200001671910286, 0.0, 0.0, 0.0, 0.0, 0.0, 1.7103952513688452E9, 0.0, 2024-03-13 22:47:31.368
87.0, -858.3182595307007, -468.4037699503824, -548.4469787520356, -525.7588756708428, 0.6720000319182873, 0.7200000341981649, 0.35200001671910286, 0.0, 0.0, 0.0, 0.0, 0.0, 1.7103952513844035E9, 0.0, 2024-03-13 22:47:31.384
87.0, -848.3252468490973, -459.6898030536249, -537.4666324821301, -517.0262092743069, 0.6720000319182873, 0.7200000341981649, 0.35200001671910286, 0.0, 0.0, 0.0, 0.0, 0.0, 1.7103952513844035E9, 0.0, 2024-03-13 22:47:31.384
88.0, -857.4618224408478, -472.42416240274906, -550.5824616267346, -534.644877965562, 0.6720000319182873, 0.7200000341981649, 0.35200001671910286, 0.0, 0.0, 0.0, 0.0, 0.0, 1.710395251385056E9, 0.0, 2024-03-13 22:47:31.385
88.0, -866.5535192331299, -484.02907196525484, -569.8766054981388, -544.0208071544766, 0.6720000319182873, 0.7200000341981649, 0.35200001671910286, 0.0, 0.0, 0.0, 0.0, 0.0, 1.710395251385056E9, 0.0, 2024-03-13 22:47:31.385
89.0, -842.2179902214557, -460.1161516485736, -542.702492420096, -520.8558668289334, 0.6720000319182873, 0.7200000341981649, 0.35200001671910286, 0.0, 0.0, 0.0, 0.0, 0.0, 1.7103952513986952E9, 0.0, 2024-03-13 22:47:31.398
89.0, -827.0152969015762, -445.0181755274534, -542.5416767220013, -519.0831542499363, 0.6720000319182873, 0.7200000341981649, 0.35200001671910286, 0.0, 0.0, 0.0, 0.0, 0.0, 1.7103952513986952E9, 0.0, 2024-03-13 22:47:31.398
90.0, -831.1030075531453, -439.22881039604545, -526.8340969081037, -503.33817543648183, 0.6720000319182873, 0.7200000341981649, 0.35200001671910286, 0.0, 0.0, 0.0, 0.0, 0.0, 1.7103952514307108E9, 0.0, 2024-03-13 22:47:31.430
90.0, -831.7836693450809, -440.6873713787645, -533.2480253321119, -498.1658937977627, 0.6720000319182873, 0.7200000341981649, 0.35200001671910286, 0.0, 0.0, 0.0, 0.0, 0.0, 1.7103952514307108E9, 0.0, 2024-03-13 22:47:31.430
91.0, -850.524308023043, -456.34259259328246, -536.9954050877132, -504.7892566192895, 0.6720000319182873, 0.7200000341981649, 0.35200001671910286, 0.0, 0.0, 0.0, 0.0, 0.0, 1.7103952514314418E9, 0.0, 2024-03-13 22:47:31.431
91.0, -856.8933576475829, -461.8065864285454, -546.7715035718866, -517.2019845722243, 0.6720000319182873, 0.7200000341981649, 0.35200001671910286, 0.0, 0.0, 0.0, 0.0, 0.0, 1.7103952514314418E9, 0.0, 2024-03-13 22:47:31.431
92.0, -832.3670937381685, -436.7268173256889, -539.8302492541261, -503.25589763745666, 0.6720000319182873, 0.7200000341981649, 0.35200001671910286, 0.0, 0.0, 0.0, 0.0, 0.0, 1.710395251432145E9, 0.0, 2024-03-13 22:47:31.432
92.0, -841.249356132932, -452.1052859434858, -545.7991295834072, -512.8375213239342, 0.6720000319182873, 0.7200000341981649, 0.35200001671910286, 0.0, 0.0, 0.0, 0.0, 0.0, 1.710395251432145E9, 0.0, 2024-03-13 22:47:31.432
93.0, -851.3545658132061, -459.7309419531375, -547.2539506661706, -525.3886255752295, 0.6720000319182873, 0.7200000341981649, 0.35200001671910286, 0.0, 0.0, 0.0, 0.0, 0.0, 1.7103952514330063E9, 0.0, 2024-03-13 22:47:31.433
93.0, -846.9340040655807, -460.0637930491939, -559.2889487235807, -529.3940584277734, 0.6720000319182873, 0.7200000341981649, 0.35200001671910286, 0.0, 0.0, 0.0, 0.0, 0.0, 1.7103952514330063E9, 0.0, 2024-03-13 22:47:31.433
94.0, -846.2383826738223, -458.6912497654557, -554.7674096771516, -520.799768329598, 0.6720000319182873, 0.7200000341981649, 0.35200001671910286, 0.0, 0.0, 0.0, 0.0, 0.0, 1.7103952514441335E9, 0.0, 2024-03-13 22:47:31.444
94.0, -862.6827227789909, -472.5887180007994, -551.9213458108716, -532.7898875875399, 0.6720000319182873, 0.7200000341981649, 0.35200001671910286, 0.0, 0.0, 0.0, 0.0, 0.0, 1.7103952514441335E9, 0.0, 2024-03-13 22:47:31.444
95.0, -844.6676246924326, -453.23099583014846, -541.9694720287807, -524.0834004906937, 0.6720000319182873, 0.7200000341981649, 0.35200001671910286, 0.0, 0.0, 0.0, 0.0, 0.0, 1.7103952514592526E9, 0.0, 2024-03-13 22:47:31.459
95.0, -863.4419224699959, -477.42814854346216, -556.5251626563258, -533.186316982843, 0.6720000319182873, 0.7200000341981649, 0.35200001671910286, 0.0, 0.0, 0.0, 0.0, 0.0, 1.7103952514592526E9, 0.0, 2024-03-13 22:47:31.459
96.0, -858.0489867338911, -466.3730042744428, -543.1811996144243, -523.7580291945487, 0.6720000319182873, 0.7200000341981649, 0.35200001671910286, 0.0, 0.0, 0.0, 0.0, 0.0, 1.710395251474764E9, 0.0, 2024-03-13 22:47:31.474
96.0, -857.4880017405376, -470.4420154262334, -550.0214766333811, -533.6949433768168, 0.6720000319182873, 0.7200000341981649, 0.35200001671910286, 0.0, 0.0, 0.0, 0.0, 0.0, 1.710395251474764E9, 0.0, 2024-03-13 22:47:31.474
97.0, -841.2643157327548, -452.1052859434858, -553.6454396904446, -521.5926271202043, 0.6720000319182873, 0.7200000341981649, 0.35200001671910286, 0.0, 0.0, 0.0, 0.0, 0.0, 1.7103952514754136E9, 0.0, 2024-03-13 22:47:31.475
97.0, -825.6390137178823, -444.9845164278522, -536.1352280979045, -510.41032625269145, 0.6720000319182873, 0.7200000341981649, 0.35200001671910286, 0.0, 0.0, 0.0, 0.0, 0.0, 1.7103952514754136E9, 0.0, 2024-03-13 22:47:31.475
98.0, -830.8561741560698, -447.45285039860755, -522.8810226549394, -506.5395297985524, 0.6720000319182873, 0.7200000341981649, 0.35200001671910286, 0.0, 0.0, 0.0, 0.0, 0.0, 1.710395251488672E9, 0.0, 2024-03-13 22:47:31.488
98.0, -863.9094099644572, -465.8830773802474, -543.4766517109238, -511.7978291362524, 0.6720000319182873, 0.7200000341981649, 0.35200001671910286, 0.0, 0.0, 0.0, 0.0, 0.0, 1.710395251488672E9, 0.0, 2024-03-13 22:47:31.488
99.0, -854.5185211757198, -457.5954590784386, -541.1317344387062, -515.0253627980128, 0.6720000319182873, 0.7200000341981649, 0.35200001671910286, 0.0, 0.0, 0.0, 0.0, 0.0, 1.710395251504402E9, 0.0, 2024-03-13 22:47:31.504
99.0, -822.0823688600212, -432.85602087154984, -526.0561977173202, -496.7073328150436, 0.6720000319182873, 0.7200000341981649, 0.35200001671910286, 0.0, 0.0, 0.0, 0.0, 0.0, 1.710395251504402E9, 0.0, 2024-03-13 22:47:31.504
100.0, -830.3699871618301, -436.07233483344316, -521.5346586708911, -491.5387910762802, 0.6720000319182873, 0.7200000341981649, 0.35200001671910286, 0.0, 0.0, 0.0, 0.0, 0.0, 1.710395251505104E9, 0.0, 2024-03-13 22:47:31.505
100.0, -806.1765743484721, -420.07304282300174, -514.0062400600873, -480.349010408856, 0.6720000319182873, 0.7200000341981649, 0.35200001671910286, 0.0, 0.0, 0.0, 0.0, 0.0, 1.710395251505104E9, 0.0, 2024-03-13 22:47:31.505
0.0, -839.5290021533147, -445.7998146181926, -538.6690103178844, -511.5902646887116, 0.6720000319182873, 0.7200000341981649, 0.35200001671910286, 0.0, 0.0, 0.0, 0.0, 0.0, 1.7103952515193655E9, 0.0, 2024-03-13 22:47:31.519
1.0, -858.7184288259596, -468.23921435233206, -557.3161514969543, -525.4578137244098, 0.6720000319182873, 0.7200000341981649, 0.35200001671910286, 0.0, 0.0, 0.0, 0.0, 0.0, 1.7103952515200949E9, 0.0, 2024-03-13 22:47:31.520
1.0, -840.4265781426802, -452.7410689359531, -540.6810764940456, -511.76603998662904, 0.6720000319182873, 0.7200000341981649, 0.35200001671910286, 0.0, 0.0, 0.0, 0.0, 0.0, 1.7103952515200949E9, 0.0, 2024-03-13 22:47:31.520
2.0, -851.9192907065153, -458.953042762354, -541.8067863807082, -518.4941200069152, 0.6720000319182873, 0.7200000341981649, 0.35200001671910286, 0.0, 0.0, 0.0, 0.0, 0.0, 1.7103952515337453E9, 0.0, 2024-03-13 22:47:31.533
2.0, -855.7040694616735, -467.1434236653149, -552.9741276483983, -525.5812304229476, 0.6720000319182873, 0.7200000341981649, 0.35200001671910286, 0.0, 0.0, 0.0, 0.0, 0.0, 1.7103952515337453E9, 0.0, 2024-03-13 22:47:31.533
3.0, -835.1458394052461, -450.5083486624062, -539.5441469075158, -508.79655942181125, 0.6720000319182873, 0.7200000341981649, 0.35200001671910286, 0.0, 0.0, 0.0, 0.0, 0.0, 1.7103952515494092E9, 0.0, 2024-03-13 22:47:31.549
3.0, -850.475689323619, -459.34199235774577, -542.2181753758341, -515.2291873455979, 0.6720000319182873, 0.7200000341981649, 0.35200001671910286, 0.0, 0.0, 0.0, 0.0, 0.0, 1.7103952515494092E9, 0.0, 2024-03-13 22:47:31.549
4.0, -852.031487705186, -461.522354031913, -549.009833695367, -519.5712111941539, 0.6720000319182873, 0.7200000341981649, 0.35200001671910286, 0.0, 0.0, 0.0, 0.0, 0.0, 1.7103952515500863E9, 0.0, 2024-03-13 22:47:31.550
4.0, -842.7901949146762, -452.04918744415045, -557.7163207922131, -521.6393758696504, 0.6720000319182873, 0.7200000341981649, 0.35200001671910286, 0.0, 0.0, 0.0, 0.0, 0.0, 1.7103952515500863E9, 0.0, 2024-03-13 22:47:31.550
5.0, -849.5407143346965, -455.79282729979604, -542.3602915741503, -509.42112271441147, 0.6720000319182873, 0.7200000341981649, 0.35200001671910286, 0.0, 0.0, 0.0, 0.0, 0.0, 1.7103952515636876E9, 0.0, 2024-03-13 22:47:31.563
5.0, -837.5318955769762, -447.56878729723394, -535.2058629589155, -503.3325655865483, 0.6720000319182873, 0.7200000341981649, 0.35200001671910286, 0.0, 0.0, 0.0, 0.0, 0.0, 1.7103952515636876E9, 0.0, 2024-03-13 22:47:31.563
6.0, -837.4346581781283, -453.35067262873054, -525.0894335787743, -500.7782139168121, 0.6720000319182873, 0.7200000341981649, 0.35200001671910286, 0.0, 0.0, 0.0, 0.0, 0.0, 1.7103952515794072E9, 0.0, 2024-03-13 22:47:31.579
6.0, -842.0048159239814, -437.2840624190867, -524.9435774805024, -492.9244240098633, 0.6720000319182873, 0.7200000341981649, 0.35200001671910286, 0.0, 0.0, 0.0, 0.0, 0.0, 1.7103952515794072E9, 0.0, 2024-03-13 22:47:31.579
7.0, -844.2487558973953, -450.8524194583297, -544.993181142956, -506.7470942460932, 0.6720000319182873, 0.7200000341981649, 0.35200001671910286, 0.0, 0.0, 0.0, 0.0, 0.0, 1.7103952515801158E9, 0.0, 2024-03-13 22:47:31.580
7.0, -838.3845927668735, -448.0287949917838, -534.319506669417, -506.0065940548666, 0.6720000319182873, 0.7200000341981649, 0.35200001671910286, 0.0, 0.0, 0.0, 0.0, 0.0, 1.7103952515801158E9, 0.0, 2024-03-13 22:47:31.580
8.0, -842.3638463197276, -449.67809087224305, -550.4646547781304, -510.1130042062141, 0.6720000319182873, 0.7200000341981649, 0.35200001671910286, 0.0, 0.0, 0.0, 0.0, 0.0, 1.7103952515940552E9, 0.0, 2024-03-13 22:47:31.594
8.0, -828.3953199852258, -430.683138997294, -520.5641546323895, -489.551034249831, 0.6720000319182873, 0.7200000341981649, 0.35200001671910286, 0.0, 0.0, 0.0, 0.0, 0.0, 1.7103952515940552E9, 0.0, 2024-03-13 22:47:31.594
9.0, -847.0574207641184, -451.0244548562914, -524.8463400816545, -500.19478952372447, 0.6720000319182873, 0.7200000341981649, 0.35200001671910286, 0.0, 0.0, 0.0, 0.0, 0.0, 1.7103952516093748E9, 0.0, 2024-03-13 22:47:31.609
9.0, -858.9690021229908, -462.76026091724634, -551.1527963699773, -521.5421384708025, 0.6720000319182873, 0.7200000341981649, 0.35200001671910286, 0.0, 0.0, 0.0, 0.0, 0.0, 1.7103952516093748E9, 0.0, 2024-03-13 22:47:31.609
10.0, -852.4316570004448, -459.0428003612906, -547.4951742133126, -513.4228156669997, 0.6720000319182873, 0.7200000341981649, 0.35200001671910286, 0.0, 0.0, 0.0, 0.0, 0.0, 1.7103952516100757E9, 0.0, 2024-03-13 22:47:31.610
10.0, -840.0750275468454, -441.2520962720737, -513.4396452168003, -494.5400607907213, 0.6720000319182873, 0.7200000341981649, 0.35200001671910286, 0.0, 0.0, 0.0, 0.0, 0.0, 1.7103952516100757E9, 0.0, 2024-03-13 22:47:31.610
11.0, -838.5080094654113, -456.1331581957638, -538.2725809225813, -515.9771673367359, 0.6720000319182873, 0.7200000341981649, 0.35200001671910286, 0.0, 0.0, 0.0, 0.0, 0.0, 1.7103952516236827E9, 0.0, 2024-03-13 22:47:31.623
11.0, -822.1272476594895, -434.7334506493062, -538.9644624143839, -501.0026079141535, 0.6720000319182873, 0.7200000341981649, 0.35200001671910286, 0.0, 0.0, 0.0, 0.0, 0.0, 1.7103952516236827E9, 0.0, 2024-03-13 22:47:31.623
12.0, -840.864146437496, -445.33606702368706, -542.0648394776508, -511.4032696909271, 0.6720000319182873, 0.7200000341981649, 0.35200001671910286, 0.0, 0.0, 0.0, 0.0, 0.0, 1.710395251639464E9, 0.0, 2024-03-13 22:47:31.639
12.0, -836.7614761861041, -449.8501262702048, -533.0591603843495, -506.2945663514547, 0.6720000319182873, 0.7200000341981649, 0.35200001671910286, 0.0, 0.0, 0.0, 0.0, 0.0, 1.710395251639464E9, 0.0, 2024-03-13 22:47:31.639
13.0, -841.5934269288555, -450.04834096785635, -555.3115651207045, -515.7191142397933, 0.6720000319182873, 0.7200000341981649, 0.35200001671910286, 0.0, 0.0, 0.0, 0.0, 0.0, 1.7103952516401117E9, 0.0, 2024-03-13 22:47:31.640
13.0, -832.879460032098, -440.52655568066984, -535.1909033590928, -496.5783062665723, 0.6720000319182873, 0.7200000341981649, 0.35200001671910286, 0.0, 0.0, 0.0, 0.0, 0.0, 1.7103952516401117E9, 0.0, 2024-03-13 22:47:31.640
14.0, -841.0735808350146, -444.56190773285925, -529.2145432299003, -502.7341815936379, 0.6720000319182873, 0.7200000341981649, 0.35200001671910286, 0.0, 0.0, 0.0, 0.0, 0.0, 1.7103952516536937E9, 0.0, 2024-03-13 22:47:31.653
14.0, -830.1007143650204, -440.874366376549, -530.5534274140373, -501.9712420026772, 0.6720000319182873, 0.7200000341981649, 0.35200001671910286, 0.0, 0.0, 0.0, 0.0, 0.0, 1.7103952516536937E9, 0.0, 2024-03-13 22:47:31.653
15.0, -841.0511414352804, -454.31182691734284, -557.174035298638, -521.149448975455, 0.6720000319182873, 0.7200000341981649, 0.35200001671910286, 0.0, 0.0, 0.0, 0.0, 0.0, 1.710395251669368E9, 0.0, 2024-03-13 22:47:31.669
15.0, -849.9221841301769, -463.0444933138788, -561.1084100520238, -525.8318037199788, 0.6720000319182873, 0.7200000341981649, 0.35200001671910286, 0.0, 0.0, 0.0, 0.0, 0.0, 1.710395251669368E9, 0.0, 2024-03-13 22:47:31.669
16.0, -857.8993907356635, -462.53586691990495, -550.842384673655, -524.4405609364621, 0.6720000319182873, 0.7200000341981649, 0.35200001671910286, 0.0, 0.0, 0.0, 0.0, 0.0, 1.7103952516701293E9, 0.0, 2024-03-13 22:47:31.670
16.0, -832.3147351387888, -434.15376615617424, -540.6548971943557, -500.97642861446366, 0.6720000319182873, 0.7200000341981649, 0.35200001671910286, 0.0, 0.0, 0.0, 0.0, 0.0, 1.7103952516701293E9, 0.0, 2024-03-13 22:47:31.670
17.0, -825.7063319170848, -426.51315054669976, -528.15615154244, -496.42871026834473, 0.6720000319182873, 0.7200000341981649, 0.35200001671910286, 0.0, 0.0, 0.0, 0.0, 0.0, 1.7103952516836607E9, 0.0, 2024-03-13 22:47:31.683
17.0, -833.2833692273125, -440.2535429839045, -539.4319499088451, -508.43004922615364, 0.6720000319182873, 0.7200000341981649, 0.35200001671910286, 0.0, 0.0, 0.0, 0.0, 0.0, 1.7103952516836607E9, 0.0, 2024-03-13 22:47:31.683
18.0, -843.7550891032442, -442.2917884597555, -542.62956437096, -510.69268869934604, 0.6720000319182873, 0.7200000341981649, 0.35200001671910286, 0.0, 0.0, 0.0, 0.0, 0.0, 1.7103952516993833E9, 0.0, 2024-03-13 22:47:31.699
18.0, -824.0607759365812, -433.03927596937865, -532.0381676964462, -499.5627464312129, 0.6720000319182873, 0.7200000341981649, 0.35200001671910286, 0.0, 0.0, 0.0, 0.0, 0.0, 1.7103952516993833E9, 0.0, 2024-03-13 22:47:31.699
19.0, -834.8728267084807, -435.22711744345725, -526.7275097593665, -502.8912573917769, 0.6720000319182873, 0.7200000341981649, 0.35200001671910286, 0.0, 0.0, 0.0, 0.0, 0.0, 1.710395251700075E9, 0.0, 2024-03-13 22:47:31.700
19.0, -835.1495793052018, -442.89765225257725, -545.8907571323216, -511.5528656891547, 0.6720000319182873, 0.7200000341981649, 0.35200001671910286, 0.0, 0.0, 0.0, 0.0, 0.0, 1.710395251700075E9, 0.0, 2024-03-13 22:47:31.700
20.0, -831.1104873530567, -437.4037392176688, -542.2443546755239, -501.57107270741835, 0.6720000319182873, 0.7200000341981649, 0.35200001671910286, 0.0, 0.0, 0.0, 0.0, 0.0, 1.7103952517136753E9, 0.0, 2024-03-13 22:47:31.713
20.0, -833.9004527200013, -441.0277022747323, -534.2334889704362, -505.3708110623993, 0.6720000319182873, 0.7200000341981649, 0.35200001671910286, 0.0, 0.0, 0.0, 0.0, 0.0, 1.7103952517136753E9, 0.0, 2024-03-13 22:47:31.713
21.0, -840.8192676380277, -443.33522054739296, -548.6246239999309, -514.1520961583592, 0.6720000319182873, 0.7200000341981649, 0.35200001671910286, 0.0, 0.0, 0.0, 0.0, 0.0, 1.710395251729761E9, 0.0, 2024-03-13 22:47:31.729
21.0, -821.9664319613948, -429.22457801457494, -535.8117267517373, -500.5089411200024, 0.6720000319182873, 0.7200000341981649, 0.35200001671910286, 0.0, 0.0, 0.0, 0.0, 0.0, 1.710395251729761E9, 0.0, 2024-03-13 22:47:31.729
22.0, -836.8400140851736, -445.30240792408586, -530.9535967092961, -506.0813920539804, 0.6720000319182873, 0.7200000341981649, 0.35200001671910286, 0.0, 0.0, 0.0, 0.0, 0.0, 1.7103952517301285E9, 0.0, 2024-03-13 22:47:31.730
22.0, -823.1519802473485, -438.9557976992801, -518.1332196611911, -498.34353904565796, 0.6720000319182873, 0.7200000341981649, 0.35200001671910286, 0.0, 0.0, 0.0, 0.0, 0.0, 1.7103952517301285E9, 0.0, 2024-03-13 22:47:31.730
23.0, -824.3300487333909, -433.6937584616244, -532.2999606933445, -500.8866710155271, 0.6720000319182873, 0.7200000341981649, 0.35200001671910286, 0.0, 0.0, 0.0, 0.0, 0.0, 1.7103952517438834E9, 0.0, 2024-03-13 22:47:31.743
23.0, -822.3441618569195, -432.0519423810765, -534.8356128633022, -498.4744355441071, 0.6720000319182873, 0.7200000341981649, 0.35200001671910286, 0.0, 0.0, 0.0, 0.0, 0.0, 1.7103952517438834E9, 0.0, 2024-03-13 22:47:31.743
24.0, -806.6440618429333, -426.55054954625666, -508.52167677506804, -481.67854484310374, 0.6720000319182873, 0.7200000341981649, 0.35200001671910286, 0.0, 0.0, 0.0, 0.0, 0.0, 1.7103952517593884E9, 0.0, 2024-03-13 22:47:31.759
24.0, -829.6743657700717, -435.8404610361904, -524.3302338877693, -495.34413928119466, 0.6720000319182873, 0.7200000341981649, 0.35200001671910286, 0.0, 0.0, 0.0, 0.0, 0.0, 1.7103952517593884E9, 0.0, 2024-03-13 22:47:31.759
25.0, -824.1729729352519, -425.04336986411363, -523.5336351972073, -488.45898346276954, 0.6720000319182873, 0.7200000341981649, 0.35200001671910286, 0.0, 0.0, 0.0, 0.0, 0.0, 1.7103952517601144E9, 0.0, 2024-03-13 22:47:31.760
25.0, -825.2725035222247, -438.74636330176145, -532.5168748907745, -502.3040930987336, 0.6720000319182873, 0.7200000341981649, 0.35200001671910286, 0.0, 0.0, 0.0, 0.0, 0.0, 1.7103952517601144E9, 0.0, 2024-03-13 22:47:31.760
26.0, -841.0025227358565, -446.5029158098623, -530.0896798195317, -500.7744740168564, 0.6720000319182873, 0.7200000341981649, 0.35200001671910286, 0.0, 0.0, 0.0, 0.0, 0.0, 1.7103952517737017E9, 0.0, 2024-03-13 22:47:31.773
26.0, -828.4327189847827, -433.6451397622004, -538.5381138194352, -501.3242393103428, 0.6720000319182873, 0.7200000341981649, 0.35200001671910286, 0.0, 0.0, 0.0, 0.0, 0.0, 1.7103952517737017E9, 0.0, 2024-03-13 22:47:31.773
27.0, -828.4140194850042, -440.63875267934054, -535.3517190571874, -503.5980984834023, 0.6720000319182873, 0.7200000341981649, 0.35200001671910286, 0.0, 0.0, 0.0, 0.0, 0.0, 1.710395251790229E9, 0.0, 2024-03-13 22:47:31.790
27.0, -832.2361972397193, -444.07946063857526, -524.22551668901, -502.50230779638514, 0.6720000319182873, 0.7200000341981649, 0.35200001671910286, 0.0, 0.0, 0.0, 0.0, 0.0, 1.710395251790229E9, 0.0, 2024-03-13 22:47:31.790
28.0, -821.5961818657815, -427.33592853695154, -525.0034158797935, -488.5786602613516, 0.6720000319182873, 0.7200000341981649, 0.35200001671910286, 0.0, 0.0, 0.0, 0.0, 0.0, 1.7103952517902887E9, 0.0, 2024-03-13 22:47:31.790
28.0, -816.4239002270624, -425.8287488548085, -532.7113496884704, -496.00984147330746, 0.6720000319182873, 0.7200000341981649, 0.35200001671910286, 0.0, 0.0, 0.0, 0.0, 0.0, 1.7103952517902887E9, 0.0, 2024-03-13 22:47:31.790
29.0, -831.4582980489358, -440.40687888208777, -531.8212534990162, -502.12457790086046, 0.6720000319182873, 0.7200000341981649, 0.35200001671910286, 0.0, 0.0, 0.0, 0.0, 0.0, 1.7103952518036776E9, 0.0, 2024-03-13 22:47:31.803
29.0, -831.3461010502651, -441.5475483685732, -529.7979676229879, -502.68930279416963, 0.6720000319182873, 0.7200000341981649, 0.35200001671910286, 0.0, 0.0, 0.0, 0.0, 0.0, 1.7103952518036776E9, 0.0, 2024-03-13 22:47:31.803
30.0, -840.9202449368313, -445.2126503251493, -537.539560531266, -508.49362752540037, 0.6720000319182873, 0.7200000341981649, 0.35200001671910286, 0.0, 0.0, 0.0, 0.0, 0.0, 1.7103952518193605E9, 0.0, 2024-03-13 22:47:31.819
30.0, -827.9091329909861, -438.11432020924985, -524.3152742879465, -499.86567832762375, 0.6720000319182873, 0.7200000341981649, 0.35200001671910286, 0.0, 0.0, 0.0, 0.0, 0.0, 1.7103952518193605E9, 0.0, 2024-03-13 22:47:31.819
31.0, -851.126431915909, -457.9208303745836, -546.3058860274032, -522.6678483574651, 0.6720000319182873, 0.7200000341981649, 0.35200001671910286, 0.0, 0.0, 0.0, 0.0, 0.0, 1.7103952518201914E9, 0.0, 2024-03-13 22:47:31.820
31.0, -833.6947582224384, -445.6165595203638, -546.3545047268271, -513.7594066630118, 0.6720000319182873, 0.7200000341981649, 0.35200001671910286, 0.0, 0.0, 0.0, 0.0, 0.0, 1.7103952518201914E9, 0.0, 2024-03-13 22:47:31.820
32.0, -831.9781441427767, -447.31073420029134, -539.4207302089781, -504.90706346789375, 0.6880000326782465, 0.7200000341981649, 0.35200001671910286, 0.0, 0.0, 0.0, 0.0, 0.0, 1.7103952518347127E9, 0.0, 2024-03-13 22:47:31.834
32.0, -813.9144273567945, -430.8252551956102, -516.891572875902, -502.09839860117063, 0.6880000326782465, 0.7200000341981649, 0.35200001671910286, 0.0, 0.0, 0.0, 0.0, 0.0, 1.7103952518347127E9, 0.0, 2024-03-13 22:47:31.834
33.0, -845.0939732873812, -454.9663094095886, -547.1623231172562, -517.4095490197651, 0.6880000326782465, 0.7200000341981649, 0.35200001671910286, 0.0, 0.0, 0.0, 0.0, 0.0, 1.7103952518494885E9, 0.0, 2024-03-13 22:47:31.849
33.0, -839.7197370510548, -449.666871172376, -542.906316967681, -509.234127716627, 0.6880000326782465, 0.7200000341981649, 0.35200001671910286, 0.0, 0.0, 0.0, 0.0, 0.0, 1.7103952518494885E9, 0.0, 2024-03-13 22:47:31.849
34.0, -834.4165589138865, -449.6967903720215, -535.6471711536869, -510.61041090032086, 0.6880000326782465, 0.7200000341981649, 0.35200001671910286, 0.0, 0.0, 0.0, 0.0, 0.0, 1.7103952518503597E9, 0.0, 2024-03-13 22:47:31.850
34.0, -833.3095485270023, -447.4304109988734, -545.9057167321444, -516.6092104292475, 0.6880000326782465, 0.7200000341981649, 0.35200001671910286, 0.0, 0.0, 0.0, 0.0, 0.0, 1.7103952518503597E9, 0.0, 2024-03-13 22:47:31.850
35.0, -827.9764511901885, -430.37272730097175, -527.2174366535619, -496.12577837193385, 0.6880000326782465, 0.7200000341981649, 0.35200001671910286, 0.0, 0.0, 0.0, 0.0, 0.0, 1.7103952518638706E9, 0.0, 2024-03-13 22:47:31.863
35.0, -818.0096178082749, -432.7288642730564, -514.8121885005385, -490.1830773423426, 0.6880000326782465, 0.7200000341981649, 0.35200001671910286, 0.0, 0.0, 0.0, 0.0, 0.0, 1.7103952518638706E9, 0.0, 2024-03-13 22:47:31.863
36.0, -827.9427920905873, -441.90283886436373, -537.7489949287847, -503.80005308100954, 0.6880000326782465, 0.7200000341981649, 0.35200001671910286, 0.0, 0.0, 0.0, 0.0, 0.0, 1.7103952518796127E9, 0.0, 2024-03-13 22:47:31.879
36.0, -825.7474708165973, -442.9051320524886, -550.4908340778202, -511.2985524921678, 0.6880000326782465, 0.7200000341981649, 0.35200001671910286, 0.0, 0.0, 0.0, 0.0, 0.0, 1.7103952518796127E9, 0.0, 2024-03-13 22:47:31.879
37.0, -832.1613992406055, -446.6188527084887, -528.9714497327805, -501.9263632032089, 0.6880000326782465, 0.7200000341981649, 0.35200001671910286, 0.0, 0.0, 0.0, 0.0, 0.0, 1.7103952518801286E9, 0.0, 2024-03-13 22:47:31.880
37.0, -837.9432845721021, -443.7279100427404, -524.9323577806354, -501.50001460826024, 0.6880000326782465, 0.7200000341981649, 0.35200001671910286, 0.0, 0.0, 0.0, 0.0, 0.0, 1.7103952518801286E9, 0.0, 2024-03-13 22:47:31.880
38.0, -827.3032691981643, -442.26934906002134, -529.7568287234753, -503.87485108012334, 0.6880000326782465, 0.7200000341981649, 0.35200001671910286, 0.0, 0.0, 0.0, 0.0, 0.0, 1.710395251894056E9, 0.0, 2024-03-13 22:47:31.894
38.0, -820.1413607830182, -437.52715591620654, -519.9545509396121, -491.49952212674543, 0.6880000326782465, 0.7200000341981649, 0.35200001671910286, 0.0, 0.0, 0.0, 0.0, 0.0, 1.710395251894056E9, 0.0, 2024-03-13 22:47:31.894
39.0, -843.8934654016048, -464.75736749358475, -544.6603300468996, -521.7927117678337, 0.6880000326782465, 0.7200000341981649, 0.35200001671910286, 0.0, 0.0, 0.0, 0.0, 0.0, 1.7103952519097686E9, 0.0, 2024-03-13 22:47:31.909
39.0, -838.837120661512, -456.72032248880714, -546.4554820256308, -514.1894951579161, 0.6880000326782465, 0.7200000341981649, 0.35200001671910286, 0.0, 0.0, 0.0, 0.0, 0.0, 1.7103952519097686E9, 0.0, 2024-03-13 22:47:31.909
40.0, -810.8364896932617, -431.9547049822286, -532.0007686968893, -499.9703955263831, 0.6880000326782465, 0.7200000341981649, 0.35200001671910286, 0.0, 0.0, 0.0, 0.0, 0.0, 1.7103952519102724E9, 0.0, 2024-03-13 22:47:31.910
40.0, -828.8291483800858, -451.94447024539113, -547.0389064187184, -515.6368364407681, 0.6880000326782465, 0.7200000341981649, 0.35200001671910286, 0.0, 0.0, 0.0, 0.0, 0.0, 1.7103952519102724E9, 0.0, 2024-03-13 22:47:31.910
41.0, -831.8622072441503, -447.363092799671, -525.9870095681399, -505.5129272607155, 0.6880000326782465, 0.7200000341981649, 0.35200001671910286, 0.0, 0.0, 0.0, 0.0, 0.0, 1.710395251924108E9, 0.0, 2024-03-13 22:47:31.924
41.0, -822.9350660499185, -431.3488411894068, -523.7954281941056, -496.7653012643568, 0.6880000326782465, 0.7200000341981649, 0.35200001671910286, 0.0, 0.0, 0.0, 0.0, 0.0, 1.710395251924108E9, 0.0, 2024-03-13 22:47:31.924
42.0, -827.464084896259, -443.2118038488552, -540.314566298388, -510.98066099593416, 0.6880000326782465, 0.7200000341981649, 0.35200001671910286, 0.0, 0.0, 0.0, 0.0, 0.0, 1.710395251940042E9, 0.0, 2024-03-13 22:47:31.940
42.0, -853.5760663868859, -461.8888642275706, -546.3732042266056, -523.0680176527239, 0.6880000326782465, 0.7200000341981649, 0.35200001671910286, 0.0, 0.0, 0.0, 0.0, 0.0, 1.710395251940042E9, 0.0, 2024-03-13 22:47:31.940
43.0, -845.0191752882674, -459.1886564595625, -551.0069402717054, -516.9944201246835, 0.6880000326782465, 0.7200000341981649, 0.35200001671910286, 0.0, 0.0, 0.0, 0.0, 0.0, 1.7103952519401217E9, 0.0, 2024-03-13 22:47:31.940
43.0, -838.6015069643036, -452.6139123374596, -552.0391526594758, -516.530672530178, 0.6880000326782465, 0.7200000341981649, 0.35200001671910286, 0.0, 0.0, 0.0, 0.0, 0.0, 1.7103952519401217E9, 0.0, 2024-03-13 22:47:31.940
44.0, -850.3447928251699, -459.38687115721405, -544.2227617520839, -524.6125963344239, 0.6880000326782465, 0.7200000341981649, 0.35200001671910286, 0.0, 0.0, 0.0, 0.0, 0.0, 1.7103952519536684E9, 0.0, 2024-03-13 22:47:31.953
44.0, -856.6128651509061, -466.8853705683723, -556.3998760078102, -529.0069787823595, 0.6880000326782465, 0.7200000341981649, 0.35200001671910286, 0.0, 0.0, 0.0, 0.0, 0.0, 1.7103952519536684E9, 0.0, 2024-03-13 22:47:31.953
45.0, -849.6229921337217, -458.60897196643054, -556.8785832021385, -524.5153589355759, 0.6880000326782465, 0.7200000341981649, 0.35200001671910286, 0.0, 0.0, 0.0, 0.0, 0.0, 1.7103952519693685E9, 0.0, 2024-03-13 22:47:31.969
45.0, -852.5176746994257, -466.64227707125247, -543.4037236617878, -516.2613997333683, 0.6880000326782465, 0.7200000341981649, 0.35200001671910286, 0.0, 0.0, 0.0, 0.0, 0.0, 1.7103952519693685E9, 0.0, 2024-03-13 22:47:31.969
46.0, -846.9265242656693, -460.31062644626945, -541.6796297822148, -516.7363670277409, 0.6880000326782465, 0.7200000341981649, 0.35200001671910286, 0.0, 0.0, 0.0, 0.0, 0.0, 1.7103952519701035E9, 0.0, 2024-03-13 22:47:31.970
46.0, -840.8716262374073, -456.19673649501055, -563.0381984291598, -521.0110726770945, 0.6880000326782465, 0.7200000341981649, 0.35200001671910286, 0.0, 0.0, 0.0, 0.0, 0.0, 1.7103952519701035E9, 0.0, 2024-03-13 22:47:31.970
47.0, -822.748071052134, -438.5518885040656, -550.0906647825614, -511.94181528454646, 0.6880000326782465, 0.7200000341981649, 0.35200001671910286, 0.0, 0.0, 0.0, 0.0, 0.0, 1.7103952519836624E9, 0.0, 2024-03-13 22:47:31.983
47.0, -845.1238924870268, -458.8109265640378, -538.1080253245309, -515.6592758405022, 0.6880000326782465, 0.7200000341981649, 0.35200001671910286, 0.0, 0.0, 0.0, 0.0, 0.0, 1.7103952519836624E9, 0.0, 2024-03-13 22:47:31.983
48.0, -841.0661010351032, -451.37974535208195, -544.9670018432662, -515.6480561406352, 0.6880000326782465, 0.7200000341981649, 0.35200001671910286, 0.0, 0.0, 0.0, 0.0, 0.0, 1.7103952519993815E9, 0.0, 2024-03-13 22:47:31.999
48.0, -835.9947966951877, -443.56709434464574, -538.8821846153587, -510.9657013961114, 0.6880000326782465, 0.7200000341981649, 0.35200001671910286, 0.0, 0.0, 0.0, 0.0, 0.0, 1.7103952519993815E9, 0.0, 2024-03-13 22:47:31.999
49.0, -839.2559894565493, -459.1026387605816, -537.7714343285188, -512.0390526833944, 0.6880000326782465, 0.7200000341981649, 0.35200001671910286, 0.0, 0.0, 0.0, 0.0, 0.0, 1.7103952520000184E9, 0.0, 2024-03-13 22:47:32.000
49.0, -845.6287789810449, -457.1055321842432, -550.0083869835362, -516.5867710295133, 0.6880000326782465, 0.7200000341981649, 0.35200001671910286, 0.0, 0.0, 0.0, 0.0, 0.0, 1.7103952520000184E9, 0.0, 2024-03-13 22:47:32.000
50.0, -824.3375285333022, -443.5820539444685, -541.5300337839872, -502.45368909696117, 0.6880000326782465, 0.7200000341981649, 0.35200001671910286, 0.0, 0.0, 0.0, 0.0, 0.0, 1.7103952520137165E9, 0.0, 2024-03-13 22:47:32.013
50.0, -826.7572438046336, -452.64009163714945, -536.5784062426537, -510.8871634970419, 0.6880000326782465, 0.7200000341981649, 0.35200001671910286, 0.0, 0.0, 0.0, 0.0, 0.0, 1.7103952520137165E9, 0.0, 2024-03-13 22:47:32.013
51.0, -822.04870976042, -453.9901955211535, -544.5144739486277, -516.8036852269433, 0.6880000326782465, 0.7200000341981649, 0.35200001671910286, 0.0, 0.0, 0.0, 0.0, 0.0, 1.710395252029507E9, 0.0, 2024-03-13 22:47:32.029
51.0, -836.2341502923518, -449.6631312724203, -553.037705947645, -514.552265453618, 0.6880000326782465, 0.7200000341981649, 0.35200001671910286, 0.0, 0.0, 0.0, 0.0, 0.0, 1.710395252029507E9, 0.0, 2024-03-13 22:47:32.029
52.0, -835.9199986960739, -451.2189296539873, -534.1661707712337, -508.50110732531175, 0.6720000319182873, 0.7200000341981649, 0.35200001671910286, 0.0, 0.0, 0.0, 0.0, 0.0, 1.7103952520301104E9, 0.0, 2024-03-13 22:47:32.030
52.0, -846.0065088765696, -448.4065248873085, -534.0614535724744, -509.28274641605094, 0.6720000319182873, 0.7200000341981649, 0.35200001671910286, 0.0, 0.0, 0.0, 0.0, 0.0, 1.7103952520301104E9, 0.0, 2024-03-13 22:47:32.030
53.0, -840.1348659461364, -455.04858720861375, -557.6340429931879, -520.5286255828105, 0.6720000319182873, 0.7200000341981649, 0.35200001671910286, 0.0, 0.0, 0.0, 0.0, 0.0, 1.7103952520436852E9, 0.0, 2024-03-13 22:47:32.043
53.0, -832.1613992406055, -444.8050012299791, -543.2279483638704, -509.83251170953736, 0.6720000319182873, 0.7200000341981649, 0.35200001671910286, 0.0, 0.0, 0.0, 0.0, 0.0, 1.7103952520436852E9, 0.0, 2024-03-13 22:47:32.043
54.0, -825.739991016686, -449.92866416927427, -528.9490103330463, -509.884870308917, 0.6720000319182873, 0.7200000341981649, 0.35200001671910286, 0.0, 0.0, 0.0, 0.0, 0.0, 1.7103952520597537E9, 0.0, 2024-03-13 22:47:32.059
54.0, -825.6165743181482, -445.9830697160214, -536.8327194396406, -507.2332812403329, 0.6720000319182873, 0.7200000341981649, 0.35200001671910286, 0.0, 0.0, 0.0, 0.0, 0.0, 1.7103952520597537E9, 0.0, 2024-03-13 22:47:32.059
55.0, -818.6341811008751, -438.23399700783193, -531.0209149084985, -498.61281184246764, 0.6720000319182873, 0.7200000341981649, 0.35200001671910286, 0.0, 0.0, 0.0, 0.0, 0.0, 1.7103952520602875E9, 0.0, 2024-03-13 22:47:32.060
55.0, -837.6515723755583, -457.08309278450906, -531.9297105977312, -507.02384684281424, 0.6720000319182873, 0.7200000341981649, 0.35200001671910286, 0.0, 0.0, 0.0, 0.0, 0.0, 1.7103952520602875E9, 0.0, 2024-03-13 22:47:32.060
56.0, -851.6051391102374, -469.4023232385516, -547.8542046090588, -520.6969210808165, 0.6720000319182873, 0.7200000341981649, 0.35200001671910286, 0.0, 0.0, 0.0, 0.0, 0.0, 1.7103952520741093E9, 0.0, 2024-03-13 22:47:32.074
56.0, -829.9548582667485, -443.7241701427847, -531.7838544994593, -500.46032242057845, 0.6720000319182873, 0.7200000341981649, 0.35200001671910286, 0.0, 0.0, 0.0, 0.0, 0.0, 1.7103952520741093E9, 0.0, 2024-03-13 22:47:32.074
57.0, -814.269717852585, -439.2362901959568, -521.4766902215779, -491.8473328226246, 0.6720000319182873, 0.7200000341981649, 0.35200001671910286, 0.0, 0.0, 0.0, 0.0, 0.0, 1.7103952520893953E9, 0.0, 2024-03-13 22:47:32.089
57.0, -833.6984981223941, -462.1469173245132, -541.4253165852278, -514.2194143575616, 0.6720000319182873, 0.7200000341981649, 0.35200001671910286, 0.0, 0.0, 0.0, 0.0, 0.0, 1.7103952520893953E9, 0.0, 2024-03-13 22:47:32.089
58.0, -854.0659932810813, -466.1186910774559, -562.4472942361608, -523.7636390444823, 0.6720000319182873, 0.7200000341981649, 0.35200001671910286, 0.0, 0.0, 0.0, 0.0, 0.0, 1.7103952520905652E9, 0.0, 2024-03-13 22:47:32.090
58.0, -838.2499563684687, -457.7749742763117, -550.2926193801686, -511.8819768852554, 0.6720000319182873, 0.7200000341981649, 0.35200001671910286, 0.0, 0.0, 0.0, 0.0, 0.0, 1.7103952520905652E9, 0.0, 2024-03-13 22:47:32.090
59.0, -822.6844927528873, -452.0753667438403, -531.0433543082327, -509.6604763115756, 0.6720000319182873, 0.7200000341981649, 0.35200001671910286, 0.0, 0.0, 0.0, 0.0, 0.0, 1.710395252103639E9, 0.0, 2024-03-13 22:47:32.103
59.0, -826.1289406120777, -450.78136135917157, -525.52700187359, -500.766994216945, 0.6720000319182873, 0.7200000341981649, 0.35200001671910286, 0.0, 0.0, 0.0, 0.0, 0.0, 1.710395252103639E9, 0.0, 2024-03-13 22:47:32.103
60.0, -814.5801295489073, -443.7391297426075, -531.1929503064603, -501.7057091058232, 0.6720000319182873, 0.7200000341981649, 0.35200001671910286, 0.0, 0.0, 0.0, 0.0, 0.0, 1.710395252119464E9, 0.0, 2024-03-13 22:47:32.119
60.0, -806.3523496463895, -434.8007688485086, -516.7868556771427, -491.7725348235108, 0.6720000319182873, 0.7200000341981649, 0.35200001671910286, 0.0, 0.0, 0.0, 0.0, 0.0, 1.710395252119464E9, 0.0, 2024-03-13 22:47:32.119
61.0, -838.4855700656772, -457.2626079823822, -544.1778829526156, -514.4288487550803, 0.6720000319182873, 0.7200000341981649, 0.35200001671910286, 0.0, 0.0, 0.0, 0.0, 0.0, 1.7103952521201477E9, 0.0, 2024-03-13 22:47:32.120
61.0, -813.8695485573262, -439.7262170901522, -541.6758898822591, -504.7761669694446, 0.6720000319182873, 0.7200000341981649, 0.35200001671910286, 0.0, 0.0, 0.0, 0.0, 0.0, 1.7103952521201477E9, 0.0, 2024-03-13 22:47:32.120
62.0, -824.9994908254594, -449.135805378668, -531.3126271050423, -507.39035703847185, 0.6720000319182873, 0.7200000341981649, 0.35200001671910286, 0.0, 0.0, 0.0, 0.0, 0.0, 1.7103952521336992E9, 0.0, 2024-03-13 22:47:32.133
62.0, -842.7415762152523, -459.8431389518082, -536.0211611492559, -516.6279099290259, 0.6720000319182873, 0.7200000341981649, 0.35200001671910286, 0.0, 0.0, 0.0, 0.0, 0.0, 1.7103952521336992E9, 0.0, 2024-03-13 22:47:32.133
63.0, -843.1641849102452, -454.61101891379803, -541.2121422877535, -513.202161569614, 0.6720000319182873, 0.7200000341981649, 0.35200001671910286, 0.0, 0.0, 0.0, 0.0, 0.0, 1.7103952521495163E9, 0.0, 2024-03-13 22:47:32.149
63.0, -813.4768590619788, -433.4319654647261, -519.7451165420935, -488.8142739585601, 0.6720000319182873, 0.7200000341981649, 0.35200001671910286, 0.0, 0.0, 0.0, 0.0, 0.0, 1.7103952521495163E9, 0.0, 2024-03-13 22:47:32.149
64.0, -832.9991368306801, -452.3222001409158, -544.1591834528372, -511.83709808578715, 0.6720000319182873, 0.7200000341981649, 0.35200001671910286, 0.0, 0.0, 0.0, 0.0, 0.0, 1.7103952521501312E9, 0.0, 2024-03-13 22:47:32.150
64.0, -832.8645004322752, -450.6280254609883, -530.1083793193102, -504.94446246745065, 0.6720000319182873, 0.7200000341981649, 0.35200001671910286, 0.0, 0.0, 0.0, 0.0, 0.0, 1.7103952521501312E9, 0.0, 2024-03-13 22:47:32.150
65.0, -834.8017686093226, -450.8337199585512, -533.3733119806275, -502.9510957910679, 0.6720000319182873, 0.7200000341981649, 0.35200001671910286, 0.0, 0.0, 0.0, 0.0, 0.0, 1.710395252163686E9, 0.0, 2024-03-13 22:47:32.163
65.0, -834.1398063171655, -456.1144586959854, -531.4435236034915, -506.7059553465806, 0.6720000319182873, 0.7200000341981649, 0.35200001671910286, 0.0, 0.0, 0.0, 0.0, 0.0, 1.710395252163686E9, 0.0, 2024-03-13 22:47:32.163
66.0, -856.2575746551156, -467.24440096411854, -552.6861553518102, -524.1787679395638, 0.6720000319182873, 0.7200000341981649, 0.35200001671910286, 0.0, 0.0, 0.0, 0.0, 0.0, 1.710395252179348E9, 0.0, 2024-03-13 22:47:32.179
66.0, -836.8400140851736, -452.3296799408272, -538.1865632236004, -504.35729817440733, 0.6720000319182873, 0.7200000341981649, 0.35200001671910286, 0.0, 0.0, 0.0, 0.0, 0.0, 1.710395252179348E9, 0.0, 2024-03-13 22:47:32.179
67.0, -828.9824842782691, -449.04978767968714, -524.9547971803695, -502.7753204931505, 0.6720000319182873, 0.7200000341981649, 0.35200001671910286, 0.0, 0.0, 0.0, 0.0, 0.0, 1.7103952521800754E9, 0.0, 2024-03-13 22:47:32.180
67.0, -839.9329113485292, -460.774374040775, -535.1348048597574, -506.339445150923, 0.6720000319182873, 0.7200000341981649, 0.35200001671910286, 0.0, 0.0, 0.0, 0.0, 0.0, 1.7103952521800754E9, 0.0, 2024-03-13 22:47:32.180
68.0, -840.9913030359894, -454.4689027154818, -544.6416305471212, -513.2881792685948, 0.6720000319182873, 0.7200000341981649, 0.35200001671910286, 0.0, 0.0, 0.0, 0.0, 0.0, 1.710395252193917E9, 0.0, 2024-03-13 22:47:32.193
68.0, -826.2037386111915, -447.85675959382206, -539.8956975033507, -510.13918350590393, 0.6720000319182873, 0.7200000341981649, 0.35200001671910286, 0.0, 0.0, 0.0, 0.0, 0.0, 1.710395252193917E9, 0.0, 2024-03-13 22:47:32.193
69.0, -807.1078094374388, -436.12095353286713, -519.8161746412516, -497.3562054573558, 0.6720000319182873, 0.7200000341981649, 0.35200001671910286, 0.0, 0.0, 0.0, 0.0, 0.0, 1.710395252209766E9, 0.0, 2024-03-13 22:47:32.209
