%OpenBCI Raw EXG Data
%Number of channels = 4
%Sample Rate = 200 Hz
%Board = OpenBCI_GUI$BoardGanglionBLE
Sample Index, EXG Channel 0, EXG Channel 1, EXG Channel 2, EXG Channel 3, Accel Channel 0, Accel Channel 1, Accel Channel 2, Other, Other, Other, Other, Other, Timestamp, Other, Timestamp (Formatted)
2.0, 161.0737511916086, -91.71917646331713, 114.36988054495305, -61.4185070223175, 0.01600000075995922, 0.0, 0.0, 0.0, 0.0, 0.0, 0.0, 0.0, 1.7103877746303568E9, 0.0, 2024-03-13 20:42:54.630
2.0, 100.22183901257813, 122.92303174361587, 115.57786823064089, 102.07308949064463, 0.01600000075995922, 0.0, 0.0, 0.0, 0.0, 0.0, 0.0, 0.0, 1.7103877746303568E9, 0.0, 2024-03-13 20:42:54.630
3.0, 8.654128497466445, 174.45885313302279, -4.360723348334432, 204.99887617118657, 0.01600000075995922, 0.0, 0.0, 0.0, 0.0, 0.0, 0.0, 0.0, 1.7103877746444812E9, 0.0, 2024-03-13 20:42:54.644
3.0, -113.32083860738203, 222.39315086510032, -120.67722182022408, 212.22810278553516, 0.01600000075995922, 0.0, 0.0, 0.0, 0.0, 0.0, 0.0, 0.0, 1.7103877746444812E9, 0.0, 2024-03-13 20:42:54.644
4.0, -274.1215771022253, 324.00436271121725, -236.64403964625672, 287.1252092481591, 0.01600000075995922, 0.0, 0.0, 0.0, 0.0, 0.0, 0.0, 0.0, 1.7103877746453733E9, 0.0, 2024-03-13 20:42:54.645
4.0, -40.12164672464132, 513.0469557214528, -51.55078098922968, 528.2384293414652, 0.01600000075995922, 0.0, 0.0, 0.0, 0.0, 0.0, 0.0, 0.0, 1.7103877746453733E9, 0.0, 2024-03-13 20:42:54.645
5.0, -188.80323941307142, 609.3045007809997, -235.75394345680252, 615.9652626020834, 0.01600000075995922, 0.0, 0.0, 0.0, 0.0, 0.0, 0.0, 0.0, 1.7103877746588848E9, 0.0, 2024-03-13 20:42:54.658
5.0, -116.5558520690538, 539.517967607826, -127.94010753417388, 498.32296959590167, 0.01600000075995922, 0.0, 0.0, 0.0, 0.0, 0.0, 0.0, 0.0, 1.7103877746588848E9, 0.0, 2024-03-13 20:42:54.658
6.0, -0.9013158893212676, 493.9472866477445, -7.072150816209614, 489.2275329036638, 0.01600000075995922, 0.0, 0.0, 0.0, 0.0, 0.0, 0.0, 0.0, 1.7103877746744266E9, 0.0, 2024-03-13 20:42:54.674
6.0, 155.2993456600234, 397.11566694499925, 106.56470933742821, 423.0256938380189, 0.01600000075995922, 0.0, 0.0, 0.0, 0.0, 0.0, 0.0, 0.0, 1.7103877746744266E9, 0.0, 2024-03-13 20:42:54.674
7.0, -58.81927655311301, 195.43969188444316, -88.85815299721435, 654.6676172935404, 0.01600000075995922, 0.0, 0.0, 0.0, 0.0, 0.0, 0.0, 0.0, 1.7103877746751428E9, 0.0, 2024-03-13 20:42:54.675
7.0, 108.29254311695695, 117.18228531163186, 106.30665624048561, 582.827879044693, 0.01600000075995922, 0.0, 0.0, 0.0, 0.0, 0.0, 0.0, 0.0, 1.7103877746751428E9, 0.0, 2024-03-13 20:42:54.675
8.0, 20.11692186165601, 171.8970216633752, -11.014005369506776, 692.7846776419319, 0.01600000075995922, 0.0, 0.0, 0.0, 0.0, 0.0, 0.0, 0.0, 1.710387774688716E9, 0.0, 2024-03-13 20:42:54.688
8.0, -87.95309720793739, 224.2556210430339, -124.0393918803893, 703.2900566174649, 0.01600000075995922, 0.0, 0.0, 0.0, 0.0, 0.0, 0.0, 0.0, 1.710387774688716E9, 0.0, 2024-03-13 20:42:54.688
9.0, -248.42472450667992, 324.1801380091347, -238.88797961967066, 776.448109600693, 0.01600000075995922, 0.0, 0.0, 0.0, 0.0, 0.0, 0.0, 0.0, 1.7103877747044437E9, 0.0, 2024-03-13 20:42:54.704
9.0, -55.93768363725394, 504.40404692385346, -54.101392759010196, 1017.0302639002912, 0.01600000075995922, 0.0, 0.0, 0.0, 0.0, 0.0, 0.0, 0.0, 1.7103877747044437E9, 0.0, 2024-03-13 20:42:54.704
10.0, -214.78058450529352, 603.8629463454708, -233.48756408365443, 1110.7222375902347, 0.01600000075995922, 0.0, 1.0400000493973494, 0.0, 0.0, 0.0, 0.0, 0.0, 1.7103877747051413E9, 0.0, 2024-03-13 20:42:54.705
10.0, -115.61713718017563, 533.0142815848812, -126.42544805211946, 987.5822916491888, 0.01600000075995922, 0.0, 1.0400000493973494, 0.0, 0.0, 0.0, 0.0, 0.0, 1.7103877747051413E9, 0.0, 2024-03-13 20:42:54.705
11.0, -15.038137721829116, 486.65822163410485, -5.890342430211604, 977.256427871529, 0.01600000075995922, -0.19200000911951065, 1.0400000493973494, 0.0, 0.0, 0.0, 0.0, 0.0, 1.7103877747189972E9, 0.0, 2024-03-13 20:42:54.718
11.0, 137.79287396743894, 394.1648858799599, 105.20712565351278, 912.0307026943192, 0.01600000075995922, -0.19200000911951065, 1.0400000493973494, 0.0, 0.0, 0.0, 0.0, 0.0, 1.7103877747189972E9, 0.0, 2024-03-13 20:42:54.718
12.0, -70.35686791641638, 188.48721786681563, -86.72267012251541, 1145.647293326445, 0.01600000075995922, -0.19200000911951065, 1.0400000493973494, 0.0, 0.0, 0.0, 0.0, 0.0, 1.7103877747345872E9, 0.0, 2024-03-13 20:42:54.734
12.0, 92.71959970146418, 111.83796827495098, 102.55927648488432, 1067.034596257843, 0.01600000075995922, -0.19200000911951065, 1.0400000493973494, 0.0, 0.0, 0.0, 0.0, 0.0, 1.7103877747345872E9, 0.0, 2024-03-13 20:42:54.734
13.0, 12.517445151694119, 161.79555188305676, -18.628441679291427, 1173.4010908976197, 0.01600000075995922, -0.19200000911951065, 1.0400000493973494, 0.0, 0.0, 0.0, 0.0, 0.0, 1.7103877747353609E9, 0.0, 2024-03-13 20:42:54.735
13.0, -95.27208142122254, 213.2827545730397, -128.87508252309635, 1185.3463313560933, 0.01600000075995922, -0.19200000911951065, 1.0400000493973494, 0.0, 0.0, 0.0, 0.0, 0.0, 1.7103877747353609E9, 0.0, 2024-03-13 20:42:54.735
14.0, -248.22650980902836, 317.7699494850822, -254.7301958319731, 1255.4040072760545, 0.01600000075995922, -0.19200000911951065, 1.0400000493973494, 0.0, 0.0, 0.0, 0.0, 0.0, 1.7103877747487166E9, 0.0, 2024-03-13 20:42:54.748
14.0, -50.4325509024784, 504.2133120261133, -64.91344353090972, 1492.388377818279, 0.01600000075995922, -0.19200000911951065, 1.0400000493973494, 0.0, 0.0, 0.0, 0.0, 0.0, 1.7103877747487166E9, 0.0, 2024-03-13 20:42:54.748
15.0, -206.77345870016143, 608.1563514946029, -241.48347018891945, 1589.9848070619628, 0.01600000075995922, -0.19200000911951065, 1.0400000493973494, 0.0, 0.0, 0.0, 0.0, 0.0, 1.7103877747644281E9, 0.0, 2024-03-13 20:42:54.764
15.0, -133.2993841706775, 536.3353127455339, -128.54223142703995, 1477.3053612969816, 0.01600000075995922, -0.19200000911951065, 1.0400000493973494, 0.0, 0.0, 0.0, 0.0, 0.0, 1.7103877747644281E9, 0.0, 2024-03-13 20:42:54.764
16.0, -17.30825699493289, 489.0554975057021, -2.696467868052423, 1468.8382277972996, 0.01600000075995922, -0.19200000911951065, 1.0400000493973494, 0.0, 0.0, 0.0, 0.0, 0.0, 1.7103877747651596E9, 0.0, 2024-03-13 20:42:54.765
16.0, 139.42347034811974, 400.0888874097727, 117.58993440680206, 1412.692979712505, 0.01600000075995922, -0.19200000911951065, 1.0400000493973494, 0.0, 0.0, 0.0, 0.0, 0.0, 1.7103877747651596E9, 0.0, 2024-03-13 20:42:54.765
17.0, -73.87611377472058, 203.30470149125904, -68.61033463710919, 1655.2965499381535, 0.01600000075995922, -0.19200000911951065, 1.0400000493973494, 0.0, 0.0, 0.0, 0.0, 0.0, 1.710387774778713E9, 0.0, 2024-03-13 20:42:54.778
17.0, 92.06885710917413, 122.76595594547689, 122.74725644569844, 1581.1642530164681, 0.01600000075995922, -0.19200000911951065, 1.0400000493973494, 0.0, 0.0, 0.0, 0.0, 0.0, 1.710387774778713E9, 0.0, 2024-03-13 20:42:54.778
18.0, 18.284370883367956, 172.6786607541144, -0.2056944975629449, 1681.7713017244823, 0.01600000075995922, -0.19200000911951065, 1.0400000493973494, 0.0, 0.0, 0.0, 0.0, 0.0, 1.7103877747947104E9, 0.0, 2024-03-13 20:42:54.794
18.0, -84.89011914422736, 229.22968798410147, -115.0000536874868, 1695.1601435658522, 0.01600000075995922, -0.19200000911951065, 1.0400000493973494, 0.0, 0.0, 0.0, 0.0, 0.0, 1.7103877747947104E9, 0.0, 2024-03-13 20:42:54.794
19.0, -241.1693185926415, 319.6623388626613, -238.9515579189174, 1756.52629198879, 0.01600000075995922, -0.19200000911951065, 1.0400000493973494, 0.0, 0.0, 0.0, 0.0, 0.0, 1.7103877747951443E9, 0.0, 2024-03-13 20:42:54.795
19.0, -63.357645149342716, 496.65497421566397, -54.568880253471434, 1990.960050761234, 0.01600000075995922, -0.19200000911951065, 1.0400000493973494, 0.0, 0.0, 0.0, 0.0, 0.0, 1.7103877747951443E9, 0.0, 2024-03-13 20:42:54.795
20.0, -229.0520427362062, 598.7168440064415, -237.30974183836952, 2086.551893628668, 0.01600000075995922, -0.19200000911951065, 1.0400000493973494, 0.0, 0.0, 0.0, 0.0, 0.0, 1.7103877748087015E9, 0.0, 2024-03-13 20:42:54.808
20.0, -157.4666176843457, 524.1881176894531, -136.1978066363372, 1959.4139946349896, 0.01600000075995922, -0.19200000911951065, 1.0400000493973494, 0.0, 0.0, 0.0, 0.0, 0.0, 1.7103877748087015E9, 0.0, 2024-03-13 20:42:54.808
21.0, -13.366402441635728, 474.46614777855575, -19.458699469454587, 1943.792432520073, 0.01600000075995922, -0.19200000911951065, 1.0400000493973494, 0.0, 0.0, 0.0, 0.0, 0.0, 1.7103877748244565E9, 0.0, 2024-03-13 20:42:54.824
21.0, 151.05081931035966, 384.8787142899819, 98.75579822994769, 1884.5094083724543, 0.01600000075995922, -0.19200000911951065, 1.0400000493973494, 0.0, 0.0, 0.0, 0.0, 0.0, 1.7103877748244565E9, 0.0, 2024-03-13 20:42:54.824
22.0, -68.66643313644454, 195.44717168435454, -84.08978055370972, 2125.833932813257, 0.01600000075995922, -0.19200000911951065, 1.0400000493973494, 0.0, 0.0, 0.0, 0.0, 0.0, 1.7103877748251648E9, 0.0, 2024-03-13 20:42:54.825
22.0, 91.95292021054775, 111.71081167645752, 97.9704192392528, 2043.5785731878132, 0.01600000075995922, -0.19200000911951065, 1.0400000493973494, 0.0, 0.0, 0.0, 0.0, 0.0, 1.7103877748251648E9, 0.0, 2024-03-13 20:42:54.825
23.0, 12.842816447839141, 165.84960343502462, -16.94174679927528, 2155.536218261346, 0.01600000075995922, -0.19200000911951065, 1.0400000493973494, 0.0, 0.0, 0.0, 0.0, 0.0, 1.7103877748386755E9, 0.0, 2024-03-13 20:42:54.838
23.0, -98.38367818435654, 223.2196687553078, -120.90535571752116, 2175.5633825240657, 0.01600000075995922, -0.19200000911951065, 1.0400000493973494, 0.0, 0.0, 0.0, 0.0, 0.0, 1.7103877748386755E9, 0.0, 2024-03-13 20:42:54.838
24.0, -257.1686106030829, 315.18193871574476, -241.4348514894955, 2238.7508622254245, 0.01600000075995922, -0.19200000911951065, 1.0400000493973494, 0.0, 0.0, 0.0, 0.0, 0.0, 1.710387774870828E9, 0.0, 2024-03-13 20:42:54.870
24.0, -54.980269248597324, 492.06237707007676, -54.46042315475643, 2479.946360117756, 0.01600000075995922, -0.19200000911951065, 1.0400000493973494, 0.0, 0.0, 0.0, 0.0, 0.0, 1.710387774870828E9, 0.0, 2024-03-13 20:42:54.870
25.0, -209.35772956954315, 600.2726423880085, -236.5019234479405, 2576.8920467691496, 0.01600000075995922, -0.19200000911951065, 1.0400000493973494, 0.0, 0.0, 0.0, 0.0, 0.0, 1.710387774871548E9, 0.0, 2024-03-13 20:42:54.871
25.0, -125.03794516855851, 534.4878021674231, -124.4470409755595, 2460.319365150295, 0.01600000075995922, -0.19200000911951065, 1.0400000493973494, 0.0, 0.0, 0.0, 0.0, 0.0, 1.710387774871548E9, 0.0, 2024-03-13 20:42:54.871
26.0, -1.0322123877704144, 481.7065940927714, -9.2637321902439, 2441.0775798782706, 0.01600000075995922, -0.19200000911951065, 1.0400000493973494, 0.0, 0.0, 0.0, 0.0, 0.0, 1.710387774872268E9, 0.0, 2024-03-13 20:42:54.872
26.0, 117.19350501149893, 381.7858170266263, 101.92723339237273, 2376.248284096364, 0.01600000075995922, -0.19200000911951065, 1.0400000493973494, 0.0, 0.0, 0.0, 0.0, 0.0, 1.710387774872268E9, 0.0, 2024-03-13 20:42:54.872
27.0, -70.9028933099471, 189.87846065033227, -84.60214684763923, 2614.696825471241, 0.01600000075995922, -0.19200000911951065, 1.0400000493973494, 0.0, 0.0, 0.0, 0.0, 0.0, 1.710387774873044E9, 0.0, 2024-03-13 20:42:54.873
27.0, 81.57843773346394, 96.69511335436255, 94.47361278068274, 2529.546783280093, 0.01600000075995922, -0.19200000911951065, 1.0400000493973494, 0.0, 0.0, 0.0, 0.0, 0.0, 1.710387774873044E9, 0.0, 2024-03-13 20:42:54.873
28.0, -0.3590303957462311, 157.4797073341906, -25.064809503033757, 2636.7622352098115, 0.01600000075995922, -0.19200000911951065, 1.0400000493973494, 0.0, 0.0, 0.0, 0.0, 0.0, 1.7103877748841894E9, 0.0, 2024-03-13 20:42:54.884
28.0, -98.8810848784633, 220.04075379297137, -130.77869160054252, 2659.3250516424887, 0.01600000075995922, -0.19200000911951065, 1.0400000493973494, 0.0, 0.0, 0.0, 0.0, 0.0, 1.7103877748841894E9, 0.0, 2024-03-13 20:42:54.884
29.0, -256.2448553140275, 312.9417386422865, -256.90307770622894, 2723.870115027763, 0.01600000075995922, -0.19200000911951065, 1.0400000493973494, 0.0, 0.0, 0.0, 0.0, 0.0, 1.7103877748987339E9, 0.0, 2024-03-13 20:42:54.898
29.0, -45.219130364246666, 490.1587679926306, -68.19333579204977, 2959.739995383192, 0.01600000075995922, -0.19200000911951065, 1.0400000493973494, 0.0, 0.0, 0.0, 0.0, 0.0, 1.7103877748987339E9, 0.0, 2024-03-13 20:42:54.898
30.0, -196.27929942449555, 605.1008532308042, -236.75249674497172, 3065.291191832628, 0.01600000075995922, -0.19200000911951065, 1.0400000493973494, 0.0, 0.0, 0.0, 0.0, 0.0, 1.7103877749311159E9, 0.0, 2024-03-13 20:42:54.931
30.0, -135.03843765007332, 536.4362900443375, -133.75565196527168, 2945.045928457286, 0.01600000075995922, -0.19200000911951065, 1.0400000493973494, 0.0, 0.0, 0.0, 0.0, 0.0, 1.7103877749311159E9, 0.0, 2024-03-13 20:42:54.931
31.0, -2.128003074787557, 489.0854167053476, -8.953320493921638, 2935.352107772138, 0.01600000075995922, -0.19200000911951065, 1.0400000493973494, 0.0, 0.0, 0.0, 0.0, 0.0, 1.7103877749316218E9, 0.0, 2024-03-13 20:42:54.931
31.0, 163.17183506675065, 413.1373983551748, 120.07696787733585, 2890.561195952818, 0.01600000075995922, -0.19200000911951065, 1.0400000493973494, 0.0, 0.0, 0.0, 0.0, 0.0, 1.7103877749316218E9, 0.0, 2024-03-13 20:42:54.931
32.0, -61.194113024976104, 203.30470149125904, -79.88613300351426, 3114.5064052995294, 0.01600000075995922, -0.19200000911951065, 1.0400000493973494, 0.0, 0.0, 0.0, 0.0, 0.0, 1.7103877749326036E9, 0.0, 2024-03-13 20:42:54.932
32.0, 95.13183517288417, 105.36046155169606, 95.7115196660161, 3025.41824845504, 0.01600000075995922, -0.19200000911951065, 1.0400000493973494, 0.0, 0.0, 0.0, 0.0, 0.0, 1.7103877749326036E9, 0.0, 2024-03-13 20:42:54.932
33.0, -16.0441708099097, 153.1825622851029, -16.90808769967407, 3132.648659984581, 0.01600000075995922, -0.19200000911951065, 1.0400000493973494, 0.0, 0.0, 0.0, 0.0, 0.0, 1.7103877749332316E9, 0.0, 2024-03-13 20:42:54.933
33.0, -99.7711810679175, 214.68521705642343, -124.76493247179314, 3151.1237657656893, 0.01600000075995922, -0.19200000911951065, 1.0400000493973494, 0.0, 0.0, 0.0, 0.0, 0.0, 1.7103877749332316E9, 0.0, 2024-03-13 20:42:54.933
34.0, -267.34487838251516, 298.752558210399, -251.79063446680084, 3212.325358590577, 0.01600000075995922, -0.19200000911951065, 1.0400000493973494, 0.0, 0.0, 0.0, 0.0, 0.0, 1.7103877749437337E9, 0.0, 2024-03-13 20:42:54.943
34.0, -32.750303911976516, 482.0843239882961, -61.53631387092173, 3450.289582921192, 0.01600000075995922, -0.19200000911951065, 1.0400000493973494, 0.0, 0.0, 0.0, 0.0, 0.0, 1.7103877749437337E9, 0.0, 2024-03-13 20:42:54.943
35.0, -218.80845675757155, 591.0126500977203, -240.00994960637763, 3550.466543134302, 0.01600000075995922, -0.19200000911951065, 1.0400000493973494, 0.0, 0.0, 0.0, 0.0, 0.0, 1.71038777495867E9, 0.0, 2024-03-13 20:42:54.958
35.0, -148.2702036933042, 515.601307391189, -138.2697112117894, 3429.922087762505, 0.01600000075995922, -0.19200000911951065, 1.0400000493973494, 0.0, 0.0, 0.0, 0.0, 0.0, 1.71038777495867E9, 0.0, 2024-03-13 20:42:54.958
36.0, -33.81991529930383, 467.57351216021925, -22.667533631436527, 3412.0304063744843, 0.01600000075995922, -0.19200000911951065, 1.0400000493973494, 0.0, 0.0, 0.0, 0.0, 0.0, 1.710387774974481E9, 0.0, 2024-03-13 20:42:54.974
36.0, 119.01483628991991, 374.0891029178165, 92.17357430793345, 3347.571360688191, 0.01600000075995922, -0.19200000911951065, 1.0400000493973494, 0.0, 0.0, 0.0, 0.0, 0.0, 1.710387774974481E9, 0.0, 2024-03-13 20:42:54.974
37.0, -77.17470553563908, 190.78725633956492, -91.95853006048128, 3588.6565315318294, 0.01600000075995922, -0.19200000911951065, 1.0400000493973494, 0.0, 0.0, 0.0, 0.0, 0.0, 1.710387774975149E9, 0.0, 2024-03-13 20:42:54.975
37.0, 81.41762203536928, 101.39242769870907, 99.15222762525082, 3513.1666509262286, 0.01600000075995922, -0.19200000911951065, 1.0400000493973494, 0.0, 0.0, 0.0, 0.0, 0.0, 1.710387774975149E9, 0.0, 2024-03-13 20:42:54.975
38.0, 3.414528659544885, 152.8085722895339, -17.435413593426347, 3618.4672740786336, 0.01600000075995922, -0.19200000911951065, 1.0400000493973494, 0.0, 0.0, 0.0, 0.0, 0.0, 1.710387774988947E9, 0.0, 2024-03-13 20:42:54.988
38.0, -99.58044617017731, 220.93084998242557, -123.560684686061, 3643.4834648822434, 0.01600000075995922, -0.19200000911951065, 1.0400000493973494, 0.0, 0.0, 0.0, 0.0, 0.0, 1.710387774988947E9, 0.0, 2024-03-13 20:42:54.988
39.0, -255.033127728384, 316.7601764970459, -243.40577876614407, 3711.472976126708, 0.01600000075995922, -0.19200000911951065, 1.0400000493973494, 0.0, 0.0, 0.0, 0.0, 0.0, 1.7103877750047395E9, 0.0, 2024-03-13 20:42:55.004
39.0, -51.64053858816624, 497.58246940467507, -58.27886100951582, 3951.0378776383586, 0.01600000075995922, -0.19200000911951065, 1.0400000493973494, 0.0, 0.0, 0.0, 0.0, 0.0, 1.7103877750047395E9, 0.0, 2024-03-13 20:42:55.004
40.0, -200.08651757938787, 607.262515405193, -233.75309698050842, 4050.4444184605964, 0.01600000075995922, -0.19200000911951065, 1.0400000493973494, 0.0, 0.0, 0.0, 0.0, 0.0, 1.7103877750051565E9, 0.0, 2024-03-13 20:42:55.005
40.0, -131.930580786895, 537.4498029323295, -126.39178895251825, 3931.904549465049, 0.01600000075995922, -0.19200000911951065, 1.0400000493973494, 0.0, 0.0, 0.0, 0.0, 0.0, 1.7103877750051565E9, 0.0, 2024-03-13 20:42:55.005
41.0, -18.47136588115245, 478.0414921361953, -9.776098484173417, 3914.704749568831, 0.01600000075995922, -0.19200000911951065, 1.0400000493973494, 0.0, 0.0, 0.0, 0.0, 0.0, 1.710387775018693E9, 0.0, 2024-03-13 20:42:55.018
41.0, 138.42491705995053, 384.1195145989768, 101.68787979520857, 3850.2756230821833, 0.01600000075995922, -0.19200000911951065, 1.0400000493973494, 0.0, 0.0, 0.0, 0.0, 0.0, 1.710387775018693E9, 0.0, 2024-03-13 20:42:55.018
42.0, -75.25239695841447, 192.09996122401208, -87.62398601183668, 4083.615461117588, 0.01600000075995922, -0.19200000911951065, 1.0400000493973494, 0.0, 0.0, 0.0, 0.0, 0.0, 1.7103877750350251E9, 0.0, 2024-03-13 20:42:55.035
42.0, 81.10347043909132, 104.98273165617138, 99.24946502409875, 4003.6264808652923, 0.01600000075995922, -0.19200000911951065, 1.0400000493973494, 0.0, 0.0, 0.0, 0.0, 0.0, 1.7103877750350251E9, 0.0, 2024-03-13 20:42:55.035
43.0, -5.366756436415017, 153.61639067996293, -20.214159260503948, 4107.6218789331615, 0.01600000075995922, -0.19200000911951065, 1.0400000493973494, 0.0, 0.0, 0.0, 0.0, 0.0, 1.710387775035294E9, 0.0, 2024-03-13 20:42:55.035
43.0, -99.61410526977852, 213.1742974743247, -130.7113734013401, 4129.410536075011, 0.01600000075995922, -0.19200000911951065, 1.0400000493973494, 0.0, 0.0, 0.0, 0.0, 0.0, 1.710387775035294E9, 0.0, 2024-03-13 20:42:55.035
44.0, -249.61027279263362, 307.2832700093277, -251.1398918745108, 4198.828689102549, 0.01600000075995922, -0.19200000911951065, 1.0400000493973494, 0.0, 0.0, 0.0, 0.0, 0.0, 1.7103877750487394E9, 0.0, 2024-03-13 20:42:55.048
44.0, -46.079307354055345, 488.1915806159377, -68.03625999391079, 4427.626418641768, 0.01600000075995922, -0.19200000911951065, 1.0400000493973494, 0.0, 0.0, 0.0, 0.0, 0.0, 1.7103877750487394E9, 0.0, 2024-03-13 20:42:55.048
45.0, -194.89927634084597, 599.7789755938575, -236.92079224297777, 4535.298138366081, 0.01600000075995922, -0.19200000911951065, 1.0400000493973494, 0.0, 0.0, 0.0, 0.0, 0.0, 1.7103877750644023E9, 0.0, 2024-03-13 20:42:55.064
45.0, -118.35474394774064, 538.8934043152258, -123.39986898796633, 4424.383925380185, 0.01600000075995922, -0.19200000911951065, 1.0400000493973494, 0.0, 0.0, 0.0, 0.0, 0.0, 1.7103877750644023E9, 0.0, 2024-03-13 20:42:55.064
46.0, -3.8745363540947437, 486.0822770409286, 1.8400307781994343, 4411.978677227162, 0.01600000075995922, -0.19200000911951065, 1.0400000493973494, 0.0, 0.0, 0.0, 0.0, 0.0, 1.7103877750651207E9, 0.0, 2024-03-13 20:42:55.065
46.0, 147.58019215147942, 400.5339355044998, 119.64313948247582, 4357.834275618661, 0.01600000075995922, -0.19200000911951065, 1.0400000493973494, 0.0, 0.0, 0.0, 0.0, 0.0, 1.7103877750651207E9, 0.0, 2024-03-13 20:42:55.065
47.0, -71.52745660254732, 210.86303930170834, -65.42767977481708, 4595.145887407009, 0.01600000075995922, -0.19200000911951065, 1.0400000493973494, 0.0, 0.0, 0.0, 0.0, 0.0, 1.7103877750787096E9, 0.0, 2024-03-13 20:42:55.078
47.0, 116.59886091854423, 119.53094248380512, 120.05078857764602, 4516.196599342395, 0.01600000075995922, -0.19200000911951065, 1.0400000493973494, 0.0, 0.0, 0.0, 0.0, 0.0, 1.7103877750787096E9, 0.0, 2024-03-13 20:42:55.078
48.0, 42.24964979942888, 166.36196972895414, -3.900715653784573, 4616.21274385741, 0.01600000075995922, -0.19200000911951065, 1.0400000493973494, 0.0, 0.0, 0.0, 0.0, 0.0, 1.7103877750944228E9, 0.0, 2024-03-13 20:42:55.094
48.0, -89.10498639428988, 225.41499002929777, -112.74863391416147, 4630.835752684157, 0.01600000075995922, -0.19200000911951065, 1.0400000493973494, 0.0, 0.0, 0.0, 0.0, 0.0, 1.7103877750944228E9, 0.0, 2024-03-13 20:42:55.094
49.0, -250.60134628089145, 323.477036817465, -236.7263174452819, 4701.054244302213, 0.01600000075995922, -0.19200000911951065, 1.0400000493973494, 0.0, 0.0, 0.0, 0.0, 0.0, 1.7103877750951703E9, 0.0, 2024-03-13 20:42:55.095
49.0, -42.73957669362426, 509.18737896718085, -41.247356611303985, 4943.1061792843975, 0.01600000075995922, -0.19200000911951065, 1.0400000493973494, 0.0, 0.0, 0.0, 0.0, 0.0, 1.7103877750951703E9, 0.0, 2024-03-13 20:42:55.095
50.0, -193.9269023523666, 617.8314726799726, -215.47994579700753, 5041.409449619707, 0.01600000075995922, -0.19200000911951065, 1.0400000493973494, 0.0, 0.0, 0.0, 0.0, 0.0, 1.7103877751087756E9, 0.0, 2024-03-13 20:42:55.108
50.0, -120.93527491716668, 549.7989525860175, -109.66695635067299, 4928.460731057916, 0.01600000075995922, -0.19200000911951065, 1.0400000493973494, 0.0, 0.0, 0.0, 0.0, 0.0, 1.7103877751087756E9, 0.0, 2024-03-13 20:42:55.108
51.0, -4.274705649353564, 497.3767749071121, 9.076737192459404, 4908.893574489746, 0.01600000075995922, -0.19200000911951065, 1.0400000493973494, 0.0, 0.0, 0.0, 0.0, 0.0, 1.7103877751244345E9, 0.0, 2024-03-13 20:42:55.124
51.0, 144.22924179118127, 408.85521290590987, 125.81397440936416, 4850.833497627638, 0.01600000075995922, -0.19200000911951065, 1.0400000493973494, 0.0, 0.0, 0.0, 0.0, 0.0, 1.7103877751244345E9, 0.0, 2024-03-13 20:42:55.124
52.0, -71.05622920813039, 216.70102313254029, -60.27409763587639, 5094.532858540304, 0.01600000075995922, -0.19200000911951065, 1.0400000493973494, 0.0, 0.0, 0.0, 0.0, 0.0, 1.710387775125132E9, 0.0, 2024-03-13 20:42:55.125
52.0, 100.87258160486817, 123.82060773298144, 124.23947652801871, 5007.595144170336, 0.01600000075995922, -0.19200000911951065, 1.0400000493973494, 0.0, 0.0, 0.0, 0.0, 0.0, 1.710387775125132E9, 0.0, 2024-03-13 20:42:55.125
53.0, 14.641708326525986, 162.8576834704727, -8.504532499238849, 5098.175521097146, 0.01600000075995922, -0.19200000911951065, 1.0400000493973494, 0.0, 0.0, 0.0, 0.0, 0.0, 1.7103877751553147E9, 0.0, 2024-03-13 20:42:55.155
53.0, -95.59371281741187, 223.56747945118695, -116.8513041655533, 5123.614320595749, 0.01600000075995922, -0.19200000911951065, 1.0400000493973494, 0.0, 0.0, 0.0, 0.0, 0.0, 1.7103877751553147E9, 0.0, 2024-03-13 20:42:55.155
54.0, -248.48456290597096, 326.60733308037743, -236.47200424829498, 5198.361831060145, 0.01600000075995922, -0.19200000911951065, 1.0400000493973494, 0.0, 0.0, 0.0, 0.0, 0.0, 1.710387775155787E9, 0.0, 2024-03-13 20:42:55.155
54.0, -59.13155819941312, 488.77500500902534, -57.51966131851077, 5420.431480579078, 0.01600000075995922, -0.19200000911951065, 1.0400000493973494, 0.0, 0.0, 0.0, 0.0, 0.0, 1.710387775155787E9, 0.0, 2024-03-13 20:42:55.155
55.0, -217.0095648788847, 599.0833542020991, -232.4628314957954, 5519.291996007785, 0.01600000075995922, -0.19200000911951065, 1.0400000493973494, 0.0, 0.0, 0.0, 0.0, 0.0, 1.7103877751565533E9, 0.0, 2024-03-13 20:42:55.156
55.0, -151.2022852585651, 532.1167055955157, -130.17656770767644, 5396.297906165011, 0.01600000075995922, -0.19200000911951065, 1.0400000493973494, 0.0, 0.0, 0.0, 0.0, 0.0, 1.7103877751565533E9, 0.0, 2024-03-13 20:42:55.156
56.0, -34.89700648654252, 480.31535130925477, -5.460253935307264, 5386.203916184604, 0.01600000075995922, -0.19200000911951065, 1.0400000493973494, 0.0, 0.0, 0.0, 0.0, 0.0, 1.71038777516877E9, 0.0, 2024-03-13 20:42:55.168
56.0, 106.57592903729528, 380.0430236472748, 103.1240013781935, 5316.553889359813, 0.01600000075995922, -0.19200000911951065, 1.0400000493973494, 0.0, 0.0, 0.0, 0.0, 0.0, 1.71038777516877E9, 0.0, 2024-03-13 20:42:55.168
57.0, -96.5847863056697, 195.95579807832837, -81.78226228104904, 5073.537060189061, 0.01600000075995922, -0.19200000911951065, 1.0400000493973494, 0.0, 0.0, 0.0, 0.0, 0.0, 1.710387775184415E9, 0.0, 2024-03-13 20:42:55.184
57.0, 106.87512103375047, 110.91421298589557, 106.20193904172629, 4991.502354661003, 0.01600000075995922, -0.19200000911951065, 1.0400000493973494, 0.0, 0.0, 0.0, 0.0, 0.0, 1.710387775184415E9, 0.0, 2024-03-13 20:42:55.184
58.0, 0.7554597910493612, 153.94924177601933, -12.248172354884446, 5086.982000529766, 0.01600000075995922, -0.19200000911951065, 1.0400000493973494, 0.0, 0.0, 0.0, 0.0, 0.0, 1.710387775185262E9, 0.0, 2024-03-13 20:42:55.185
58.0, -99.53930727066472, 222.35575186554343, -118.09669085079804, 5119.25733714737, 0.01600000075995922, -0.19200000911951065, 1.0400000493973494, 0.0, 0.0, 0.0, 0.0, 0.0, 1.710387775185262E9, 0.0, 2024-03-13 20:42:55.185
59.0, -254.97702922904864, 320.4327582535334, -238.55886842356995, 5190.6613770513795, 0.01600000075995922, -0.19200000911951065, 1.0400000493973494, 0.0, 0.0, 0.0, 0.0, 0.0, 1.710387775199185E9, 0.0, 2024-03-13 20:42:55.199
59.0, -50.74296259880066, 495.17771373316646, -55.11490564700216, 5421.504831866361, 0.01600000075995922, -0.19200000911951065, 1.0400000493973494, 0.0, 0.0, 0.0, 0.0, 0.0, 1.710387775199185E9, 0.0, 2024-03-13 20:42:55.199
60.0, -208.5985298785381, 602.5652010608464, -242.75503617385402, 5515.473558153026, 0.01600000075995922, -0.19200000911951065, 1.0400000493973494, 0.0, 0.0, 0.0, 0.0, 0.0, 1.7103877752145662E9, 0.0, 2024-03-13 20:42:55.214
60.0, -129.7464792127721, 536.7541815405712, -130.77495170058683, 5399.166409431025, 0.01600000075995922, -0.19200000911951065, 1.0400000493973494, 0.0, 0.0, 0.0, 0.0, 0.0, 1.7103877752145662E9, 0.0, 2024-03-13 20:42:55.214
61.0, -15.228872619569302, 482.7163670808077, -13.392581741325557, 5379.281361366622, 0.01600000075995922, -0.19200000911951065, 1.0400000493973494, 0.0, 0.0, 0.0, 0.0, 0.0, 1.7103877752151208E9, 0.0, 2024-03-13 20:42:55.215
61.0, 139.3224930493161, 387.2722502616234, 100.01614451501518, 5317.851634644438, 0.01600000075995922, -0.19200000911951065, 1.0400000493973494, 0.0, 0.0, 0.0, 0.0, 0.0, 1.7103877752151208E9, 0.0, 2024-03-13 20:42:55.215
62.0, -70.72711801202968, 195.18163878750056, -84.26181595167145, 5562.168079049792, 0.01600000075995922, -0.19200000911951065, 1.0400000493973494, 0.0, 0.0, 0.0, 0.0, 0.0, 1.7103877752287328E9, 0.0, 2024-03-13 20:42:55.228
62.0, 98.77823762968183, 115.15525953564793, 110.21859159413725, 5488.121799827088, 0.01600000075995922, -0.19200000911951065, 1.0400000493973494, 0.0, 0.0, 0.0, 0.0, 0.0, 1.7103877752287328E9, 0.0, 2024-03-13 20:42:55.228
63.0, 4.783332043327391, 155.2582067605108, -19.66065406706184, 5580.3514726343565, 0.01600000075995922, -0.19200000911951065, 1.0400000493973494, 0.0, 0.0, 0.0, 0.0, 0.0, 1.7103877752444675E9, 0.0, 2024-03-13 20:42:55.244
63.0, -100.79591365577653, 214.1765906624496, -128.59085012646392, 5601.934435278643, 0.01600000075995922, -0.19200000911951065, 1.0400000493973494, 0.0, 0.0, 0.0, 0.0, 0.0, 1.7103877752444675E9, 0.0, 2024-03-13 20:42:55.244
64.0, -260.4410230643116, 312.47425114782527, -246.93998422427103, 5672.717651790008, 0.01600000075995922, -0.19200000911951065, 1.0400000493973494, 0.0, 0.0, 0.0, 0.0, 0.0, 1.710387775245375E9, 0.0, 2024-03-13 20:42:55.245
64.0, -56.45752973109484, 485.7419461449608, -60.50410148315132, 5906.414650271181, 0.01600000075995922, -0.19200000911951065, 1.0400000493973494, 0.0, 0.0, 0.0, 0.0, 0.0, 1.710387775245375E9, 0.0, 2024-03-13 20:42:55.245
65.0, -222.10704851849005, 590.4516651043668, -240.9075255957432, 6003.233180324081, 0.01600000075995922, -0.19200000911951065, 1.0400000493973494, 0.0, 0.0, 0.0, 0.0, 0.0, 1.7103877752588603E9, 0.0, 2024-03-13 20:42:55.258
65.0, -141.62440147204325, 535.5574135547504, -126.01031915703788, 5894.499329012353, 0.01600000075995922, -0.19200000911951065, 1.0400000493973494, 0.0, 0.0, 0.0, 0.0, 0.0, 1.7103877752588603E9, 0.0, 2024-03-13 20:42:55.258
66.0, -20.434813357889652, 473.860283985734, -13.190627143718302, 5869.4307796093635, 0.01600000075995922, -0.19200000911951065, 1.0400000493973494, 0.0, 0.0, 0.0, 0.0, 0.0, 1.710387775274435E9, 0.0, 2024-03-13 20:42:55.274
66.0, 126.1318659055978, 371.3365365504287, 92.77943810075521, 5796.691595421173, 0.01600000075995922, -0.19200000911951065, 1.0400000493973494, 0.0, 0.0, 0.0, 0.0, 0.0, 1.710387775274435E9, 0.0, 2024-03-13 20:42:55.274
67.0, -74.20896487077698, 186.81548258662224, -90.57476707687601, 5554.920152935665, 0.01600000075995922, -0.19200000911951065, 1.0400000493973494, 0.0, 0.0, 0.0, 0.0, 0.0, 1.7103877752752092E9, 0.0, 2024-03-13 20:42:55.275
67.0, 98.29953043535352, 112.2381375702098, 108.82360891066492, 5480.589641316328, 0.01600000075995922, -0.19200000911951065, 1.0400000493973494, 0.0, 0.0, 0.0, 0.0, 0.0, 1.7103877752752092E9, 0.0, 2024-03-13 20:42:55.275
68.0, 5.5761908339336514, 155.45642145816237, -16.87068870011717, 5577.355812769849, 0.01600000075995922, -0.19200000911951065, 1.0400000493973494, 0.0, 0.0, 0.0, 0.0, 0.0, 1.7103877752888248E9, 0.0, 2024-03-13 20:42:55.288
68.0, -116.88122336519882, 218.83650600723922, -125.65128876129165, 5606.863623420242, 0.01600000075995922, -0.19200000911951065, 1.0400000493973494, 0.0, 0.0, 0.0, 0.0, 0.0, 1.7103877752888248E9, 0.0, 2024-03-13 20:42:55.288
69.0, -247.9160981127061, 320.8291876488365, -247.07462062267587, 5680.702338195406, 0.01600000075995922, -0.19200000911951065, 1.0400000493973494, 0.0, 0.0, 0.0, 0.0, 0.0, 1.7103877753044975E9, 0.0, 2024-03-13 20:42:55.304
69.0, -52.7662484748289, 496.54651711694896, -55.44401684310287, 5911.770187007729, 0.01600000075995922, -0.19200000911951065, 1.0400000493973494, 0.0, 0.0, 0.0, 0.0, 0.0, 1.7103877753044975E9, 0.0, 2024-03-13 20:42:55.304
70.0, -203.57958413800225, 600.3212610874325, -236.93949174275622, 6001.9167355396785, 0.01600000075995922, -0.19200000911951065, 1.0400000493973494, 0.0, 0.0, 0.0, 0.0, 0.0, 1.7103877753051689E9, 0.0, 2024-03-13 20:42:55.305
70.0, -131.18634069571272, 537.5171211315319, -129.90355501091108, 5891.615866146516, 0.01600000075995922, -0.19200000911951065, 1.0400000493973494, 0.0, 0.0, 0.0, 0.0, 0.0, 1.7103877753051689E9, 0.0, 2024-03-13 20:42:55.305
71.0, -14.679107326082885, 481.1156898997724, -9.981792981736362, 5870.567709195893, 0.01600000075995922, -0.19200000911951065, 1.0400000493973494, 0.0, 0.0, 0.0, 0.0, 0.0, 1.7103877753187597E9, 0.0, 2024-03-13 20:42:55.318
71.0, 136.20715638622642, 374.8333430089988, 95.85737576428801, 5796.665416121483, 0.01600000075995922, -0.19200000911951065, 1.0400000493973494, 0.0, 0.0, 0.0, 0.0, 0.0, 1.7103877753187597E9, 0.0, 2024-03-13 20:42:55.318
72.0, -76.00411684950814, 196.93191196676344, -83.62603295920417, 5557.579221804161, 0.01600000075995922, -0.19200000911951065, 1.0400000493973494, 0.0, 0.0, 0.0, 0.0, 0.0, 1.7103877753348672E9, 0.0, 2024-03-13 20:42:55.334
72.0, 94.67930727824569, 112.34285476896912, 104.06271626707166, 5485.298175360542, 0.01600000075995922, -0.19200000911951065, 1.0400000493973494, 0.0, 0.0, 0.0, 0.0, 0.0, 1.7103877753348672E9, 0.0, 2024-03-13 20:42:55.334
73.0, 6.761739119887352, 150.142023621127, -17.136221596971154, 5578.6872171540745, 0.01600000075995922, -0.19200000911951065, 1.0400000493973494, 0.0, 0.0, 0.0, 0.0, 0.0, 1.7103877753354049E9, 0.0, 2024-03-13 20:42:55.335
73.0, -97.93489018967375, 216.94411662966013, -123.9309347816743, 5607.222653815988, 0.01600000075995922, -0.19200000911951065, 1.0400000493973494, 0.0, 0.0, 0.0, 0.0, 0.0, 1.7103877753354049E9, 0.0, 2024-03-13 20:42:55.335
74.0, -255.7661481196992, 313.81313533196226, -241.77144248550758, 5674.11263447348, 0.01600000075995922, -0.19200000911951065, 1.0400000493973494, 0.0, 0.0, 0.0, 0.0, 0.0, 1.7103877753490071E9, 0.0, 2024-03-13 20:42:55.349
74.0, -60.84817227907479, 488.57679031137377, -51.62557898834348, 5911.164323214907, 0.01600000075995922, -0.19200000911951065, 1.0400000493973494, 0.0, 0.0, 0.0, 0.0, 0.0, 1.7103877753490071E9, 0.0, 2024-03-13 20:42:55.349
75.0, -209.02861837344244, 597.179745124653, -234.9049861668609, 6011.075750531163, 0.01600000075995922, -0.19200000911951065, 1.0400000493973494, 0.0, 0.0, 0.0, 0.0, 0.0, 1.7103877753644009E9, 0.0, 2024-03-13 20:42:55.364
75.0, -132.6748208780773, 539.0542200133204, -126.51894555101171, 5897.498728776816, 0.01600000075995922, -0.19200000911951065, 1.0400000493973494, 0.0, 0.0, 0.0, 0.0, 0.0, 1.7103877753644009E9, 0.0, 2024-03-13 20:42:55.364
76.0, -19.122108473442495, 482.4059553844854, -8.900961894541979, 5877.385546815116, 0.01600000075995922, -0.19200000911951065, 1.0400000493973494, 0.0, 0.0, 0.0, 0.0, 0.0, 1.7103877753651137E9, 0.0, 2024-03-13 20:42:55.365
76.0, 141.54025372304022, 389.34041493711993, 102.26756428834051, 5812.522591933608, 0.01600000075995922, -0.19200000911951065, 1.0400000493973494, 0.0, 0.0, 0.0, 0.0, 0.0, 1.7103877753651137E9, 0.0, 2024-03-13 20:42:55.365
77.0, -56.343462782446295, 210.63864530436695, -76.56884174281731, 5573.260622318368, 0.01600000075995922, -0.19200000911951065, 1.0400000493973494, 0.0, 0.0, 0.0, 0.0, 0.0, 1.7103877753787453E9, 0.0, 2024-03-13 20:42:55.378
77.0, 86.41412837617099, 103.33717567566782, 96.75495175365359, 5469.650433945935, 0.01600000075995922, -0.19200000911951065, 1.0400000493973494, 0.0, 0.0, 0.0, 0.0, 0.0, 1.7103877753787453E9, 0.0, 2024-03-13 20:42:55.378
78.0, -4.106410151347518, 146.60033836308867, -14.810003824532032, 5575.24650919484, 0.01600000075995922, -0.19200000911951065, 1.0400000493973494, 0.0, 0.0, 0.0, 0.0, 0.0, 1.710387775394431E9, 0.0, 2024-03-13 20:42:55.394
78.0, -119.31963813630864, 211.15849139820784, -129.72029991308227, 5599.252927010413, 0.01600000075995922, -0.19200000911951065, 1.0400000493973494, 0.0, 0.0, 0.0, 0.0, 0.0, 1.710387775394431E9, 0.0, 2024-03-13 20:42:55.394
79.0, -269.0016540628858, 313.44662513630465, -244.00790265901014, 5677.17561253719, 0.01600000075995922, -0.19200000911951065, 1.0400000493973494, 0.0, 0.0, 0.0, 0.0, 0.0, 1.7103877753951085E9, 0.0, 2024-03-13 20:42:55.395
79.0, -61.53257397096604, 490.77211158536375, -55.12612534686923, 5904.926170088816, 0.01600000075995922, -0.19200000911951065, 1.0400000493973494, 0.0, 0.0, 0.0, 0.0, 0.0, 1.7103877753951085E9, 0.0, 2024-03-13 20:42:55.395
80.0, -214.3018773109652, 588.2563438303769, -243.10284686973318, 5999.9383284631185, 0.01600000075995922, -0.19200000911951065, 1.0400000493973494, 0.0, 0.0, 0.0, 0.0, 0.0, 1.7103877754087636E9, 0.0, 2024-03-13 20:42:55.408
80.0, -135.0496573499404, 525.6803377717733, -130.87592899939045, 5891.084800352808, 0.01600000075995922, -0.19200000911951065, 1.0400000493973494, 0.0, 0.0, 0.0, 0.0, 0.0, 1.7103877754087636E9, 0.0, 2024-03-13 20:42:55.408
81.0, -21.089295850135386, 472.5999377006665, -2.8460638662800193, 5876.08032173058, 0.01600000075995922, -0.19200000911951065, 1.0400000493973494, 0.0, 0.0, 0.0, 0.0, 0.0, 1.710387775424423E9, 0.0, 2024-03-13 20:42:55.424
81.0, 108.94702560920268, 364.2307266346179, 101.03713720291853, 5800.068725081161, 0.01600000075995922, -0.19200000911951065, 1.0400000493973494, 0.0, 0.0, 0.0, 0.0, 0.0, 1.710387775424423E9, 0.0, 2024-03-13 20:42:55.424
82.0, -77.42901873262599, 180.28935716394335, -82.13755277683958, 5559.0041236872785, 0.01600000075995922, -0.19200000911951065, 1.0400000493973494, 0.0, 0.0, 0.0, 0.0, 0.0, 1.7103877754251103E9, 0.0, 2024-03-13 20:42:55.425
82.0, 71.71258165035397, 96.11542886123061, 106.16454004216939, 5481.419899106491, 0.01600000075995922, -0.19200000911951065, 1.0400000493973494, 0.0, 0.0, 0.0, 0.0, 0.0, 1.7103877754251103E9, 0.0, 2024-03-13 20:42:55.425
83.0, -14.593089627102017, 136.356752384454, -18.841615976765752, 5574.304054406006, 0.01600000075995922, -0.19200000911951065, 1.0400000493973494, 0.0, 0.0, 0.0, 0.0, 0.0, 1.7103877754386995E9, 0.0, 2024-03-13 20:42:55.438
83.0, -125.94674085779116, 207.97957643587142, -125.72234686044976, 5601.089217888657, 0.01600000075995922, -0.19200000911951065, 1.0400000493973494, 0.0, 0.0, 0.0, 0.0, 0.0, 1.7103877754386995E9, 0.0, 2024-03-13 20:42:55.438
84.0, -262.98041513422504, 318.9891568706371, -238.3157749264501, 5680.34330779966, 0.01600000075995922, -0.19200000911951065, 1.0400000493973494, 0.0, 0.0, 0.0, 0.0, 0.0, 1.7103877754550557E9, 0.0, 2024-03-13 20:42:55.455
84.0, -57.710396216250956, 480.73048020433635, -61.64477096963674, 5902.570033116732, 0.01600000075995922, -0.19200000911951065, 1.0400000493973494, 0.0, 0.0, 0.0, 0.0, 0.0, 1.7103877754550557E9, 0.0, 2024-03-13 20:42:55.455
85.0, -217.54811047250405, 575.0283176871017, -248.5406614053063, 5989.971495081205, 0.01600000075995922, -0.19200000911951065, 1.0400000493973494, 0.0, 0.0, 0.0, 0.0, 0.0, 1.7103877754552455E9, 0.0, 2024-03-13 20:42:55.455
85.0, -158.51378967193887, 518.7951819533482, -138.03035761462525, 5881.170325570274, 0.01600000075995922, -0.19200000911951065, 1.0400000493973494, 0.0, 0.0, 0.0, 0.0, 0.0, 1.7103877754552455E9, 0.0, 2024-03-13 20:42:55.455
86.0, -36.49020386766642, 465.98405467905104, -10.793351272121072, 5865.743238253053, 0.01600000075995922, -0.19200000911951065, 1.0400000493973494, 0.0, 0.0, 0.0, 0.0, 0.0, 1.7103877754687448E9, 0.0, 2024-03-13 20:42:55.468
86.0, 116.42308562062681, 366.5270252074115, 95.8237166646868, 5794.234481150284, 0.01600000075995922, -0.19200000911951065, 1.0400000493973494, 0.0, 0.0, 0.0, 0.0, 0.0, 1.7103877754687448E9, 0.0, 2024-03-13 20:42:55.468
87.0, -89.78564818622544, 182.91476693283767, -86.85356662096456, 5554.725678137969, 0.01600000075995922, -0.19200000911951065, 1.0400000493973494, 0.0, 0.0, 0.0, 0.0, 0.0, 1.7103877754847891E9, 0.0, 2024-03-13 20:42:55.484
87.0, 82.8537436183542, 105.16972665395588, 106.29917644057423, 5478.192365444731, 0.01600000075995922, -0.19200000911951065, 1.0400000493973494, 0.0, 0.0, 0.0, 0.0, 0.0, 1.7103877754847891E9, 0.0, 2024-03-13 20:42:55.484
88.0, -7.887449006550014, 134.94681010115892, -21.28751054778695, 5568.802661571186, 0.01600000075995922, -0.19200000911951065, 1.0400000493973494, 0.0, 0.0, 0.0, 0.0, 0.0, 1.7103877754853244E9, 0.0, 2024-03-13 20:42:55.485
88.0, -114.46898789377883, 201.1654787166044, -135.86869544023648, 5593.429902779404, 0.01600000075995922, -0.19200000911951065, 1.0400000493973494, 0.0, 0.0, 0.0, 0.0, 0.0, 1.7103877754853244E9, 0.0, 2024-03-13 20:42:55.485
89.0, -270.05256595043465, 310.391126872506, -247.85999961337075, 5668.495304740034, 0.01600000075995922, -0.19200000911951065, 1.0400000493973494, 0.0, 0.0, 0.0, 0.0, 0.0, 1.7103877754991808E9, 0.0, 2024-03-13 20:42:55.499
89.0, -67.45657550077885, 483.4867864716798, -64.33749893773347, 5896.65351138683, 0.01600000075995922, -0.19200000911951065, 1.0400000493973494, 0.0, 0.0, 0.0, 0.0, 0.0, 1.7103877754991808E9, 0.0, 2024-03-13 20:42:55.499
90.0, -213.38934172177687, 580.4249933231622, -248.9894493999891, 5992.914796346333, 0.01600000075995922, -0.19200000911951065, 1.0400000493973494, 0.0, 0.0, 0.0, 0.0, 0.0, 1.7103877755144455E9, 0.0, 2024-03-13 20:42:55.514
90.0, -133.8267100644298, 529.6670711245388, -133.50133876828477, 5887.101806899998, 0.01600000075995922, -0.19200000911951065, 1.0400000493973494, 0.0, 0.0, 0.0, 0.0, 0.0, 1.7103877755144455E9, 0.0, 2024-03-13 20:42:55.514
91.0, -44.011142678558826, 470.4494952261448, -8.541931498795748, 5863.85458877543, 0.01600000075995922, -0.19200000911951065, 1.0400000493973494, 0.0, 0.0, 0.0, 0.0, 0.0, 1.7103877755154283E9, 0.0, 2024-03-13 20:42:55.515
91.0, 122.13765275292099, 364.49999943142757, 94.92240077536553, 5792.241114473902, 0.01600000075995922, -0.19200000911951065, 1.0400000493973494, 0.0, 0.0, 0.0, 0.0, 0.0, 1.7103877755154283E9, 0.0, 2024-03-13 20:42:55.515
92.0, -89.45653699012473, 186.20587889384478, -85.52590213669464, 5557.014496910851, 0.01600000075995922, -0.19200000911951065, 1.0400000493973494, 0.0, 0.0, 0.0, 0.0, 0.0, 1.7103877755287924E9, 0.0, 2024-03-13 20:42:55.528
92.0, 90.01565203350037, 116.0902345245704, 107.54456312581897, 5488.43221152341, 0.01600000075995922, -0.19200000911951065, 1.0400000493973494, 0.0, 0.0, 0.0, 0.0, 0.0, 1.7103877755287924E9, 0.0, 2024-03-13 20:42:55.528
93.0, -9.619022686034441, 143.54110019933432, -21.73629854246974, 5575.616759290453, 0.01600000075995922, -0.19200000911951065, 1.0400000493973494, 0.0, 0.0, 0.0, 0.0, 0.0, 1.710387775544449E9, 0.0, 2024-03-13 20:42:55.544
93.0, -119.70110793178901, 218.14836441539228, -125.39323566434905, 5607.821037808899, 0.01600000075995922, -0.19200000911951065, 1.0400000493973494, 0.0, 0.0, 0.0, 0.0, 0.0, 1.710387775544449E9, 0.0, 2024-03-13 20:42:55.544
94.0, -243.88074606051669, 331.30464742472395, -233.43520548427477, 5687.808148111217, 0.01600000075995922, -0.19200000911951065, 1.0400000493973494, 0.0, 0.0, 0.0, 0.0, 0.0, 1.7103877755451653E9, 0.0, 2024-03-13 20:42:55.545
94.0, -52.41469787899405, 490.9030080838129, -57.99836851283908, 5905.805046578404, 0.01600000075995922, -0.19200000911951065, 1.0400000493973494, 0.0, 0.0, 0.0, 0.0, 0.0, 1.7103877755451653E9, 0.0, 2024-03-13 20:42:55.545
95.0, -232.1337202996947, 590.3058090060949, -244.52026895293966, 5999.4446616689675, 0.01600000075995922, -0.19200000911951065, 1.0400000493973494, 0.0, 0.0, 0.0, 0.0, 0.0, 1.7103877755586724E9, 0.0, 2024-03-13 20:42:55.558
95.0, -129.69786051334813, 537.7265555290505, -130.9694264982827, 5894.985516006593, 0.01600000075995922, -0.19200000911951065, 1.0400000493973494, 0.0, 0.0, 0.0, 0.0, 0.0, 1.7103877755586724E9, 0.0, 2024-03-13 20:42:55.558
96.0, -15.513105016201735, 482.8136044796556, -5.748226231895387, 5877.905392908957, 0.01600000075995922, -0.19200000911951065, 1.0400000493973494, 0.0, 0.0, 0.0, 0.0, 0.0, 1.7103877755744064E9, 0.0, 2024-03-13 20:42:55.574
96.0, 129.00410907156765, 380.6488874400966, 101.11567510198802, 5805.86557001248, 0.01600000075995922, -0.19200000911951065, 1.0400000493973494, 0.0, 0.0, 0.0, 0.0, 0.0, 1.7103877755744064E9, 0.0, 2024-03-13 20:42:55.574
97.0, -68.64773363666609, 205.20083076879382, -78.2779760225676, 5572.737036324572, 0.01600000075995922, -0.19200000911951065, 1.0400000493973494, 0.0, 0.0, 0.0, 0.0, 0.0, 1.7103877755751183E9, 0.0, 2024-03-13 20:42:55.575
97.0, 110.89551348611712, 129.52769506536424, 118.11726030055434, 5499.345239594113, 0.01600000075995922, -0.19200000911951065, 1.0400000493973494, 0.0, 0.0, 0.0, 0.0, 0.0, 1.7103877755751183E9, 0.0, 2024-03-13 20:42:55.575
98.0, 14.275198130868375, 160.46414749883115, -16.803370500914752, 5584.959029379766, 0.01600000075995922, -0.19200000911951065, 1.0400000493973494, 0.0, 0.0, 0.0, 0.0, 0.0, 1.7103877755887866E9, 0.0, 2024-03-13 20:42:55.588
98.0, -89.51263548946008, 225.4785683285445, -124.84347037086263, 5611.474920065608, 0.01600000075995922, -0.19200000911951065, 1.0400000493973494, 0.0, 0.0, 0.0, 0.0, 0.0, 1.7103877755887866E9, 0.0, 2024-03-13 20:42:55.588
99.0, -240.81402809685096, 327.56100756907836, -237.90064603136852, 5686.480483626947, 0.01600000075995922, -0.19200000911951065, 1.0400000493973494, 0.0, 0.0, 0.0, 0.0, 0.0, 1.7103877756048152E9, 0.0, 2024-03-13 20:42:55.604
99.0, -49.13854551780969, 494.5419307406992, -55.55621384177357, 5909.313072736841, 0.01600000075995922, -0.19200000911951065, 1.0400000493973494, 0.0, 0.0, 0.0, 0.0, 0.0, 1.7103877756048152E9, 0.0, 2024-03-13 20:42:55.604
100.0, -223.87602119753137, 600.4820767855272, -235.9072793549858, 6011.947147220839, 0.01600000075995922, -0.19200000911951065, 1.0400000493973494, 0.0, 0.0, 0.0, 0.0, 0.0, 1.7103877756053233E9, 0.0, 2024-03-13 20:42:55.605
100.0, -124.07305097999051, 553.520153041929, -118.19392824964598, 5908.6398907448165, 0.01600000075995922, -0.19200000911951065, 1.0400000493973494, 0.0, 0.0, 0.0, 0.0, 0.0, 1.7103877756053233E9, 0.0, 2024-03-13 20:42:55.605
0.0, -652.1899335728958, -403.1238162238151, -399.84953381260857, -552.9198990990408, 0.01600000075995922, -0.19200000911951065, 1.0400000493973494, 0.0, 0.0, 0.0, 0.0, 0.0, 1.71038777561965E9, 0.0, 2024-03-13 20:42:55.619
1.0, -511.25928354263306, -511.09659789456055, -296.44503993773833, -626.956828571856, 0.01600000075995922, -0.19200000911951065, 1.0400000493973494, 0.0, 0.0, 0.0, 0.0, 0.0, 1.7103877756201673E9, 0.0, 2024-03-13 20:42:55.620
1.0, -715.059521778021, -687.0046622604132, -480.68934130482376, -856.7643310991116, 0.01600000075995922, -0.19200000911951065, 1.0400000493973494, 0.0, 0.0, 0.0, 0.0, 0.0, 1.7103877756201673E9, 0.0, 2024-03-13 20:42:55.620
2.0, -533.8819383746013, -771.0551738645881, -284.46240047970787, -932.8338961978443, 0.01600000075995922, -0.19200000911951065, 1.0400000493973494, 0.0, 0.0, 0.0, 0.0, 0.0, 1.7103877756337843E9, 0.0, 2024-03-13 20:42:55.633
2.0, -629.466301442124, -740.6871862243861, -419.6336045782082, -851.1806604652666, 0.01600000075995922, -0.19200000911951065, 1.0400000493973494, 0.0, 0.0, 0.0, 0.0, 0.0, 1.7103877756337843E9, 0.0, 2024-03-13 20:42:55.633
3.0, -745.9436156121083, -668.0097103854641, -525.2315497770905, -820.6331576271914, 0.01600000075995922, -0.19200000911951065, 1.0400000493973494, 0.0, 0.0, 0.0, 0.0, 0.0, 1.71038777564941E9, 0.0, 2024-03-13 20:42:55.649
3.0, -911.4042694517411, -558.488610133063, -635.0237927762792, -739.8494486343116, 0.01600000075995922, -0.19200000911951065, 1.0400000493973494, 0.0, 0.0, 0.0, 0.0, 0.0, 1.71038777564941E9, 0.0, 2024-03-13 20:42:55.649
4.0, -677.2435233760625, -403.79699821583927, -457.18220013333485, -523.2587525504641, 0.01600000075995922, -0.19200000911951065, 1.0400000493973494, 0.0, 0.0, 0.0, 0.0, 0.0, 1.71038777565021E9, 0.0, 2024-03-13 20:42:55.650
4.0, -858.5370436781086, -303.335805606097, -644.0780905690044, -426.6646164949052, 0.01600000075995922, -0.19200000911951065, 1.0400000493973494, 0.0, 0.0, 0.0, 0.0, 0.0, 1.71038777565021E9, 0.0, 2024-03-13 20:42:55.650
5.0, -757.8477171710692, -356.3114884784445, -526.5031157620251, -531.0003454587422, 0.01600000075995922, -0.19200000911951065, 1.0400000493973494, 0.0, 0.0, 0.0, 0.0, 0.0, 1.7103877756637597E9, 0.0, 2024-03-13 20:42:55.663
5.0, -636.9274018537253, -408.7486257571727, -399.8719732123427, -552.7516036010347, 0.01600000075995922, -0.19200000911951065, 1.0400000493973494, 0.0, 0.0, 0.0, 0.0, 0.0, 1.7103877756637597E9, 0.0, 2024-03-13 20:42:55.663
6.0, -517.5049164686352, -514.8963362495415, -297.5969291240908, -631.1642160220072, 0.01600000075995922, -0.19200000911951065, 1.0400000493973494, 0.0, 0.0, 0.0, 0.0, 0.0, 1.710387775679573E9, 0.0, 2024-03-13 20:42:55.679
6.0, -714.7304105819203, -687.8835387500003, -478.0153128365055, -857.9461394851096, 0.01600000075995922, -0.19200000911951065, 1.0400000493973494, 0.0, 0.0, 0.0, 0.0, 0.0, 1.710387775679573E9, 0.0, 2024-03-13 20:42:55.679
7.0, -550.251480480656, -771.6872169570997, -286.31739085773006, -935.780937362928, 0.01600000075995922, -0.19200000911951065, 1.0400000493973494, 0.0, 0.0, 0.0, 0.0, 0.0, 1.710387775680144E9, 0.0, 2024-03-13 20:42:55.680
7.0, -650.8286099890247, -752.0677017895505, -423.24634793540463, -860.8333422509022, 0.01600000075995922, -0.19200000911951065, 1.0400000493973494, 0.0, 0.0, 0.0, 0.0, 0.0, 1.710387775680144E9, 0.0, 2024-03-13 20:42:55.680
8.0, -751.8414378422312, -677.9204452680424, -528.7433158354834, -830.0913646151312, 0.01600000075995922, -0.19200000911951065, 1.0400000493973494, 0.0, 0.0, 0.0, 0.0, 0.0, 1.7103877757102044E9, 0.0, 2024-03-13 20:42:55.710
8.0, -905.5662856209092, -564.5322884614579, -640.5625846106559, -752.7633231813088, 0.01600000075995922, -0.19200000911951065, 1.0400000493973494, 0.0, 0.0, 0.0, 0.0, 0.0, 1.7103877757102044E9, 0.0, 2024-03-13 20:42:55.710
9.0, -697.3529654378071, -408.8346434561536, -461.232511785347, -532.9413535357453, 0.01600000075995922, -0.19200000911951065, 1.0400000493973494, 0.0, 0.0, 0.0, 0.0, 0.0, 1.7103877757108874E9, 0.0, 2024-03-13 20:42:55.710
9.0, -854.4755123262294, -304.5849321912974, -647.339283330366, -432.35674422746524, 0.01600000075995922, -0.19200000911951065, 1.0400000493973494, 0.0, 0.0, 0.0, 0.0, 0.0, 1.7103877757108874E9, 0.0, 2024-03-13 20:42:55.710
10.0, -779.2511646174826, -341.3182295560837, -526.0730272671208, -528.5245316880755, 0.01600000075995922, -0.19200000911951065, 1.0400000493973494, 0.0, 0.0, 0.0, 0.0, 0.0, 1.7103877757117305E9, 0.0, 2024-03-13 20:42:55.711
10.0, -653.2558050602674, -402.36461653281003, -401.1659785970114, -549.8232619357295, 0.01600000075995922, -0.19200000911951065, 1.0400000493973494, 0.0, 0.0, 0.0, 0.0, 0.0, 1.7103877757117305E9, 0.0, 2024-03-13 20:42:55.711
11.0, -523.3578598992899, -522.813704455737, -305.2001457340084, -634.7171209799126, 0.01600000075995922, -0.19200000911951065, 1.0400000493973494, 0.0, 0.0, 0.0, 0.0, 0.0, 1.710387775723785E9, 0.0, 2024-03-13 20:42:55.723
11.0, -720.2018842170946, -695.1800835635513, -491.73326587397605, -866.9518185784109, 0.01600000075995922, -0.19200000911951065, 1.0400000493973494, 0.0, 0.0, 0.0, 0.0, 0.0, 1.710387775723785E9, 0.0, 2024-03-13 20:42:55.723
12.0, -557.7013611923903, -773.0036617415026, -292.6041626832448, -941.9143732902594, 0.01600000075995922, -0.19200000911951065, 1.0400000493973494, 0.0, 0.0, 0.0, 0.0, 0.0, 1.7103877757394469E9, 0.0, 2024-03-13 20:42:55.739
12.0, -650.8884483883157, -752.3369745863602, -426.90770999202505, -865.9682248900644, 0.01600000075995922, -0.19200000911951065, 1.0400000493973494, 0.0, 0.0, 0.0, 0.0, 0.0, 1.7103877757394469E9, 0.0, 2024-03-13 20:42:55.739
13.0, -753.5468322220258, -682.0193756194785, -538.9719422142953, -838.5996370143257, 0.01600000075995922, -0.19200000911951065, 1.0400000493973494, 0.0, 0.0, 0.0, 0.0, 0.0, 1.7103877757401447E9, 0.0, 2024-03-13 20:42:55.740
13.0, -907.4250158988871, -573.4295104560442, -653.5325576569885, -758.320814515464, 0.01600000075995922, -0.19200000911951065, 1.0400000493973494, 0.0, 0.0, 0.0, 0.0, 0.0, 1.7103877757401447E9, 0.0, 2024-03-13 20:42:55.740
14.0, -701.4444159893319, -411.51241182442755, -476.8727734000422, -541.846055330243, 0.01600000075995922, -0.19200000911951065, 1.0400000493973494, 0.0, 0.0, 0.0, 0.0, 0.0, 1.7103877757540216E9, 0.0, 2024-03-13 20:42:55.754
14.0, -863.8252622154541, -314.7125812713057, -662.5943352496251, -444.9639469780959, 0.01600000075995922, -0.19200000911951065, 1.0400000493973494, 0.0, 0.0, 0.0, 0.0, 0.0, 1.7103877757540216E9, 0.0, 2024-03-13 20:42:55.754
15.0, -780.0402835081331, -346.8757208902389, -537.0234543373808, -533.6070557278581, 0.01600000075995922, -0.19200000911951065, 1.0400000493973494, 0.0, 0.0, 0.0, 0.0, 0.0, 1.7103877757696288E9, 0.0, 2024-03-13 20:42:55.769
15.0, -652.7883175658062, -396.7173675997183, -402.9985295752995, -552.0821615089662, 0.01600000075995922, -0.19200000911951065, 1.0400000493973494, 0.0, 0.0, 0.0, 0.0, 0.0, 1.7103877757696288E9, 0.0, 2024-03-13 20:42:55.769
16.0, -512.8599607236683, -512.6823154757731, -299.58281600056216, -627.7122883629054, 0.01600000075995922, -0.19200000911951065, 1.0400000493973494, 0.0, 0.0, 0.0, 0.0, 0.0, 1.7103877757701275E9, 0.0, 2024-03-13 20:42:55.770
16.0, -715.0744813778438, -685.9799296725541, -483.1127964761108, -854.3969744271599, 0.01600000075995922, -0.19200000911951065, 1.0400000493973494, 0.0, 0.0, 0.0, 0.0, 0.0, 1.7103877757701275E9, 0.0, 2024-03-13 20:42:55.770
17.0, -544.017067254521, -769.8658856786788, -290.6332354065962, -940.3847542083822, 0.01600000075995922, -0.19200000911951065, 1.0400000493973494, 0.0, 0.0, 0.0, 0.0, 0.0, 1.7103877757841315E9, 0.0, 2024-03-13 20:42:55.784
17.0, -643.5096257757396, -748.3652008334175, -429.71637485874817, -862.0600294363685, 0.01600000075995922, -0.19200000911951065, 1.0400000493973494, 0.0, 0.0, 0.0, 0.0, 0.0, 1.7103877757841315E9, 0.0, 2024-03-13 20:42:55.784
18.0, -755.4317417996936, -678.5150893609971, -538.5568133192137, -830.3307182122953, 0.01600000075995922, -0.19200000911951065, 1.0400000493973494, 0.0, 0.0, 0.0, 0.0, 0.0, 1.7103877757993944E9, 0.0, 2024-03-13 20:42:55.799
18.0, -898.7147889020853, -559.7788756177761, -642.0398450931534, -743.7090253885835, 0.01600000075995922, -0.19200000911951065, 1.0400000493973494, 0.0, 0.0, 0.0, 0.0, 0.0, 1.7103877757993944E9, 0.0, 2024-03-13 20:42:55.799
19.0, -694.4021843727678, -403.8904957147315, -466.5693490221165, -531.1050626575015, 0.01600000075995922, -0.19200000911951065, 1.0400000493973494, 0.0, 0.0, 0.0, 0.0, 0.0, 1.7103877758001719E9, 0.0, 2024-03-13 20:42:55.800
19.0, -849.4229074860923, -303.1413308084011, -655.1855934374034, -437.20365457003936, 0.01600000075995922, -0.19200000911951065, 1.0400000493973494, 0.0, 0.0, 0.0, 0.0, 0.0, 1.7103877758001719E9, 0.0, 2024-03-13 20:42:55.800
20.0, -768.3119572470896, -343.5322503298521, -532.6776905888692, -528.6890872861259, 0.01600000075995922, -0.19200000911951065, 1.0400000493973494, 0.0, 0.0, 0.0, 0.0, 0.0, 1.7103877758137774E9, 0.0, 2024-03-13 20:42:55.813
20.0, -669.8422613637522, -407.91088816709816, -410.9458169811405, -559.9546509156935, 0.01600000075995922, -0.19200000911951065, 1.0400000493973494, 0.0, 0.0, 0.0, 0.0, 0.0, 1.7103877758137774E9, 0.0, 2024-03-13 20:42:55.813
21.0, -520.6950511308387, -525.0202454295941, -317.00700989412144, -643.8275172719732, 0.01600000075995922, -0.19200000911951065, 1.0400000493973494, 0.0, 0.0, 0.0, 0.0, 0.0, 1.7103877758294075E9, 0.0, 2024-03-13 20:42:55.829
21.0, -722.4233847907744, -699.7315418096259, -496.7933505140245, -876.9336115601473, 0.01600000075995922, -0.19200000911951065, 1.0400000493973494, 0.0, 0.0, 0.0, 0.0, 0.0, 1.7103877758294075E9, 0.0, 2024-03-13 20:42:55.829
22.0, -554.0886178351939, -781.7325882380828, -297.6081488239579, -952.5843078638427, 0.01600000075995922, -0.19200000911951065, 1.0400000493973494, 0.0, 0.0, 0.0, 0.0, 0.0, 1.7103877758303752E9, 0.0, 2024-03-13 20:42:55.830
22.0, -652.3395295711234, -755.7739426456392, -428.2578138760291, -870.0035769422539, 0.01600000075995922, -0.19200000911951065, 1.0400000493973494, 0.0, 0.0, 0.0, 0.0, 0.0, 1.7103877758303752E9, 0.0, 2024-03-13 20:42:55.830
23.0, -756.8828229825012, -679.5099027492106, -538.1603839239106, -834.1005373676307, 0.01600000075995922, -0.19200000911951065, 1.0400000493973494, 0.0, 0.0, 0.0, 0.0, 0.0, 1.7103877758437226E9, 0.0, 2024-03-13 20:42:55.843
23.0, -898.6624303027056, -568.137552018743, -649.7926577012986, -751.555335495621, 0.01600000075995922, -0.19200000911951065, 1.0400000493973494, 0.0, 0.0, 0.0, 0.0, 0.0, 1.7103877758437226E9, 0.0, 2024-03-13 20:42:55.843
24.0, -710.0050469879061, -413.70399319846183, -472.92343904683366, -539.9200068530627, 0.01600000075995922, -0.19200000911951065, 1.0400000493973494, 0.0, 0.0, 0.0, 0.0, 0.0, 1.7103877758594005E9, 0.0, 2024-03-13 20:42:55.859
24.0, -872.920698907692, -318.5235393261537, -662.8000297471881, -449.0142586301081, 0.01600000075995922, -0.19200000911951065, 1.0400000493973494, 0.0, 0.0, 0.0, 0.0, 0.0, 1.7103877758594005E9, 0.0, 2024-03-13 20:42:55.859
25.0, -780.1637002066709, -354.0114500056952, -533.8333196751773, -540.5445701456629, 0.01600000075995922, -0.19200000911951065, 1.0400000493973494, 0.0, 0.0, 0.0, 0.0, 0.0, 1.710387775860162E9, 0.0, 2024-03-13 20:42:55.860
25.0, -658.0503568034619, -414.799783885479, -408.72057650750503, -559.876113016624, 0.01600000075995922, -0.19200000911951065, 1.0400000493973494, 0.0, 0.0, 0.0, 0.0, 0.0, 1.710387775860162E9, 0.0, 2024-03-13 20:42:55.860
26.0, -515.6312265908346, -525.6672481219284, -314.21704452717677, -642.021145593375, 0.01600000075995922, -0.19200000911951065, 1.0400000493973494, 0.0, 0.0, 0.0, 0.0, 0.0, 1.710387775873723E9, 0.0, 2024-03-13 20:42:55.873
26.0, -734.8660319433548, -695.980422154069, -485.47641324810684, -866.0654622889124, 0.01600000075995922, -0.19200000911951065, 1.0400000493973494, 0.0, 0.0, 0.0, 0.0, 0.0, 1.710387775873723E9, 0.0, 2024-03-13 20:42:55.873
27.0, -536.5410072430968, -772.0911261523142, -287.24114614678547, -940.1491405111738, 0.01600000075995922, -0.19200000911951065, 1.0400000493973494, 0.0, 0.0, 0.0, 0.0, 0.0, 1.7103877758893995E9, 0.0, 2024-03-13 20:42:55.889
27.0, -651.741145578213, -755.1045005535707, -423.93448952725157, -866.1365203880705, 0.01600000075995922, -0.19200000911951065, 1.0400000493973494, 0.0, 0.0, 0.0, 0.0, 0.0, 1.7103877758893995E9, 0.0, 2024-03-13 20:42:55.889
28.0, -759.6690484494902, -682.5429616132751, -532.9507032856345, -829.4481018227525, 0.01600000075995922, -0.19200000911951065, 1.0400000493973494, 0.0, 0.0, 0.0, 0.0, 0.0, 1.7103877758900886E9, 0.0, 2024-03-13 20:42:55.890
28.0, -896.2240155315958, -565.9347509448417, -642.6344891861081, -744.5654624784365, 0.01600000075995922, -0.19200000911951065, 1.0400000493973494, 0.0, 0.0, 0.0, 0.0, 0.0, 1.7103877758900886E9, 0.0, 2024-03-13 20:42:55.890
29.0, -697.4128038370982, -413.9358669957146, -463.18099966226146, -538.5549433692358, 0.01600000075995922, -0.19200000911951065, 1.0400000493973494, 0.0, 0.0, 0.0, 0.0, 0.0, 1.7103877759039967E9, 0.0, 2024-03-13 20:42:55.903
29.0, -862.6995523287915, -319.4472946152091, -658.7459781952202, -445.58851027069613, 0.01600000075995922, -0.19200000911951065, 1.0400000493973494, 0.0, 0.0, 0.0, 0.0, 0.0, 1.7103877759039967E9, 0.0, 2024-03-13 20:42:55.903
30.0, -771.53949090885, -354.96886439435184, -534.199829870835, -538.0687563749962, 0.01600000075995922, -0.19200000911951065, 1.0400000493973494, 0.0, 0.0, 0.0, 0.0, 0.0, 1.710387775919396E9, 0.0, 2024-03-13 20:42:55.919
30.0, -664.3558281287551, -424.84515516646206, -413.1747973547317, -570.235635893885, 0.01600000075995922, -0.19200000911951065, 1.0400000493973494, 0.0, 0.0, 0.0, 0.0, 0.0, 1.710387775919396E9, 0.0, 2024-03-13 20:42:55.919
31.0, -527.9766363445669, -538.8877944652922, -317.11546699283645, -652.2273325724527, 0.01600000075995922, -0.19200000911951065, 1.0400000493973494, 0.0, 0.0, 0.0, 0.0, 0.0, 1.710387775920231E9, 0.0, 2024-03-13 20:42:55.920
31.0, -718.6236464357935, -705.0309800468385, -493.5994759518653, -877.1430459576659, 0.01600000075995922, -0.19200000911951065, 1.0400000493973494, 0.0, 0.0, 0.0, 0.0, 0.0, 1.710387775920231E9, 0.0, 2024-03-13 20:42:55.920
32.0, -546.8780907206237, -773.9573362302035, -287.2000072472729, -939.9883248130791, 0.01600000075995922, -0.19200000911951065, 1.0400000493973494, 0.0, 0.0, 0.0, 0.0, 0.0, 1.7103877759336972E9, 0.0, 2024-03-13 20:42:55.933
32.0, -668.6193140782416, -763.3472400559112, -429.6714960592799, -868.6572129582055, 0.01600000075995922, -0.19200000911951065, 1.0400000493973494, 0.0, 0.0, 0.0, 0.0, 0.0, 1.7103877759336972E9, 0.0, 2024-03-13 20:42:55.933
33.0, -742.8918572482653, -688.5230616424233, -542.2892334749922, -839.175581607502, 0.01600000075995922, -0.19200000911951065, 1.0400000493973494, 0.0, 0.0, 0.0, 0.0, 0.0, 1.71038777594939E9, 0.0, 2024-03-13 20:42:55.949
33.0, -892.4915953758173, -561.8993988926522, -638.270025937818, -743.6641465891153, 0.01600000075995922, -0.19200000911951065, 1.0400000493973494, 0.0, 0.0, 0.0, 0.0, 0.0, 1.71038777594939E9, 0.0, 2024-03-13 20:42:55.949
34.0, -696.6872632456943, -398.20210788212717, -453.2291258801706, -523.7000607452355, 0.01600000075995922, -0.19200000911951065, 1.0400000493973494, 0.0, 0.0, 0.0, 0.0, 0.0, 1.7103877759500964E9, 0.0, 2024-03-13 20:42:55.950
34.0, -868.7095715575852, -312.35270439926535, -650.6603144910187, -438.1461093588732, 0.01600000075995922, -0.19200000911951065, 1.0400000493973494, 0.0, 0.0, 0.0, 0.0, 0.0, 1.7103877759500964E9, 0.0, 2024-03-13 20:42:55.950
35.0, -773.5403373851441, -347.8967135781422, -525.5083023738116, -527.6306955986656, 0.01600000075995922, -0.19200000911951065, 1.0400000493973494, 0.0, 0.0, 0.0, 0.0, 0.0, 1.710387775980283E9, 0.0, 2024-03-13 20:42:55.980
35.0, -664.5951817259192, -416.4191605662927, -407.3891721232794, -557.9388448395766, 0.01600000075995922, -0.19200000911951065, 1.0400000493973494, 0.0, 0.0, 0.0, 0.0, 0.0, 1.710387775980283E9, 0.0, 2024-03-13 20:42:55.980
36.0, -539.4020307091996, -541.6927194320597, -317.8335277843289, -647.5823768274859, 0.01600000075995922, -0.19200000911951065, 1.0400000493973494, 0.0, 0.0, 0.0, 0.0, 0.0, 1.7103877759809463E9, 0.0, 2024-03-13 20:42:55.980
36.0, -732.3602989730425, -700.6627768985927, -491.9726194711402, -863.0660625244491, 0.01600000075995922, -0.19200000911951065, 1.0400000493973494, 0.0, 0.0, 0.0, 0.0, 0.0, 1.7103877759809463E9, 0.0, 2024-03-13 20:42:55.980
37.0, -555.3265247205272, -773.5983058344573, -289.7094801175408, -941.4020069963299, 0.01600000075995922, -0.19200000911951065, 1.0400000493973494, 0.0, 0.0, 0.0, 0.0, 0.0, 1.710387775981546E9, 0.0, 2024-03-13 20:42:55.981
37.0, -646.5277250399813, -763.0181288598105, -433.7779062106274, -871.3237616266124, 0.01600000075995922, -0.19200000911951065, 1.0400000493973494, 0.0, 0.0, 0.0, 0.0, 0.0, 1.710387775981546E9, 0.0, 2024-03-13 20:42:55.981
38.0, -750.72320775548, -687.1617380585521, -541.4028771854937, -837.4888867274858, 0.01600000075995922, -0.19200000911951065, 1.0400000493973494, 0.0, 0.0, 0.0, 0.0, 0.0, 1.7103877759937506E9, 0.0, 2024-03-13 20:42:55.993
38.0, -871.2190444278531, -556.2596297594719, -640.6299028098583, -741.0200373204425, 0.01600000075995922, -0.19200000911951065, 1.0400000493973494, 0.0, 0.0, 0.0, 0.0, 0.0, 1.7103877759937506E9, 0.0, 2024-03-13 20:42:55.993
39.0, -723.622022726573, -403.5913037182763, -461.8271558783017, -532.3429695428349, 0.01600000075995922, -0.19200000911951065, 1.0400000493973494, 0.0, 0.0, 0.0, 0.0, 0.0, 1.7103877760095477E9, 0.0, 2024-03-13 20:42:56.009
39.0, -886.6236923453398, -306.72789486590773, -652.7322190664709, -440.3788296324201, 0.01600000075995922, -0.19200000911951065, 1.0400000493973494, 0.0, 0.0, 0.0, 0.0, 0.0, 1.7103877760095477E9, 0.0, 2024-03-13 20:42:56.009
40.0, -794.3566205385141, -341.13871435821056, -530.1532581187785, -530.5440776641481, 0.01600000075995922, -0.19200000911951065, 1.0400000493973494, 0.0, 0.0, 0.0, 0.0, 0.0, 1.7103877760103972E9, 0.0, 2024-03-13 20:42:56.010
40.0, -660.3728346759453, -406.2578523866832, -406.0166288395412, -558.5484485323541, 0.01600000075995922, -0.19200000911951065, 1.0400000493973494, 0.0, 0.0, 0.0, 0.0, 0.0, 1.7103877760103972E9, 0.0, 2024-03-13 20:42:56.010
41.0, -508.4543585758656, -524.201207339298, -308.8689875905402, -637.4210686478764, 0.01600000075995922, -0.19200000911951065, 1.0400000493973494, 0.0, 0.0, 0.0, 0.0, 0.0, 1.7103877760401285E9, 0.0, 2024-03-13 20:42:56.040
41.0, -705.6499334895052, -683.3545199036598, -485.0912035526708, -857.9199601854198, 0.01600000075995922, -0.19200000911951065, 1.0400000493973494, 0.0, 0.0, 0.0, 0.0, 0.0, 1.7103877760401285E9, 0.0, 2024-03-13 20:42:56.040
42.0, -535.2096028588712, -757.0006298311055, -280.782338923309, -931.9924187078141, 0.01600000075995922, -0.19200000911951065, 1.0400000493973494, 0.0, 0.0, 0.0, 0.0, 0.0, 1.710387776040845E9, 0.0, 2024-03-13 20:42:56.040
42.0, -643.6667015738785, -744.3747275806963, -425.3706111102365, -861.2970898454078, 0.01600000075995922, -0.19200000911951065, 1.0400000493973494, 0.0, 0.0, 0.0, 0.0, 0.0, 1.710387776040845E9, 0.0, 2024-03-13 20:42:56.040
43.0, -740.8872708720155, -665.7657704120502, -534.211049570702, -820.5434000282548, 0.01600000075995922, -0.19200000911951065, 1.0400000493973494, 0.0, 0.0, 0.0, 0.0, 0.0, 1.710387776041588E9, 0.0, 2024-03-13 20:42:56.041
43.0, -879.5104026296176, -545.6644931850024, -640.0352587169036, -736.4984982740134, 0.01600000075995922, -0.19200000911951065, 1.0400000493973494, 0.0, 0.0, 0.0, 0.0, 0.0, 1.710387776041588E9, 0.0, 2024-03-13 20:42:56.041
44.0, -691.5785599062219, -397.3456707922742, -467.62774070957676, -529.6726809744723, 0.01600000075995922, -0.19200000911951065, 1.0400000493973494, 0.0, 0.0, 0.0, 0.0, 0.0, 1.710387776053726E9, 0.0, 2024-03-13 20:42:56.053
44.0, -860.0816223598085, -305.2543742833659, -662.1118881553411, -444.10003008833155, 0.01600000075995922, -0.19200000911951065, 1.0400000493973494, 0.0, 0.0, 0.0, 0.0, 0.0, 1.710387776053726E9, 0.0, 2024-03-13 20:42:56.053
45.0, -771.8274632054381, -335.1249552294612, -533.2798144817352, -524.6200761343352, 0.01600000075995922, -0.19200000911951065, 1.0400000493973494, 0.0, 0.0, 0.0, 0.0, 0.0, 1.7103877760693948E9, 0.0, 2024-03-13 20:42:56.069
45.0, -663.2637773416936, -401.5530582424253, -404.0157823632471, -553.3799067935906, 0.01600000075995922, -0.19200000911951065, 1.0400000493973494, 0.0, 0.0, 0.0, 0.0, 0.0, 1.7103877760693948E9, 0.0, 2024-03-13 20:42:56.069
46.0, -528.9901492325589, -519.7058475925587, -311.22886446258053, -638.4495411356911, 0.01600000075995922, -0.19200000911951065, 1.0400000493973494, 0.0, 0.0, 0.0, 0.0, 0.0, 1.7103877760701144E9, 0.0, 2024-03-13 20:42:56.070
46.0, -721.8848391971551, -677.7521497700363, -483.5167056713253, -854.8046235223301, 0.01600000075995922, -0.19200000911951065, 1.0400000493973494, 0.0, 0.0, 0.0, 0.0, 0.0, 1.7103877760701144E9, 0.0, 2024-03-13 20:42:56.070
47.0, -541.0999452890828, -752.0078633902594, -280.4008691278286, -926.7154198703356, 0.01600000075995922, -0.19200000911951065, 1.0400000493973494, 0.0, 0.0, 0.0, 0.0, 0.0, 1.710387776084085E9, 0.0, 2024-03-13 20:42:56.084
47.0, -649.0072787106037, -739.927986533381, -420.6620770660229, -852.5419840491377, 0.01600000075995922, -0.19200000911951065, 1.0400000493973494, 0.0, 0.0, 0.0, 0.0, 0.0, 1.710387776084085E9, 0.0, 2024-03-13 20:42:56.084
48.0, -745.4798680176027, -661.7715572593734, -521.1101800259203, -809.626632057596, 0.01600000075995922, -0.19200000911951065, 1.0400000493973494, 0.0, 0.0, 0.0, 0.0, 0.0, 1.7103877760994077E9, 0.0, 2024-03-13 20:42:56.099
48.0, -876.1519724694081, -535.248871808406, -622.0912187295035, -715.8392909187824, 0.01600000075995922, -0.19200000911951065, 1.0400000493973494, 0.0, 0.0, 0.0, 0.0, 0.0, 1.7103877760994077E9, 0.0, 2024-03-13 20:42:56.099
49.0, -677.7895487695932, -390.95044186804444, -445.9625002662651, -510.9208225966431, 0.01600000075995922, -0.19200000911951065, 1.0400000493973494, 0.0, 0.0, 0.0, 0.0, 0.0, 1.7103877761002855E9, 0.0, 2024-03-13 20:42:56.100
49.0, -858.8025765749626, -308.4332892457023, -652.320830071345, -432.1435699299909, 0.01600000075995922, -0.19200000911951065, 1.0400000493973494, 0.0, 0.0, 0.0, 0.0, 0.0, 1.7103877761002855E9, 0.0, 2024-03-13 20:42:56.100
50.0, -765.9932192745619, -333.14280825294554, -520.0929272379726, -514.9599145487882, 0.01600000075995922, -0.19200000911951065, 1.0400000493973494, 0.0, 0.0, 0.0, 0.0, 0.0, 1.710387776113711E9, 0.0, 2024-03-13 20:42:56.113
50.0, -643.2889716783538, -394.0807381309569, -396.8314345483668, -546.513450474944, 0.01600000075995922, -0.19200000911951065, 1.0400000493973494, 0.0, 0.0, 0.0, 0.0, 0.0, 1.710387776113711E9, 0.0, 2024-03-13 20:42:56.113
51.0, -519.6890180427581, -522.862323155161, -310.63422036962584, -640.7757589081302, 0.01600000075995922, -0.19200000911951065, 1.0400000493973494, 0.0, 0.0, 0.0, 0.0, 0.0, 1.7103877761294284E9, 0.0, 2024-03-13 20:42:56.129
51.0, -691.0381443626247, -686.1631847703829, -486.7816383326426, -858.1181748830713, 0.01600000075995922, -0.19200000911951065, 1.0400000493973494, 0.0, 0.0, 0.0, 0.0, 0.0, 1.7103877761294284E9, 0.0, 2024-03-13 20:42:56.129
52.0, -498.25939129665494, -758.7621227102354, -277.53236586181447, -930.0925495303236, 0.01600000075995922, -0.19200000911951065, 1.0400000493973494, 0.0, 0.0, 0.0, 0.0, 0.0, 1.710387776130103E9, 0.0, 2024-03-13 20:42:56.130
52.0, -648.5584907159209, -751.4842773964629, -426.4514421974309, -863.2493176222779, 0.01600000075995922, -0.19200000911951065, 1.0400000493973494, 0.0, 0.0, 0.0, 0.0, 0.0, 1.710387776130103E9, 0.0, 2024-03-13 20:42:56.130
53.0, -746.7252547028475, -671.7196911415085, -536.454989544116, -827.6641695438884, 0.01600000075995922, -0.19200000911951065, 1.0400000493973494, 0.0, 0.0, 0.0, 0.0, 0.0, 1.7103877761439333E9, 0.0, 2024-03-13 20:42:56.143
53.0, -885.2810682612471, -545.9300260818563, -636.7665861556306, -729.1308953613043, 0.01600000075995922, -0.19200000911951065, 1.0400000493973494, 0.0, 0.0, 0.0, 0.0, 0.0, 1.7103877761439333E9, 0.0, 2024-03-13 20:42:56.143
54.0, -690.191057022661, -397.43168849125504, -459.47849870612845, -526.624662510585, 0.01600000075995922, -0.19200000911951065, 1.0400000493973494, 0.0, 0.0, 0.0, 0.0, 0.0, 1.7103877761594183E9, 0.0, 2024-03-13 20:42:56.159
54.0, -848.3757354984991, -298.5038548633456, -652.8593756649643, -430.95054184412584, 0.01600000075995922, -0.19200000911951065, 1.0400000493973494, 0.0, 0.0, 0.0, 0.0, 0.0, 1.7103877761594183E9, 0.0, 2024-03-13 20:42:56.159
55.0, -758.0758510683663, -327.963046814315, -519.6815382428467, -511.7136813872494, 0.01600000075995922, -0.19200000911951065, 1.0400000493973494, 0.0, 0.0, 0.0, 0.0, 0.0, 1.7103877761601577E9, 0.0, 2024-03-13 20:42:56.160
55.0, -648.9773595109582, -391.32069196365774, -400.5152360047214, -545.1147278915159, 0.01600000075995922, -0.19200000911951065, 1.0400000493973494, 0.0, 0.0, 0.0, 0.0, 0.0, 1.7103877761601577E9, 0.0, 2024-03-13 20:42:56.160
56.0, -511.8464478356764, -526.1683947159909, -315.3577140136622, -640.9814534056932, 0.01600000075995922, -0.19200000911951065, 1.0400000493973494, 0.0, 0.0, 0.0, 0.0, 0.0, 1.7103877761739488E9, 0.0, 2024-03-13 20:42:56.173
56.0, -711.2822228227742, -685.8378134742379, -489.17517430428416, -861.6336808414198, 0.01600000075995922, -0.19200000911951065, 1.0400000493973494, 0.0, 0.0, 0.0, 0.0, 0.0, 1.7103877761739488E9, 0.0, 2024-03-13 20:42:56.173
57.0, -552.2859860565513, -757.4755971254781, -284.68679447704926, -935.4032074674033, 0.01600000075995922, -0.19200000911951065, 1.0400000493973494, 0.0, 0.0, 0.0, 0.0, 0.0, 1.7103877761891248E9, 0.0, 2024-03-13 20:42:56.189
57.0, -632.903269501403, -760.0897871945053, -435.7824925868772, -877.371179854963, 0.01600000075995922, -0.19200000911951065, 1.0400000493973494, 0.0, 0.0, 0.0, 0.0, 0.0, 1.7103877761891248E9, 0.0, 2024-03-13 20:42:56.189
58.0, -757.5298256748356, -687.8685791501775, -547.7868864098564, -842.238559671212, 0.01600000075995922, -0.19200000911951065, 1.0400000493973494, 0.0, 0.0, 0.0, 0.0, 0.0, 1.7103877762044272E9, 0.0, 2024-03-13 20:42:56.204
58.0, -895.8163664364256, -565.1792911537923, -647.38790202979, -748.3577210335061, 0.01600000075995922, -0.19200000911951065, 1.0400000493973494, 0.0, 0.0, 0.0, 0.0, 0.0, 1.7103877762044272E9, 0.0, 2024-03-13 20:42:56.204
59.0, -711.8488176660612, -423.5361901819706, -474.7185910255648, -553.447224992793, 0.01600000075995922, -0.19200000911951065, 1.0400000493973494, 0.0, 0.0, 0.0, 0.0, 0.0, 1.7103877762051637E9, 0.0, 2024-03-13 20:42:56.205
59.0, -880.2920417203568, -329.61982249468565, -674.4124191096053, -458.9137738128193, 0.01600000075995922, -0.19200000911951065, 1.0400000493973494, 0.0, 0.0, 0.0, 0.0, 0.0, 1.7103877762051637E9, 0.0, 2024-03-13 20:42:56.205
60.0, -772.3286097995006, -351.29254273790866, -537.3338660337031, -537.0963823865168, 0.01600000075995922, -0.19200000911951065, 1.0400000493973494, 0.0, 0.0, 0.0, 0.0, 0.0, 1.710387776219833E9, 0.0, 2024-03-13 20:42:56.219
60.0, -659.9689254807308, -415.9853321714327, -413.4029312520288, -561.0990603021346, 0.01600000075995922, -0.19200000911951065, 1.0400000493973494, 0.0, 0.0, 0.0, 0.0, 0.0, 1.710387776219833E9, 0.0, 2024-03-13 20:42:56.219
61.0, -543.1942892642692, -533.4649395295419, -320.642192651052, -654.1758204493672, 0.01600000075995922, -0.19200000911951065, 1.0400000493973494, 0.0, 0.0, 0.0, 0.0, 0.0, 1.7103877762202888E9, 0.0, 2024-03-13 20:42:56.220
61.0, -734.645377845969, -685.2768284808844, -496.340822619386, -862.0974284359254, 0.01600000075995922, -0.19200000911951065, 1.0400000493973494, 0.0, 0.0, 0.0, 0.0, 0.0, 1.7103877762202888E9, 0.0, 2024-03-13 20:42:56.220
62.0, -550.6404300760478, -760.1458856938407, -285.4123350684531, -929.460506437812, 0.01600000075995922, -0.19200000911951065, 1.0400000493973494, 0.0, 0.0, 0.0, 0.0, 0.0, 1.7103877762337067E9, 0.0, 2024-03-13 20:42:56.233
62.0, -656.8199297180399, -750.433365508914, -428.1156976777129, -867.722237969283, 0.01600000075995922, -0.19200000911951065, 1.0400000493973494, 0.0, 0.0, 0.0, 0.0, 0.0, 1.7103877762337067E9, 0.0, 2024-03-13 20:42:56.233
63.0, -751.1458164504729, -674.4909570086747, -540.2360283993185, -828.2662934367545, 0.01600000075995922, -0.19200000911951065, 1.0400000493973494, 0.0, 0.0, 0.0, 0.0, 0.0, 1.710387776249504E9, 0.0, 2024-03-13 20:42:56.249
63.0, -886.0963664515875, -544.9352126936428, -641.0637312047184, -734.0862628025934, 0.01600000075995922, -0.19200000911951065, 1.0400000493973494, 0.0, 0.0, 0.0, 0.0, 0.0, 1.710387776249504E9, 0.0, 2024-03-13 20:42:56.249
64.0, -702.6636233748868, -409.4255476491526, -466.47585152322426, -539.1458475622348, 0.01600000075995922, -0.19200000911951065, 1.0400000493973494, 0.0, 0.0, 0.0, 0.0, 0.0, 1.7103877762503774E9, 0.0, 2024-03-13 20:42:56.250
64.0, -870.773996333126, -317.16969554219395, -666.431472604163, -451.9426002954133, 0.01600000075995922, -0.19200000911951065, 1.0400000493973494, 0.0, 0.0, 0.0, 0.0, 0.0, 1.7103877762503774E9, 0.0, 2024-03-13 20:42:56.250
65.0, -773.5328575852327, -346.25115759763867, -539.6563439061865, -534.3101569195278, 0.01600000075995922, -0.19200000911951065, 1.0400000493973494, 0.0, 0.0, 0.0, 0.0, 0.0, 1.7103877762637415E9, 0.0, 2024-03-13 20:42:56.263
65.0, -662.3400220526382, -413.038291006349, -413.42537065176293, -559.9060322162695, 0.01600000075995922, -0.19200000911951065, 1.0400000493973494, 0.0, 0.0, 0.0, 0.0, 0.0, 1.7103877762637415E9, 0.0, 2024-03-13 20:42:56.263
66.0, -538.2239622231573, -540.8587217419408, -326.8018078780733, -656.9695257162675, 0.01600000075995922, -0.19200000911951065, 1.0400000493973494, 0.0, 0.0, 0.0, 0.0, 0.0, 1.7103877762794223E9, 0.0, 2024-03-13 20:42:56.279
66.0, -724.1025998708792, -689.3047007331625, -491.46773297712207, -860.5416300543584, 0.01600000075995922, -0.19200000911951065, 1.0400000493973494, 0.0, 0.0, 0.0, 0.0, 0.0, 1.7103877762794223E9, 0.0, 2024-03-13 20:42:56.279
67.0, -524.1581984898075, -757.3820996265858, -280.76737932348624, -926.5770435719751, 0.01600000075995922, -0.19200000911951065, 1.0400000493973494, 0.0, 0.0, 0.0, 0.0, 0.0, 1.710387776280156E9, 0.0, 2024-03-13 20:42:56.280
67.0, -648.8913418119773, -771.5525805586949, -444.05515128886327, -884.9295176654123, 0.01600000075995922, -0.19200000911951065, 1.0400000493973494, 0.0, 0.0, 0.0, 0.0, 0.0, 1.710387776280156E9, 0.0, 2024-03-13 20:42:56.280
68.0, -762.9938195100985, -694.6116187702864, -549.0135735953227, -843.0538578615524, 0.01600000075995922, -0.19200000911951065, 1.0400000493973494, 0.0, 0.0, 0.0, 0.0, 0.0, 1.7103877762937267E9, 0.0, 2024-03-13 20:42:56.293
68.0, -899.7993598892353, -553.9932503863238, -641.7443929966539, -737.5344505617395, 0.01600000075995922, -0.19200000911951065, 1.0400000493973494, 0.0, 0.0, 0.0, 0.0, 0.0, 1.7103877762937267E9, 0.0, 2024-03-13 20:42:56.293
69.0, -683.5676942011341, -407.828610368073, -466.9022001181729, -538.734458567109, 0.01600000075995922, -0.19200000911951065, 1.0400000493973494, 0.0, 0.0, 0.0, 0.0, 0.0, 1.7103877763258376E9, 0.0, 2024-03-13 20:42:56.325
69.0, -867.2958893743344, -318.21312762983143, -671.7159512415528, -453.2066864804365, 0.01600000075995922, -0.19200000911951065, 1.0400000493973494, 0.0, 0.0, 0.0, 0.0, 0.0, 1.7103877763258376E9, 0.0, 2024-03-13 20:42:56.325
70.0, -768.427894145716, -340.28975706826895, -539.8171596042812, -526.2431927151047, 0.01600000075995922, -0.19200000911951065, 1.0400000493973494, 0.0, 0.0, 0.0, 0.0, 0.0, 1.7103877763265457E9, 0.0, 2024-03-13 20:42:56.326
70.0, -651.7822844777256, -402.02428563684225, -412.7783679594286, -561.5441083968617, 0.01600000075995922, -0.19200000911951065, 1.0400000493973494, 0.0, 0.0, 0.0, 0.0, 0.0, 1.7103877763265457E9, 0.0, 2024-03-13 20:42:56.326
71.0, -514.408279305324, -535.4134274064563, -329.0644473512657, -651.9804991753772, 0.01600000075995922, -0.19200000911951065, 1.0400000493973494, 0.0, 0.0, 0.0, 0.0, 0.0, 1.710387776327283E9, 0.0, 2024-03-13 20:42:56.327
71.0, -711.4318188210018, -690.0265014246106, -498.5660630930215, -867.4529651724733, 0.01600000075995922, -0.19200000911951065, 1.0400000493973494, 0.0, 0.0, 0.0, 0.0, 0.0, 1.710387776327283E9, 0.0, 2024-03-13 20:42:56.327
72.0, -545.3035928392783, -755.8113416451961, -290.9997456022538, -932.4973052018322, 0.01600000075995922, -0.19200000911951065, 1.0400000493973494, 0.0, 0.0, 0.0, 0.0, 0.0, 1.71038777632807E9, 0.0, 2024-03-13 20:42:56.328
72.0, -641.0861706044525, -758.1412993175909, -436.97926057269797, -874.1399062932469, 0.01600000075995922, -0.19200000911951065, 1.0400000493973494, 0.0, 0.0, 0.0, 0.0, 0.0, 1.71038777632807E9, 0.0, 2024-03-13 20:42:56.328
73.0, -757.2081942786463, -681.7052240232006, -553.5538121415302, -838.7267936128192, 0.01600000075995922, -0.19200000911951065, 1.0400000493973494, 0.0, 0.0, 0.0, 0.0, 0.0, 1.7103877763392596E9, 0.0, 2024-03-13 20:42:56.339
73.0, -881.6982441036962, -548.1029079561122, -643.6704414738342, -733.0241312151775, 0.01600000075995922, -0.19200000911951065, 1.0400000493973494, 0.0, 0.0, 0.0, 0.0, 0.0, 1.7103877763392596E9, 0.0, 2024-03-13 20:42:56.339
74.0, -697.4427230367437, -410.69711363408715, -472.00342365773395, -540.5258706458844, 0.01600000075995922, -0.19200000911951065, 1.0400000493973494, 0.0, 0.0, 0.0, 0.0, 0.0, 1.7103877763540912E9, 0.0, 2024-03-13 20:42:56.354
74.0, -860.6463472531177, -319.58567091356963, -674.5208762083203, -453.33384307892993, 0.01600000075995922, -0.19200000911951065, 1.0400000493973494, 0.0, 0.0, 0.0, 0.0, 0.0, 1.7103877763540912E9, 0.0, 2024-03-13 20:42:56.354
75.0, -758.4947198634036, -334.51535153668374, -536.3614920452237, -528.760145385284, 0.01600000075995922, -0.19200000911951065, 1.0400000493973494, 0.0, 0.0, 0.0, 0.0, 0.0, 1.7103877763694527E9, 0.0, 2024-03-13 20:42:56.369
75.0, -653.8728885529563, -398.8603302743286, -408.8888720055111, -554.3709802818485, 0.01600000075995922, -0.19200000911951065, 1.0400000493973494, 0.0, 0.0, 0.0, 0.0, 0.0, 1.7103877763694527E9, 0.0, 2024-03-13 20:42:56.369
76.0, -524.1619383897632, -539.0261707636528, -327.00376247568056, -657.6576673081145, 0.01600000075995922, -0.19200000911951065, 1.0400000493973494, 0.0, 0.0, 0.0, 0.0, 0.0, 1.710387776370118E9, 0.0, 2024-03-13 20:42:56.370
76.0, -713.3017687988468, -683.7995679983869, -497.7919038021937, -860.6500871530734, 0.01600000075995922, -0.19200000911951065, 1.0400000493973494, 0.0, 0.0, 0.0, 0.0, 0.0, 1.710387776370118E9, 0.0, 2024-03-13 20:42:56.370
77.0, -532.5542738903314, -761.1855778815225, -292.33114998647943, -941.3010296975262, 0.01600000075995922, -0.19200000911951065, 1.0400000493973494, 0.0, 0.0, 0.0, 0.0, 0.0, 1.7103877763837476E9, 0.0, 2024-03-13 20:42:56.383
77.0, -648.3490563184023, -762.4721034662798, -446.35892966156825, -878.9494176362641, 0.01600000075995922, -0.19200000911951065, 1.0400000493973494, 0.0, 0.0, 0.0, 0.0, 0.0, 1.7103877763837476E9, 0.0, 2024-03-13 20:42:56.383
78.0, -760.0355586451478, -675.6877249944955, -548.5685255005956, -832.8962895818986, 0.01600000075995922, -0.19200000911951065, 1.0400000493973494, 0.0, 0.0, 0.0, 0.0, 0.0, 1.7103877763994398E9, 0.0, 2024-03-13 20:42:56.399
78.0, -893.1572975679301, -548.9967440455221, -642.1520420918241, -737.444692962803, 0.01600000075995922, -0.19200000911951065, 1.0400000493973494, 0.0, 0.0, 0.0, 0.0, 0.0, 1.7103877763994398E9, 0.0, 2024-03-13 20:42:56.399
79.0, -697.0350739415735, -411.72932602185756, -469.17979919118807, -542.0330503280275, 0.01600000075995922, -0.19200000911951065, 1.0400000493973494, 0.0, 0.0, 0.0, 0.0, 0.0, 1.7103877764002433E9, 0.0, 2024-03-13 20:42:56.400
79.0, -865.4633383960463, -320.05315840803087, -667.818975487724, -455.84705584915355, 0.01600000075995922, -0.19200000911951065, 1.0400000493973494, 0.0, 0.0, 0.0, 0.0, 0.0, 1.7103877764002433E9, 0.0, 2024-03-13 20:42:56.400
80.0, -758.3264243653975, -339.7512114746496, -534.8917113626376, -525.3381369258277, 0.01600000075995922, -0.19200000911951065, 1.0400000493973494, 0.0, 0.0, 0.0, 0.0, 0.0, 1.7103877764138932E9, 0.0, 2024-03-13 20:42:56.413
80.0, -637.8324576430023, -405.4238546965644, -412.01542836846784, -558.6830849307589, 0.01600000075995922, -0.19200000911951065, 1.0400000493973494, 0.0, 0.0, 0.0, 0.0, 0.0, 1.7103877764138932E9, 0.0, 2024-03-13 20:42:56.413
81.0, -512.0783216329291, -536.5241776932962, -326.8803457771428, -655.0995757384226, 0.01600000075995922, -0.19200000911951065, 1.0400000493973494, 0.0, 0.0, 0.0, 0.0, 0.0, 1.7103877764294147E9, 0.0, 2024-03-13 20:42:56.429
81.0, -704.5391832026653, -679.143392553553, -495.17397383321077, -857.9124803855084, 0.01600000075995922, -0.19200000911951065, 1.0400000493973494, 0.0, 0.0, 0.0, 0.0, 0.0, 1.7103877764294147E9, 0.0, 2024-03-13 20:42:56.429
82.0, -548.0823385063559, -750.2351508112624, -289.39906842121854, -929.0341578428634, 0.01600000075995922, -0.19200000911951065, 1.0400000493973494, 0.0, 0.0, 0.0, 0.0, 0.0, 1.710387776430168E9, 0.0, 2024-03-13 20:42:56.430
82.0, -629.5971979405731, -752.7184443818405, -429.4919808614068, -870.8375746323727, 0.01600000075995922, -0.19200000911951065, 1.0400000493973494, 0.0, 0.0, 0.0, 0.0, 0.0, 1.710387776430168E9, 0.0, 2024-03-13 20:42:56.430
83.0, -745.2853932199068, -672.4340120330453, -541.9451626790687, -826.4861010578461, 0.01600000075995922, -0.19200000911951065, 1.0400000493973494, 0.0, 0.0, 0.0, 0.0, 0.0, 1.7103877764437227E9, 0.0, 2024-03-13 20:42:56.443
83.0, -873.620060199406, -533.9847856233828, -631.3811302194372, -722.5935502387583, 0.01600000075995922, -0.19200000911951065, 1.0400000493973494, 0.0, 0.0, 0.0, 0.0, 0.0, 1.7103877764437227E9, 0.0, 2024-03-13 20:42:56.443
84.0, -702.3756510782987, -402.4431544318795, -463.48393155867234, -532.4925655410625, 0.01600000075995922, -0.19200000911951065, 1.0400000493973494, 0.0, 0.0, 0.0, 0.0, 0.0, 1.7103877764593964E9, 0.0, 2024-03-13 20:42:56.459
84.0, -862.8341887271963, -318.5310191260651, -666.4726115036756, -449.2386526274495, 0.01600000075995922, -0.19200000911951065, 1.0400000493973494, 0.0, 0.0, 0.0, 0.0, 0.0, 1.7103877764593964E9, 0.0, 2024-03-13 20:42:56.459
85.0, -756.306878389325, -333.7187528461218, -533.1489179832861, -521.1644085752778, 0.01600000075995922, -0.19200000911951065, 1.0400000493973494, 0.0, 0.0, 0.0, 0.0, 0.0, 1.7103877764601235E9, 0.0, 2024-03-13 20:42:56.460
85.0, -646.7035003378987, -397.49900669045746, -400.90044570015743, -554.9581445748918, 0.01600000075995922, -0.19200000911951065, 1.0400000493973494, 0.0, 0.0, 0.0, 0.0, 0.0, 1.7103877764601235E9, 0.0, 2024-03-13 20:42:56.460
86.0, -539.7236621053889, -534.6018691160716, -318.96671747090295, -656.3748816233128, 0.01600000075995922, -0.19200000911951065, 1.0400000493973494, 0.0, 0.0, 0.0, 0.0, 0.0, 1.7103877764737132E9, 0.0, 2024-03-13 20:42:56.473
86.0, -670.1433233101852, -683.1189062064514, -486.8152974322438, -859.41218026774, 0.01600000075995922, -0.19200000911951065, 1.0400000493973494, 0.0, 0.0, 0.0, 0.0, 0.0, 1.7103877764737132E9, 0.0, 2024-03-13 20:42:56.473
87.0, -524.6817844836041, -755.0820611538365, -285.9733200618066, -934.7113259756006, 0.01600000075995922, -0.19200000911951065, 1.0400000493973494, 0.0, 0.0, 0.0, 0.0, 0.0, 1.7103877764895337E9, 0.0, 2024-03-13 20:42:56.489
87.0, -654.0673633506522, -761.7241234751418, -444.46280038403347, -881.5299486056902, 0.01600000075995922, -0.19200000911951065, 1.0400000493973494, 0.0, 0.0, 0.0, 0.0, 0.0, 1.7103877764895337E9, 0.0, 2024-03-13 20:42:56.489
88.0, -752.230387437623, -680.5234156372026, -547.6971288109198, -832.7392137837596, 0.01600000075995922, -0.19200000911951065, 1.0400000493973494, 0.0, 0.0, 0.0, 0.0, 0.0, 1.7103877764903295E9, 0.0, 2024-03-13 20:42:56.490
88.0, -878.2762356442399, -542.7847702191211, -640.8131579076871, -728.0762435737997, 0.01600000075995922, -0.19200000911951065, 1.0400000493973494, 0.0, 0.0, 0.0, 0.0, 0.0, 1.7103877764903295E9, 0.0, 2024-03-13 20:42:56.490
89.0, -697.7793140327558, -408.4120347611606, -469.6585063855164, -539.7816305547021, 0.01600000075995922, -0.19200000911951065, 1.0400000493973494, 0.0, 0.0, 0.0, 0.0, 0.0, 1.7103877765041866E9, 0.0, 2024-03-13 20:42:56.504
89.0, -865.1043080003001, -316.87050354573876, -673.3502875221893, -455.9779523476027, 0.01600000075995922, -0.19200000911951065, 1.0400000493973494, 0.0, 0.0, 0.0, 0.0, 0.0, 1.7103877765041866E9, 0.0, 2024-03-13 20:42:56.504
90.0, -754.1676556146704, -332.77255815733224, -534.7383754644543, -521.6431157696061, 0.01600000075995922, -0.19200000911951065, 1.0400000493973494, 0.0, 0.0, 0.0, 0.0, 0.0, 1.7103877765361834E9, 0.0, 2024-03-13 20:42:56.536
90.0, -660.9637388689443, -398.31804478075355, -412.2248627659865, -558.271695935633, 0.01600000075995922, -0.19200000911951065, 1.0400000493973494, 0.0, 0.0, 0.0, 0.0, 0.0, 1.7103877765361834E9, 0.0, 2024-03-13 20:42:56.536
91.0, -522.4228849103674, -537.9677790761925, -335.3586989766918, -661.3713879641145, 0.01600000075995922, -0.19200000911951065, 1.0400000493973494, 0.0, 0.0, 0.0, 0.0, 0.0, 1.7103877765366452E9, 0.0, 2024-03-13 20:42:56.536
91.0, -717.5615148483776, -687.2028769580647, -507.19027239084244, -866.7797831804492, 0.01600000075995922, -0.19200000911951065, 1.0400000493973494, 0.0, 0.0, 0.0, 0.0, 0.0, 1.7103877765366452E9, 0.0, 2024-03-13 20:42:56.536
92.0, -529.640891824849, -758.851880309172, -289.88151551550254, -934.5392905776389, 0.01600000075995922, -0.19200000911951065, 1.0400000493973494, 0.0, 0.0, 0.0, 0.0, 0.0, 1.710387776537442E9, 0.0, 2024-03-13 20:42:56.537
92.0, -648.9362206114456, -769.9706028774381, -451.946340195369, -891.2536884904839, 0.01600000075995922, -0.19200000911951065, 1.0400000493973494, 0.0, 0.0, 0.0, 0.0, 0.0, 1.710387776537442E9, 0.0, 2024-03-13 20:42:56.537
93.0, -749.5750584690832, -689.0017688367516, -561.7254935447127, -849.9277939801104, 0.01600000075995922, -0.19200000911951065, 1.0400000493973494, 0.0, 0.0, 0.0, 0.0, 0.0, 1.7103877765382771E9, 0.0, 2024-03-13 20:42:56.538
93.0, -876.7615761621855, -555.8071018648334, -652.5601836685091, -744.860914574936, 0.01600000075995922, -0.19200000911951065, 1.0400000493973494, 0.0, 0.0, 0.0, 0.0, 0.0, 1.7103877765382771E9, 0.0, 2024-03-13 20:42:56.538
94.0, -709.7095948914066, -421.89063420146704, -480.74730975413695, -557.4825770449825, 0.01600000075995922, -0.19200000911951065, 1.0400000493973494, 0.0, 0.0, 0.0, 0.0, 0.0, 1.7103877765490203E9, 0.0, 2024-03-13 20:42:56.549
94.0, -867.2023918754421, -325.76024574041367, -678.2682559639215, -461.47560528246686, 0.01600000075995922, -0.19200000911951065, 1.0400000493973494, 0.0, 0.0, 0.0, 0.0, 0.0, 1.7103877765490203E9, 0.0, 2024-03-13 20:42:56.549
95.0, -770.3913416224532, -339.28372398018837, -543.0110341664404, -531.7184062502347, 0.01600000075995922, -0.19200000911951065, 1.0400000493973494, 0.0, 0.0, 0.0, 0.0, 0.0, 1.7103877765637283E9, 0.0, 2024-03-13 20:42:56.563
95.0, -651.6626076791435, -414.50807168893516, -418.45179619221017, -571.1631310828961, 0.01600000075995922, -0.19200000911951065, 1.0400000493973494, 0.0, 0.0, 0.0, 0.0, 0.0, 1.7103877765637283E9, 0.0, 2024-03-13 20:42:56.563
96.0, -531.7614150997251, -550.3655474293046, -335.97578246938065, -672.968817726709, 0.01600000075995922, -0.19200000911951065, 1.0400000493973494, 0.0, 0.0, 0.0, 0.0, 0.0, 1.7103877765795615E9, 0.0, 2024-03-13 20:42:56.579
96.0, -731.7619149801321, -693.6504644816741, -506.81628239527345, -877.6554122515954, 0.01600000075995922, -0.19200000911951065, 1.0400000493973494, 0.0, 0.0, 0.0, 0.0, 0.0, 1.7103877765795615E9, 0.0, 2024-03-13 20:42:56.579
97.0, -538.2838006224483, -773.1495178397745, -297.99335851939395, -952.9769973591901, 0.01600000075995922, -0.19200000911951065, 1.0400000493973494, 0.0, 0.0, 0.0, 0.0, 0.0, 1.71038777658016E9, 0.0, 2024-03-13 20:42:56.580
97.0, -652.8556357650086, -772.3267398495227, -444.0177522893064, -894.2044695555232, 0.01600000075995922, -0.19200000911951065, 1.0400000493973494, 0.0, 0.0, 0.0, 0.0, 0.0, 1.71038777658016E9, 0.0, 2024-03-13 20:42:56.580
98.0, -783.4585520676337, -690.3369131209329, -553.0115266479552, -848.89558159234, 0.01600000075995922, -0.19200000911951065, 1.0400000493973494, 0.0, 0.0, 0.0, 0.0, 0.0, 1.7103877765937123E9, 0.0, 2024-03-13 20:42:56.593
98.0, -912.3990828399546, -555.160099172499, -646.9091948354617, -742.6693332009017, 0.01600000075995922, -0.19200000911951065, 1.0400000493973494, 0.0, 0.0, 0.0, 0.0, 0.0, 1.7103877765937123E9, 0.0, 2024-03-13 20:42:56.593
99.0, -724.3774825176224, -419.4148204308003, -476.8690335000865, -549.8157821358182, 0.01600000075995922, -0.19200000911951065, 1.0400000493973494, 0.0, 0.0, 0.0, 0.0, 0.0, 1.7103877766094067E9, 0.0, 2024-03-13 20:42:56.609
99.0, -860.4331729556434, -330.7043934818357, -677.4080789741129, -462.2684640730731, 0.01600000075995922, -0.19200000911951065, 1.0400000493973494, 0.0, 0.0, 0.0, 0.0, 0.0, 1.7103877766094067E9, 0.0, 2024-03-13 20:42:56.609
100.0, -768.4690330452286, -343.15078053437173, -535.5761130545288, -531.4341738536023, 0.01600000075995922, -0.19200000911951065, 1.0400000493973494, 0.0, 0.0, 0.0, 0.0, 0.0, 1.7103877766101692E9, 0.0, 2024-03-13 20:42:56.610
100.0, -662.0109108565375, -416.2396453684196, -414.2219693423249, -566.0955666429363, 0.01600000075995922, -0.19200000911951065, 1.0400000493973494, 0.0, 0.0, 0.0, 0.0, 0.0, 1.7103877766101692E9, 0.0, 2024-03-13 20:42:56.610
0.0, -541.6534504825249, -63.44179289834574, -337.7840240979567, -183.8104729722254, 0.01600000075995922, -0.19200000911951065, 1.0400000493973494, 0.0, 0.0, 0.0, 0.0, 0.0, 1.710387776624441E9, 0.0, 2024-03-13 20:42:56.624
1.0, -716.9332116558217, -201.18791811633855, -503.2203685878776, -383.30982625856996, 0.01600000075995922, -0.19200000911951065, 1.0400000493973494, 0.0, 0.0, 0.0, 0.0, 0.0, 1.7103877766251526E9, 0.0, 2024-03-13 20:42:56.625
1.0, -538.7999068163335, -268.85392801463604, -288.78011497855186, -443.12204624991864, 0.01600000075995922, -0.19200000911951065, 1.0400000493973494, 0.0, 0.0, 0.0, 0.0, 0.0, 1.7103877766251526E9, 0.0, 2024-03-13 20:42:56.625
2.0, -662.8262090468779, -283.278722143732, -451.60787924937904, -401.2987450454384, 0.01600000075995922, -0.19200000911951065, 1.0400000493973494, 0.0, 0.0, 0.0, 0.0, 0.0, 1.7103877766387591E9, 0.0, 2024-03-13 20:42:56.638
2.0, -746.0184136112221, -197.32834136206657, -559.7227771184407, -350.81009564362466, 0.01600000075995922, -0.19200000911951065, 1.0400000493973494, 0.0, 0.0, 0.0, 0.0, 0.0, 1.7103877766387591E9, 0.0, 2024-03-13 20:42:56.638
3.0, -869.8465011441149, -56.54167748009786, -649.1101259593852, -245.541261640843, 0.01600000075995922, -0.19200000911951065, 1.0400000493973494, 0.0, 0.0, 0.0, 0.0, 0.0, 1.7103877766544406E9, 0.0, 2024-03-13 20:42:56.654
3.0, -694.9631693661213, 79.79824535455555, -472.9290488967672, -57.81137351505458, 0.01600000075995922, -0.19200000911951065, 1.0400000493973494, 0.0, 0.0, 0.0, 0.0, 0.0, 1.7103877766544406E9, 0.0, 2024-03-13 20:42:56.654
4.0, -888.0111952289008, 169.02477849740535, -678.0270324167795, 29.38813385181129, 0.01600000075995922, -0.19200000911951065, 1.0400000493973494, 0.0, 0.0, 0.0, 0.0, 0.0, 1.7103877766551828E9, 0.0, 2024-03-13 20:42:56.655
4.0, -752.2827460370027, 158.97192741651088, -534.2465786202811, -30.809295834973454, 0.01600000075995922, -0.19200000911951065, 1.0400000493973494, 0.0, 0.0, 0.0, 0.0, 0.0, 1.7103877766551828E9, 0.0, 2024-03-13 20:42:56.655
5.0, -643.1169362803921, 89.7463792366907, -406.39248878508806, -69.90994987171143, 0.01600000075995922, -0.19200000911951065, 1.0400000493973494, 0.0, 0.0, 0.0, 0.0, 0.0, 1.7103877766693275E9, 0.0, 2024-03-13 20:42:56.669
5.0, -532.7412688881159, -55.83483638847247, -331.0484642777592, -177.8079335433431, 0.01600000075995922, -0.19200000911951065, 1.0400000493973494, 0.0, 0.0, 0.0, 0.0, 0.0, 1.7103877766693275E9, 0.0, 2024-03-13 20:42:56.669
6.0, -718.9602374318056, -199.59846063517034, -499.57022623112425, -373.9638162693009, 0.01600000075995922, -0.19200000911951065, 1.0400000493973494, 0.0, 0.0, 0.0, 0.0, 0.0, 1.7103877766844156E9, 0.0, 2024-03-13 20:42:56.684
6.0, -526.6452319603413, -265.6525736525655, -288.6903573796153, -444.6479254318401, 0.01600000075995922, -0.19200000911951065, 1.0400000493973494, 0.0, 0.0, 0.0, 0.0, 0.0, 1.7103877766844156E9, 0.0, 2024-03-13 20:42:56.684
7.0, -661.7790370592847, -285.6236394159496, -444.625486032106, -402.39079583249986, 0.01600000075995922, -0.19200000911951065, 1.0400000493973494, 0.0, 0.0, 0.0, 0.0, 0.0, 1.710387776685124E9, 0.0, 2024-03-13 20:42:56.685
7.0, -762.3655163175426, -196.8683336675167, -556.5064631565474, -353.2410306148231, 0.01600000075995922, -0.19200000911951065, 1.0400000493973494, 0.0, 0.0, 0.0, 0.0, 0.0, 1.710387776685124E9, 0.0, 2024-03-13 20:42:56.685
8.0, -874.3568204906769, -53.482439316343516, -639.9249316682108, -243.2038241685368, 0.01600000075995922, -0.19200000911951065, 1.0400000493973494, 0.0, 0.0, 0.0, 0.0, 0.0, 1.7103877766989672E9, 0.0, 2024-03-13 20:42:56.698
8.0, -682.9169516088441, 87.46878016367555, -465.58014548383653, -49.93514420837164, 0.01600000075995922, -0.19200000911951065, 1.0400000493973494, 0.0, 0.0, 0.0, 0.0, 0.0, 1.7103877766989672E9, 0.0, 2024-03-13 20:42:56.698
9.0, -862.9987443252467, 166.30961112957448, -666.34732485516, 33.51698340289295, 0.01600000075995922, -0.19200000911951065, 1.0400000493973494, 0.0, 0.0, 0.0, 0.0, 0.0, 1.7103877767146285E9, 0.0, 2024-03-13 20:42:56.714
9.0, -749.5675786691718, 157.51336643379182, -531.8530426486395, -30.080015343613923, 0.01600000075995922, -0.19200000911951065, 1.0400000493973494, 0.0, 0.0, 0.0, 0.0, 0.0, 1.7103877767146285E9, 0.0, 2024-03-13 20:42:56.714
10.0, -646.3369901422411, 86.01395908091217, -407.6752744698897, -64.46839543618262, 0.01600000075995922, -0.19200000911951065, 1.0400000493973494, 0.0, 0.0, 0.0, 0.0, 0.0, 1.7103877767154489E9, 0.0, 2024-03-13 20:42:56.715
10.0, -525.3998452750966, -49.40968826459721, -323.235813270323, -172.87126560183242, 0.01600000075995922, -0.19200000911951065, 1.0400000493973494, 0.0, 0.0, 0.0, 0.0, 0.0, 1.7103877767154489E9, 0.0, 2024-03-13 20:42:56.715
11.0, -709.4459319445305, -195.60424748249352, -498.52679414348677, -372.5837931856513, 0.01600000075995922, -0.19200000911951065, 1.0400000493973494, 0.0, 0.0, 0.0, 0.0, 0.0, 1.7103877767287428E9, 0.0, 2024-03-13 20:42:56.728
11.0, -522.6248395079747, -261.06371640693396, -281.9061788599938, -440.00296968687326, 0.01600000075995922, -0.19200000911951065, 1.0400000493973494, 0.0, 0.0, 0.0, 0.0, 0.0, 1.7103877767287428E9, 0.0, 2024-03-13 20:42:56.728
12.0, -646.6287023387849, -274.26556325051934, -437.9086257116869, -395.2662864169106, 0.01600000075995922, -0.19200000911951065, 1.0400000493973494, 0.0, 0.0, 0.0, 0.0, 0.0, 1.71038777674446E9, 0.0, 2024-03-13 20:42:56.744
12.0, -744.35415813094, -187.9748515728861, -549.5502492389642, -349.54974935855716, 0.01600000075995922, -0.19200000911951065, 1.0400000493973494, 0.0, 0.0, 0.0, 0.0, 0.0, 1.71038777674446E9, 0.0, 2024-03-13 20:42:56.744
13.0, -874.9514645836316, -54.86246239999309, -646.1107261949219, -246.37899923091754, 0.01600000075995922, -0.19200000911951065, 1.0400000493973494, 0.0, 0.0, 0.0, 0.0, 0.0, 1.7103877767451348E9, 0.0, 2024-03-13 20:42:56.745
13.0, -695.1875633634627, 77.38600988313556, -468.08961835410446, -56.999815224669874, 0.01600000075995922, -0.19200000911951065, 1.0400000493973494, 0.0, 0.0, 0.0, 0.0, 0.0, 1.7103877767451348E9, 0.0, 2024-03-13 20:42:56.745
14.0, -866.323515385855, 168.81160419993103, -669.4551817183383, 34.788549387827516, 0.01600000075995922, -0.19200000911951065, 1.0400000493973494, 0.0, 0.0, 0.0, 0.0, 0.0, 1.7103877767587368E9, 0.0, 2024-03-13 20:42:56.758
14.0, -763.3416302059777, 172.84695625212044, -522.8885024548508, -18.55738358013332, 0.01600000075995922, -0.19200000911951065, 1.0400000493973494, 0.0, 0.0, 0.0, 0.0, 0.0, 1.7103877767587368E9, 0.0, 2024-03-13 20:42:56.758
15.0, -655.1781136374921, 91.35453621763736, -401.1080101476982, -65.00320112984627, 0.01600000075995922, -0.19200000911951065, 1.0400000493973494, 0.0, 0.0, 0.0, 0.0, 0.0, 1.7103877767744272E9, 0.0, 2024-03-13 20:42:56.774
15.0, -535.9089641505852, -53.142108420375735, -325.6779679413885, -170.18601743364707, 0.01600000075995922, -0.19200000911951065, 1.0400000493973494, 0.0, 0.0, 0.0, 0.0, 0.0, 1.7103877767744272E9, 0.0, 2024-03-13 20:42:56.774
16.0, -709.9994371379726, -197.17874536383897, -493.8481792989187, -371.89191169384867, 0.01600000075995922, -0.19200000911951065, 1.0400000493973494, 0.0, 0.0, 0.0, 0.0, 0.0, 1.7103877767751296E9, 0.0, 2024-03-13 20:42:56.775
16.0, -516.4203454814851, -259.7884105220437, -274.7667098445818, -437.01104972232133, 0.01600000075995922, -0.19200000911951065, 1.0400000493973494, 0.0, 0.0, 0.0, 0.0, 0.0, 1.7103877767751296E9, 0.0, 2024-03-13 20:42:56.775
17.0, -641.3404838014394, -271.7598302802071, -437.0671482216567, -392.87275044526905, 0.01600000075995922, -0.19200000911951065, 1.0400000493973494, 0.0, 0.0, 0.0, 0.0, 0.0, 1.710387776788778E9, 0.0, 2024-03-13 20:42:56.788
17.0, -752.4921804345213, -192.2046784227714, -546.1618998791091, -347.33946848474443, 0.01600000075995922, -0.19200000911951065, 1.0400000493973494, 0.0, 0.0, 0.0, 0.0, 0.0, 1.710387776788778E9, 0.0, 2024-03-13 20:42:56.788
18.0, -889.4772360115312, -43.23885333770886, -631.70837146556, -234.54969567107037, 0.01600000075995922, -0.19200000911951065, 1.0400000493973494, 0.0, 0.0, 0.0, 0.0, 0.0, 1.7103877768044252E9, 0.0, 2024-03-13 20:42:56.804
18.0, -714.0216995403171, 81.42884173523635, -466.4889411730692, -52.75502877496183, 0.01600000075995922, -0.19200000911951065, 1.0400000493973494, 0.0, 0.0, 0.0, 0.0, 0.0, 1.7103877768044252E9, 0.0, 2024-03-13 20:42:56.804
19.0, -871.2975823269226, 163.57200436200947, -672.8136118785478, 34.92318578623235, 0.01600000075995922, -0.19200000911951065, 1.0400000493973494, 0.0, 0.0, 0.0, 0.0, 0.0, 1.710387776805184E9, 0.0, 2024-03-13 20:42:56.805
19.0, -760.2599526424892, 166.7808385239914, -527.6119960988872, -20.277737559750676, 0.01600000075995922, -0.19200000911951065, 1.0400000493973494, 0.0, 0.0, 0.0, 0.0, 0.0, 1.710387776805184E9, 0.0, 2024-03-13 20:42:56.805
20.0, -648.943700411357, 93.24318569526076, -406.24663268681616, -64.93588293064386, 0.01600000075995922, -0.19200000911951065, 1.0400000493973494, 0.0, 0.0, 0.0, 0.0, 0.0, 1.7103877768191764E9, 0.0, 2024-03-13 20:42:56.819
20.0, -539.7087025055662, -56.86330887628719, -334.3732353383675, -178.53347413474694, 0.01600000075995922, -0.19200000911951065, 1.0400000493973494, 0.0, 0.0, 0.0, 0.0, 0.0, 1.7103877768191764E9, 0.0, 2024-03-13 20:42:56.819
21.0, -721.5819073007442, -196.6850785696879, -499.8432389278896, -369.2403226252645, 0.01600000075995922, -0.19200000911951065, 1.0400000493973494, 0.0, 0.0, 0.0, 0.0, 0.0, 1.7103877768347747E9, 0.0, 2024-03-13 20:42:56.834
21.0, -527.2436159532517, -254.23839898779988, -281.0684412699193, -437.51967611629516, 0.01600000075995922, -0.19200000911951065, 1.0400000493973494, 0.0, 0.0, 0.0, 0.0, 0.0, 1.7103877768347747E9, 0.0, 2024-03-13 20:42:56.834
22.0, -647.4402606291696, -277.3584605138749, -438.73888350185007, -394.73148072324693, 0.01600000075995922, -0.19200000911951065, 1.0400000493973494, 0.0, 0.0, 0.0, 0.0, 0.0, 1.7103877768355432E9, 0.0, 2024-03-13 20:42:56.835
22.0, -746.4672016059048, -195.1292801881209, -556.2708494593389, -351.96198482997715, 0.01600000075995922, -0.19200000911951065, 1.0400000493973494, 0.0, 0.0, 0.0, 0.0, 0.0, 1.7103877768355432E9, 0.0, 2024-03-13 20:42:56.835
23.0, -876.8438539612107, -49.847256559412926, -636.1812918125652, -234.9087260668166, 0.01600000075995922, -0.19200000911951065, 1.0400000493973494, 0.0, 0.0, 0.0, 0.0, 0.0, 1.7103877768493404E9, 0.0, 2024-03-13 20:42:56.849
23.0, -690.3780520204455, 78.59025766886771, -466.60487807169557, -52.81112727429718, 0.01600000075995922, -0.19200000911951065, 1.0400000493973494, 0.0, 0.0, 0.0, 0.0, 0.0, 1.7103877768493404E9, 0.0, 2024-03-13 20:42:56.849
24.0, -867.7521571689285, 163.31395126506686, -675.0238927523606, 28.14648706652224, 0.01600000075995922, -0.19200000911951065, 1.0400000493973494, 0.0, 0.0, 0.0, 0.0, 0.0, 1.710387776864423E9, 0.0, 2024-03-13 20:42:56.864
24.0, -753.617890321184, 166.03659843280911, -527.0510111055337, -21.620361643843353, 0.01600000075995922, -0.19200000911951065, 1.0400000493973494, 0.0, 0.0, 0.0, 0.0, 0.0, 1.710387776864423E9, 0.0, 2024-03-13 20:42:56.864
25.0, -656.3898412231356, 100.01988441497087, -395.9656477086246, -55.82548663858324, 0.01600000075995922, -0.19200000911951065, 1.0400000493973494, 0.0, 0.0, 0.0, 0.0, 0.0, 1.7103877768651388E9, 0.0, 2024-03-13 20:42:56.865
25.0, -516.1622923845425, -44.08407072769478, -312.9697878919542, -160.40617904951796, 0.01600000075995922, -0.19200000911951065, 1.0400000493973494, 0.0, 0.0, 0.0, 0.0, 0.0, 1.7103877768651388E9, 0.0, 2024-03-13 20:42:56.865
26.0, -711.9030462154187, -189.8261020509526, -481.97773683955893, -355.74302368517965, 0.01600000075995922, -0.19200000911951065, 1.0400000493973494, 0.0, 0.0, 0.0, 0.0, 0.0, 1.710387776878772E9, 0.0, 2024-03-13 20:42:56.878
26.0, -528.1524116424844, -260.0090646194294, -272.14877987559885, -426.0456630522385, 0.01600000075995922, -0.19200000911951065, 1.0400000493973494, 0.0, 0.0, 0.0, 0.0, 0.0, 1.710387776878772E9, 0.0, 2024-03-13 20:42:56.878
27.0, -659.8978673815727, -284.37077293079346, -441.10998007375747, -399.2604995695874, 0.01600000075995922, -0.19200000911951065, 1.0400000493973494, 0.0, 0.0, 0.0, 0.0, 0.0, 1.7103877768944194E9, 0.0, 2024-03-13 20:42:56.894
27.0, -760.4394678403623, -194.66179269365966, -549.7409841367044, -348.8316885670647, 0.01600000075995922, -0.19200000911951065, 1.0400000493973494, 0.0, 0.0, 0.0, 0.0, 0.0, 1.7103877768944194E9, 0.0, 2024-03-13 20:42:56.894
28.0, -883.7851082789712, -47.19192759087309, -628.7575904005207, -231.3894802085124, 0.01600000075995922, -0.19200000911951065, 1.0400000493973494, 0.0, 0.0, 0.0, 0.0, 0.0, 1.710387776895125E9, 0.0, 2024-03-13 20:42:56.895
28.0, -700.9320496954024, 75.05605221074075, -466.8965902682394, -54.078953359276056, 0.01600000075995922, -0.19200000911951065, 1.0400000493973494, 0.0, 0.0, 0.0, 0.0, 0.0, 1.710387776895125E9, 0.0, 2024-03-13 20:42:56.895
29.0, -872.8795600081794, 156.34277774766088, -683.4910262520425, 27.518183873966336, 0.01600000075995922, -0.19200000911951065, 1.0400000493973494, 0.0, 0.0, 0.0, 0.0, 0.0, 1.7103877769087534E9, 0.0, 2024-03-13 20:42:56.908
29.0, -773.4655393860303, 157.54328563343734, -533.4238006300293, -31.901346622034907, 0.01600000075995922, -0.19200000911951065, 1.0400000493973494, 0.0, 0.0, 0.0, 0.0, 0.0, 1.7103877769087534E9, 0.0, 2024-03-13 20:42:56.908
30.0, -668.7128115771338, 85.09020379185677, -409.7060401458293, -74.77181981410831, 0.01600000075995922, -0.19200000911951065, 1.0400000493973494, 0.0, 0.0, 0.0, 0.0, 0.0, 1.71038777692455E9, 0.0, 2024-03-13 20:42:56.924
30.0, -532.5280945906416, -57.36819537030533, -333.03061125427485, -178.36891853669658, 0.01600000075995922, -0.19200000911951065, 1.0400000493973494, 0.0, 0.0, 0.0, 0.0, 0.0, 1.71038777692455E9, 0.0, 2024-03-13 20:42:56.924
31.0, -708.2678634584881, -199.9836703306064, -500.83805231610313, -372.9241240816191, 0.01600000075995922, -0.19200000911951065, 1.0400000493973494, 0.0, 0.0, 0.0, 0.0, 0.0, 1.7103877769251552E9, 0.0, 2024-03-13 20:42:56.925
31.0, -556.306378508918, -264.21271216962487, -285.5488414168358, -440.1338661853224, 0.01600000075995922, -0.19200000911951065, 1.0400000493973494, 0.0, 0.0, 0.0, 0.0, 0.0, 1.7103877769251552E9, 0.0, 2024-03-13 20:42:56.925
32.0, -679.2967284517363, -279.6136201871559, -440.41061878204346, -398.46764077898115, 0.01600000075995922, -0.19200000911951065, 1.0400000493973494, 0.0, 0.0, 0.0, 0.0, 0.0, 1.7103877769389799E9, 0.0, 2024-03-13 20:42:56.938
32.0, -757.6270630736835, -196.58410127088428, -552.0597221092321, -347.6424003811553, 0.01600000075995922, -0.19200000911951065, 1.0400000493973494, 0.0, 0.0, 0.0, 0.0, 0.0, 1.7103877769389799E9, 0.0, 2024-03-13 20:42:56.938
33.0, -879.1700717336498, -47.18070789100602, -636.7048778063618, -230.8733740146272, 0.01600000075995922, -0.19200000911951065, 1.0400000493973494, 0.0, 0.0, 0.0, 0.0, 0.0, 1.7103877769544268E9, 0.0, 2024-03-13 20:42:56.954
33.0, -695.1277249641716, 75.83769130147994, -466.7769134696573, -52.26136198081076, 0.01600000075995922, -0.19200000911951065, 1.0400000493973494, 0.0, 0.0, 0.0, 0.0, 0.0, 1.7103877769544268E9, 0.0, 2024-03-13 20:42:56.954
34.0, -884.0132421762682, 158.60167732089758, -680.506586087402, 24.066256214864552, 0.01600000075995922, -0.19200000911951065, 1.0400000493973494, 0.0, 0.0, 0.0, 0.0, 0.0, 1.7103877769551466E9, 0.0, 2024-03-13 20:42:56.955
34.0, -766.2662319713272, 163.6355826612562, -529.2837313790806, -27.33118887618184, 0.01600000075995922, -0.19200000911951065, 1.0400000493973494, 0.0, 0.0, 0.0, 0.0, 0.0, 1.7103877769551466E9, 0.0, 2024-03-13 20:42:56.955
35.0, -641.69577429723, 95.90225456375629, -404.13732911180705, -68.31675249058753, 0.01600000075995922, -0.19200000911951065, 1.0400000493973494, 0.0, 0.0, 0.0, 0.0, 0.0, 1.7103877769687524E9, 0.0, 2024-03-13 20:42:56.968
35.0, -534.1811303710565, -64.11497489036992, -338.0196377951652, -189.15479000890628, 0.01600000075995922, -0.19200000911951065, 1.0400000493973494, 0.0, 0.0, 0.0, 0.0, 0.0, 1.7103877769687524E9, 0.0, 2024-03-13 20:42:56.968
36.0, -712.478990808595, -188.7527507636696, -495.56853327853605, -366.56255425699055, 0.01600000075995922, -0.19200000911951065, 1.0400000493973494, 0.0, 0.0, 0.0, 0.0, 0.0, 1.7103877769847324E9, 0.0, 2024-03-13 20:42:56.984
36.0, -519.1616921490058, -257.7987837456167, -275.08086144085974, -435.81802163645625, 0.01600000075995922, -0.19200000911951065, 1.0400000493973494, 0.0, 0.0, 0.0, 0.0, 0.0, 1.7103877769847324E9, 0.0, 2024-03-13 20:42:56.984
37.0, -665.9303260101005, -296.0617001922801, -457.20276958309114, -416.33314286731184, 0.01600000075995922, -0.19200000911951065, 1.0400000493973494, 0.0, 0.0, 0.0, 0.0, 0.0, 1.7103877769851084E9, 0.0, 2024-03-13 20:42:56.985
37.0, -772.7025997950695, -206.70801045093685, -558.7279637302272, -356.4236854771152, 0.01600000075995922, -0.19200000911951065, 1.0400000493973494, 0.0, 0.0, 0.0, 0.0, 0.0, 1.7103877769851084E9, 0.0, 2024-03-13 20:42:56.985
38.0, -882.1432921984233, -54.08830310916528, -640.5831540604122, -242.51194267673418, 0.01600000075995922, -0.19200000911951065, 1.0400000493973494, 0.0, 0.0, 0.0, 0.0, 0.0, 1.7103877769989128E9, 0.0, 2024-03-13 20:42:56.998
38.0, -698.246801527217, 60.982808677479625, -476.814804950729, -69.3676643781364, 0.01600000075995922, -0.19200000911951065, 1.0400000493973494, 0.0, 0.0, 0.0, 0.0, 0.0, 1.7103877769989128E9, 0.0, 2024-03-13 20:42:56.998
39.0, -879.7534961267374, 148.35809134226292, -680.4130885885097, 20.386194658465683, 0.01600000075995922, -0.19200000911951065, 1.0400000493973494, 0.0, 0.0, 0.0, 0.0, 0.0, 1.7103877770141487E9, 0.0, 2024-03-13 20:42:57.014
39.0, -785.1639464474283, 150.80398591328412, -534.7626848141663, -32.780223111622036, 0.01600000075995922, -0.19200000911951065, 1.0400000493973494, 0.0, 0.0, 0.0, 0.0, 0.0, 1.7103877770141487E9, 0.0, 2024-03-13 20:42:57.014
40.0, -655.7877173302695, 81.30168513674289, -405.72304669301957, -68.07739889342338, 0.01600000075995922, -0.19200000911951065, 1.0400000493973494, 0.0, 0.0, 0.0, 0.0, 0.0, 1.7103877770294285E9, 0.0, 2024-03-13 20:42:57.029
40.0, -546.8481715209782, -74.98312416160479, -336.1571676172316, -185.71034214971587, 0.01600000075995922, -0.19200000911951065, 1.0400000493973494, 0.0, 0.0, 0.0, 0.0, 0.0, 1.7103877770294285E9, 0.0, 2024-03-13 20:42:57.029
41.0, -729.5366745064966, -205.34294696711004, -499.34583223378286, -374.9100109580904, 0.01600000075995922, -0.19200000911951065, 1.0400000493973494, 0.0, 0.0, 0.0, 0.0, 0.0, 1.7103877770301294E9, 0.0, 2024-03-13 20:42:57.030
41.0, -527.7522423472255, -263.4497725786641, -277.29862211458385, -438.29383540712297, 0.01600000075995922, -0.19200000911951065, 1.0400000493973494, 0.0, 0.0, 0.0, 0.0, 0.0, 1.7103877770301294E9, 0.0, 2024-03-13 20:42:57.030
42.0, -667.0074171973392, -296.5067482870072, -447.471549898386, -412.01355841849, 0.01600000075995922, -0.19200000911951065, 1.0400000493973494, 0.0, 0.0, 0.0, 0.0, 0.0, 1.7103877770444183E9, 0.0, 2024-03-13 20:42:57.044
42.0, -778.5742427255027, -217.23582882620394, -564.917498156894, -366.8804457532242, 0.01600000075995922, -0.19200000911951065, 1.0400000493973494, 0.0, 0.0, 0.0, 0.0, 0.0, 1.7103877770444183E9, 0.0, 2024-03-13 20:42:57.044
43.0, -882.4163048951887, -57.136321573052555, -639.1919112768956, -243.71619046246633, 0.01600000075995922, -0.19200000911951065, 1.0400000493973494, 0.0, 0.0, 0.0, 0.0, 0.0, 1.7103877770451272E9, 0.0, 2024-03-13 20:42:57.045
43.0, -699.2528346152976, 65.56418612319976, -470.6589296236634, -62.32169286161661, 0.01600000075995922, -0.19200000911951065, 1.0400000493973494, 0.0, 0.0, 0.0, 0.0, 0.0, 1.7103877770451272E9, 0.0, 2024-03-13 20:42:57.045
44.0, -876.6119801639579, 148.32443224266171, -683.3900489532389, 18.598522479645908, 0.01600000075995922, -0.19200000911951065, 1.0400000493973494, 0.0, 0.0, 0.0, 0.0, 0.0, 1.7103877770587997E9, 0.0, 2024-03-13 20:42:57.058
44.0, -770.4362204219215, 150.50105401687324, -533.9249472240917, -35.43181218020618, 0.01600000075995922, -0.19200000911951065, 1.0400000493973494, 0.0, 0.0, 0.0, 0.0, 0.0, 1.7103877770587997E9, 0.0, 2024-03-13 20:42:57.058
45.0, -660.002584580332, 83.68400140851736, -404.07001091260463, -71.34981135465205, 0.01600000075995922, -0.19200000911951065, 1.0400000493973494, 0.0, 0.0, 0.0, 0.0, 0.0, 1.7103877770741384E9, 0.0, 2024-03-13 20:42:57.074
45.0, -546.6723962230608, -72.1632395950146, -339.2799840802327, -188.31331251887605, 0.01600000075995922, -0.19200000911951065, 1.0400000493973494, 0.0, 0.0, 0.0, 0.0, 0.0, 1.7103877770741384E9, 0.0, 2024-03-13 20:42:57.074
46.0, -726.1371054467745, -203.45429748948663, -502.75288109341636, -378.1412845198065, 0.01600000075995922, -0.19200000911951065, 1.0400000493973494, 0.0, 0.0, 0.0, 0.0, 0.0, 1.7103877770899115E9, 0.0, 2024-03-13 20:42:57.089
46.0, -530.9797760089859, -267.77683682739735, -282.0595147581771, -440.5377753805369, 0.01600000075995922, -0.19200000911951065, 1.0400000493973494, 0.0, 0.0, 0.0, 0.0, 0.0, 1.7103877770899115E9, 0.0, 2024-03-13 20:42:57.089
47.0, -653.7569516543299, -292.74440893158317, -448.4813228864223, -411.69940682221204, 0.01600000075995922, -0.19200000911951065, 1.0400000493973494, 0.0, 0.0, 0.0, 0.0, 0.0, 1.7103877770901537E9, 0.0, 2024-03-13 20:42:57.090
47.0, -758.5096794632263, -209.08658682275563, -561.2823153999634, -359.15381244476885, 0.01600000075995922, -0.19200000911951065, 1.0400000493973494, 0.0, 0.0, 0.0, 0.0, 0.0, 1.7103877770901537E9, 0.0, 2024-03-13 20:42:57.090
48.0, -898.187463008333, -63.43805299839005, -641.2264168527909, -249.68507079174742, 0.01600000075995922, -0.19200000911951065, 1.0400000493973494, 0.0, 0.0, 0.0, 0.0, 0.0, 1.7103877771047316E9, 0.0, 2024-03-13 20:42:57.104
48.0, -722.5187522396445, 51.49468248989433, -480.0124194128439, -76.69412839133292, 0.01600000075995922, -0.19200000911951065, 1.0400000493973494, 0.0, 0.0, 0.0, 0.0, 0.0, 1.7103877771047316E9, 0.0, 2024-03-13 20:42:57.104
49.0, -886.234742749948, 138.28654076159, -690.3013840713538, 10.583916874602437, 0.01600000075995922, -0.19200000911951065, 1.0400000493973494, 0.0, 0.0, 0.0, 0.0, 0.0, 1.7103877771051393E9, 0.0, 2024-03-13 20:42:57.105
49.0, -774.3144966759719, 150.89374351222068, -538.3380291718058, -32.93355900980532, 0.01600000075995922, -0.19200000911951065, 1.0400000493973494, 0.0, 0.0, 0.0, 0.0, 0.0, 1.7103877771051393E9, 0.0, 2024-03-13 20:42:57.105
50.0, -652.0029385751113, 82.24413992557675, -408.9730197545141, -70.06328576989472, 0.01600000075995922, -0.19200000911951065, 1.0400000493973494, 0.0, 0.0, 0.0, 0.0, 0.0, 1.7103877771190643E9, 0.0, 2024-03-13 20:42:57.119
50.0, -542.6669633705169, -75.49175055557862, -341.80815645027906, -190.35903779463843, 0.01600000075995922, -0.19200000911951065, 1.0400000493973494, 0.0, 0.0, 0.0, 0.0, 0.0, 1.7103877771190643E9, 0.0, 2024-03-13 20:42:57.119
51.0, -711.7010916178115, -199.60594043508172, -497.27766755828634, -370.8073407066986, 0.01600000075995922, -0.19200000911951065, 1.0400000493973494, 0.0, 0.0, 0.0, 0.0, 0.0, 1.7103877771345067E9, 0.0, 2024-03-13 20:42:57.134
51.0, -518.9896567510441, -264.36604806780815, -276.6777987219393, -437.1307265209034, 0.01600000075995922, -0.19200000911951065, 1.0400000493973494, 0.0, 0.0, 0.0, 0.0, 0.0, 1.7103877771345067E9, 0.0, 2024-03-13 20:42:57.134
52.0, -658.7272786954418, -297.0303342808038, -439.0193759985268, -402.8508035270497, 0.01600000075995922, -0.19200000911951065, 1.0400000493973494, 0.0, 0.0, 0.0, 0.0, 0.0, 1.710387777135163E9, 0.0, 2024-03-13 20:42:57.135
52.0, -771.9920188034885, -207.18671764526516, -553.2340506953187, -351.44961853604764, 0.01600000075995922, -0.19200000911951065, 1.0400000493973494, 0.0, 0.0, 0.0, 0.0, 0.0, 1.710387777135163E9, 0.0, 2024-03-13 20:42:57.135
53.0, -878.0294022471644, -56.691273478325456, -635.5455088200979, -237.24990343907848, 0.01600000075995922, -0.19200000911951065, 1.0400000493973494, 0.0, 0.0, 0.0, 0.0, 0.0, 1.7103877771487317E9, 0.0, 2024-03-13 20:42:57.148
53.0, -694.435843472369, 66.64875711034983, -465.58014548383653, -59.55790679436177, 0.01600000075995922, -0.19200000911951065, 1.0400000493973494, 0.0, 0.0, 0.0, 0.0, 0.0, 1.7103877771487317E9, 0.0, 2024-03-13 20:42:57.148
54.0, -896.1828766320832, 154.86177736520767, -673.0006068763323, 32.54086951445788, 0.01600000075995922, -0.19200000911951065, 1.0400000493973494, 0.0, 0.0, 0.0, 0.0, 0.0, 1.7103877771644948E9, 0.0, 2024-03-13 20:42:57.164
54.0, -752.6679557324387, 165.69252763688564, -517.9106956138276, -11.739545960910618, 0.01600000075995922, -0.19200000911951065, 1.0400000493973494, 0.0, 0.0, 0.0, 0.0, 0.0, 1.7103877771644948E9, 0.0, 2024-03-13 20:42:57.164
55.0, -642.0772440927103, 100.05354351457208, -387.5583526082337, -45.316367763094604, 0.01600000075995922, -0.19200000911951065, 1.0400000493973494, 0.0, 0.0, 0.0, 0.0, 0.0, 1.7103877771654902E9, 0.0, 2024-03-13 20:42:57.165
55.0, -541.3617382859811, -61.28387062391266, -325.2291799467057, -176.08757956372574, 0.01600000075995922, -0.19200000911951065, 1.0400000493973494, 0.0, 0.0, 0.0, 0.0, 0.0, 1.7103877771654902E9, 0.0, 2024-03-13 20:42:57.165
56.0, -720.2392832166515, -194.51593659538776, -492.2811612174846, -361.3977524181828, 0.01600000075995922, -0.19200000911951065, 1.0400000493973494, 0.0, 0.0, 0.0, 0.0, 0.0, 1.7103877771787205E9, 0.0, 2024-03-13 20:42:57.178
56.0, -528.1262323427945, -255.7904574694112, -271.85332777909935, -427.1377138393, 0.01600000075995922, -0.19200000911951065, 1.0400000493973494, 0.0, 0.0, 0.0, 0.0, 0.0, 1.7103877771787205E9, 0.0, 2024-03-13 20:42:57.178
57.0, -659.0676095914096, -289.04564787540585, -440.0328888865188, -402.6638085292652, 0.01600000075995922, -0.19200000911951065, 1.0400000493973494, 0.0, 0.0, 0.0, 0.0, 0.0, 1.7103877771944633E9, 0.0, 2024-03-13 20:42:57.194
57.0, -763.2069938075729, -198.19225825183094, -550.6684793257155, -343.4499725308269, 0.01600000075995922, -0.19200000911951065, 1.0400000493973494, 0.0, 0.0, 0.0, 0.0, 0.0, 1.7103877771944633E9, 0.0, 2024-03-13 20:42:57.194
58.0, -875.9574976717122, -43.912035329733044, -627.2728501181118, -223.02332400763407, 0.01600000075995922, -0.19200000911951065, 1.0400000493973494, 0.0, 0.0, 0.0, 0.0, 0.0, 1.7103877771951876E9, 0.0, 2024-03-13 20:42:57.195
58.0, -697.6783367339522, 72.49422074109316, -464.5479330960661, -55.18596374616027, 0.01600000075995922, -0.19200000911951065, 1.0400000493973494, 0.0, 0.0, 0.0, 0.0, 0.0, 1.7103877771951876E9, 0.0, 2024-03-13 20:42:57.195
59.0, -885.8383133546449, 153.27979968395084, -678.2476865141653, 26.310196188278496, 0.01600000075995922, -0.19200000911951065, 1.0400000493973494, 0.0, 0.0, 0.0, 0.0, 0.0, 1.7103877772087336E9, 0.0, 2024-03-13 20:42:57.208
59.0, -773.9891253798269, 159.43567501101643, -527.2380061033182, -17.783224289305508, 0.01600000075995922, -0.19200000911951065, 1.0400000493973494, 0.0, 0.0, 0.0, 0.0, 0.0, 1.7103877772087336E9, 0.0, 2024-03-13 20:42:57.208
60.0, -642.3764360891655, 88.57579055055976, -401.448341043666, -62.572266158647835, 0.01600000075995922, -0.19200000911951065, 1.0400000493973494, 0.0, 0.0, 0.0, 0.0, 0.0, 1.710387777224439E9, 0.0, 2024-03-13 20:42:57.224
60.0, -529.4613766269758, -68.22138504171744, -332.77629805728793, -180.00325481733307, 0.01600000075995922, -0.19200000911951065, 1.0400000493973494, 0.0, 0.0, 0.0, 0.0, 0.0, 1.710387777224439E9, 0.0, 2024-03-13 20:42:57.224
61.0, -711.4018996213563, -195.33871458563954, -497.5132812554948, -363.00216949917376, 0.01600000075995922, -0.19200000911951065, 1.0400000493973494, 0.0, 0.0, 0.0, 0.0, 0.0, 1.7103877772251534E9, 0.0, 2024-03-13 20:42:57.225
61.0, -517.6358129670843, -252.97805270273238, -268.6407537171617, -425.424839659594, 0.01600000075995922, -0.19200000911951065, 1.0400000493973494, 0.0, 0.0, 0.0, 0.0, 0.0, 1.7103877772251534E9, 0.0, 2024-03-13 20:42:57.225
62.0, -665.7021921128035, -280.1783450804651, -432.74756377283484, -392.05371235497296, 0.01600000075995922, -0.19200000911951065, 1.0400000493973494, 0.0, 0.0, 0.0, 0.0, 0.0, 1.710387777238816E9, 0.0, 2024-03-13 20:42:57.238
62.0, -787.2208914230578, -198.55128864757717, -552.747863701079, -346.2025388982147, 0.01600000075995922, -0.19200000911951065, 1.0400000493973494, 0.0, 0.0, 0.0, 0.0, 0.0, 1.710387777238816E9, 0.0, 2024-03-13 20:42:57.238
63.0, -889.4734961115755, -43.56796453380957, -625.1336273434572, -222.32396271592006, 0.01600000075995922, -0.19200000911951065, 1.0400000493973494, 0.0, 0.0, 0.0, 0.0, 0.0, 1.710387777254648E9, 0.0, 2024-03-13 20:42:57.254
63.0, -695.015527965501, 76.00972669944167, -452.09032634366304, -47.579007236287, 0.01600000075995922, -0.19200000911951065, 1.0400000493973494, 0.0, 0.0, 0.0, 0.0, 0.0, 1.710387777254648E9, 0.0, 2024-03-13 20:42:57.254
64.0, -889.6081325099804, 150.67682931479067, -669.7917727143504, 34.26122349407524, 0.01600000075995922, -0.19200000911951065, 1.0400000493973494, 0.0, 0.0, 0.0, 0.0, 0.0, 1.7103877772553804E9, 0.0, 2024-03-13 20:42:57.255
64.0, -766.1577748726122, 170.29634448233992, -516.4970134305768, -15.374728717841208, 0.01600000075995922, -0.19200000911951065, 1.0400000493973494, 0.0, 0.0, 0.0, 0.0, 0.0, 1.7103877772553804E9, 0.0, 2024-03-13 20:42:57.255
65.0, -650.4695795932785, 87.4500806638971, -391.7320809587836, -57.287787521258, 0.01600000075995922, -0.19200000911951065, 1.0400000493973494, 0.0, 0.0, 0.0, 0.0, 0.0, 1.710387777268958E9, 0.0, 2024-03-13 20:42:57.268
65.0, -544.1479637529701, -72.83642158703879, -331.714166469872, -183.82917247200385, 0.01600000075995922, -0.19200000911951065, 1.0400000493973494, 0.0, 0.0, 0.0, 0.0, 0.0, 1.710387777268958E9, 0.0, 2024-03-13 20:42:57.268
66.0, -721.3836926030926, -190.84335483890027, -495.00754828518257, -366.29702136013657, 0.01600000075995922, -0.19200000911951065, 1.0400000493973494, 0.0, 0.0, 0.0, 0.0, 0.0, 1.710387777284464E9, 0.0, 2024-03-13 20:42:57.284
66.0, -513.0170365218073, -239.10302386712283, -257.14804115332663, -409.25725215114653, 0.01600000075995922, -0.19200000911951065, 1.0400000493973494, 0.0, 0.0, 0.0, 0.0, 0.0, 1.710387777284464E9, 0.0, 2024-03-13 20:42:57.284
67.0, -646.2098335437477, -274.8377679437399, -430.47744449973106, -391.42166926246136, 0.01600000075995922, -0.19200000911951065, 1.0400000493973494, 0.0, 0.0, 0.0, 0.0, 0.0, 1.7103877772852004E9, 0.0, 2024-03-13 20:42:57.285
