%OpenBCI Raw EXG Data
%Number of channels = 4
%Sample Rate = 200 Hz
%Board = OpenBCI_GUI$BoardGanglionBLE
Sample Index, EXG Channel 0, EXG Channel 1, EXG Channel 2, EXG Channel 3, Accel Channel 0, Accel Channel 1, Accel Channel 2, Other, Other, Other, Other, Other, Timestamp, Other, Timestamp (Formatted)
2.0, -5.183501338586211, -14.424794129095972, -11.425394364632666, -10.535298175178468, 0.7840000372380018, 0.0, 0.0, 0.0, 0.0, 0.0, 0.0, 0.0, 1.7103950263610053E9, 0.0, 2024-03-13 22:43:46.361
2.0, -8.489572899416089, -8.508272399194539, -12.375328953377903, -6.623362821526825, 0.7840000372380018, 0.0, 0.0, 0.0, 0.0, 0.0, 0.0, 0.0, 1.7103950263610053E9, 0.0, 2024-03-13 22:43:46.361
3.0, -11.010265469551086, -14.735205825418234, -4.274705649353564, -9.316090789623559, 0.7840000372380018, 0.0, 0.0, 0.0, 0.0, 0.0, 0.0, 0.0, 1.710395026375455E9, 0.0, 2024-03-13 22:43:46.375
3.0, -9.420807988382876, -11.387995365075767, -10.733512872830033, -7.898668706417084, 0.7840000372380018, 0.0, 0.0, 0.0, 0.0, 0.0, 0.0, 0.0, 1.710395026375455E9, 0.0, 2024-03-13 22:43:46.375
4.0, -1.1144901867955923, -5.770665631629527, -5.310657937079668, -0.9686340885236859, 0.7840000372380018, 0.0, 0.0, 0.0, 0.0, 0.0, 0.0, 0.0, 1.7103950263761773E9, 0.0, 2024-03-13 22:43:46.376
4.0, -15.550504015758634, -6.84401691891253, -8.47835319954902, -9.24877259042114, 0.7840000372380018, 0.0, 0.0, 0.0, 0.0, 0.0, 0.0, 0.0, 1.7103950263761773E9, 0.0, 2024-03-13 22:43:46.376
5.0, -26.456052286550403, -23.651127319782972, -23.666086919605732, -23.32575602363795, 0.7840000372380018, 0.0, 0.0, 0.0, 0.0, 0.0, 0.0, 0.0, 1.7103950263897119E9, 0.0, 2024-03-13 22:43:46.389
5.0, -7.483539811335504, -3.1153366630896926, -14.129342032596469, -4.5701577458530664, 0.7840000372380018, 0.0, 0.0, 0.0, 0.0, 0.0, 0.0, 0.0, 1.7103950263897119E9, 0.0, 2024-03-13 22:43:46.389
6.0, -10.131388979963958, -4.600076945498586, -5.550011534243822, -5.7332666320726275, 0.7840000372380018, 0.0, 0.0, 0.0, 0.0, 0.0, 0.0, 0.0, 1.7103950264055953E9, 0.0, 2024-03-13 22:43:46.405
6.0, -18.232012283988297, -21.429626746103168, -5.587410533800721, -8.414774900302291, 0.7840000372380018, 0.0, 0.0, 0.0, 0.0, 0.0, 0.0, 0.0, 1.7103950264055953E9, 0.0, 2024-03-13 22:43:46.405
7.0, -22.323462835513055, -20.12814156152308, -16.42938050534576, -14.727726025506854, 0.7840000372380018, 0.0, 0.0, 0.0, 0.0, 0.0, 0.0, 0.0, 1.7103950264062293E9, 0.0, 2024-03-13 22:43:46.406
7.0, -19.68309346679598, -10.987826069816947, -19.140807973220944, -6.757999219931662, 0.7840000372380018, 0.0, 0.0, 0.0, 0.0, 0.0, 0.0, 0.0, 1.7103950264062293E9, 0.0, 2024-03-13 22:43:46.406
8.0, -11.720846461132169, -7.289065013639629, -4.540238546207547, -2.060684875585139, 0.7840000372380018, 0.0, 0.0, 0.0, 0.0, 0.0, 0.0, 0.0, 1.7103950264199915E9, 0.0, 2024-03-13 22:43:46.419
8.0, -5.344317036680877, -6.83279721904546, -7.0609311163425446, 2.296298572793603, 0.7840000372380018, 0.0, 0.0, 0.0, 0.0, 0.0, 0.0, 0.0, 1.7103950264199915E9, 0.0, 2024-03-13 22:43:46.419
9.0, -2.131742974743247, 3.7585994554683566, -9.338530189357698, 2.6403693687170744, 0.7840000372380018, 0.0, 0.0, 0.0, 0.0, 0.0, 0.0, 0.0, 1.7103950264354763E9, 0.0, 2024-03-13 22:43:46.435
9.0, -4.469180447049439, -2.9657406648620963, 0.34033089596778154, -1.484740282408893, 0.7840000372380018, 0.0, 0.0, 0.0, 0.0, 0.0, 0.0, 0.0, 1.7103950264354763E9, 0.0, 2024-03-13 22:43:46.435
10.0, -0.2094343975186348, -6.159615227021277, 11.156121567822993, 5.62480953335762, 0.7840000372380018, 0.0, 0.2240000106394291, 0.0, 0.0, 0.0, 0.0, 0.0, 1.7103950264361196E9, 0.0, 2024-03-13 22:43:46.436
10.0, -7.375082712620497, -2.4720738707110286, -20.16928046103567, -5.867903030477464, 0.7840000372380018, 0.0, 0.2240000106394291, 0.0, 0.0, 0.0, 0.0, 0.0, 1.7103950264361196E9, 0.0, 2024-03-13 22:43:46.436
11.0, -6.679461320862174, -5.662208532914519, -15.385948417708278, -7.954767205752432, 0.7840000372380018, 0.6400000303983688, 0.2240000106394291, 0.0, 0.0, 0.0, 0.0, 0.0, 1.7103950264499912E9, 0.0, 2024-03-13 22:43:46.449
11.0, -24.032597115263343, -16.42938050534576, -10.677414373494685, -12.360369353555143, 0.7840000372380018, 0.6400000303983688, 0.2240000106394291, 0.0, 0.0, 0.0, 0.0, 0.0, 1.7103950264499912E9, 0.0, 2024-03-13 22:43:46.449
12.0, -13.156968044117093, -14.49585222825408, -10.4866794757545, -8.953320493921638, 0.7840000372380018, 0.6400000303983688, 0.2240000106394291, 0.0, 0.0, 0.0, 0.0, 0.0, 1.71039502646575E9, 0.0, 2024-03-13 22:43:46.465
12.0, -8.792504795826972, -9.353489789180458, -7.502239311113954, 2.943301265127957, 0.7840000372380018, 0.6400000303983688, 0.2240000106394291, 0.0, 0.0, 0.0, 0.0, 0.0, 1.71039502646575E9, 0.0, 2024-03-13 22:43:46.465
13.0, -18.781777577474713, -14.234059231355786, -15.629041914828122, -14.450973428785801, 0.7840000372380018, 0.6400000303983688, 0.2240000106394291, 0.0, 0.0, 0.0, 0.0, 0.0, 1.710395026466322E9, 0.0, 2024-03-13 22:43:46.466
13.0, -12.921354346908629, -4.136329350993037, -10.643755273893476, -3.2387533616274595, 0.7840000372380018, 0.6400000303983688, 0.2240000106394291, 0.0, 0.0, 0.0, 0.0, 0.0, 1.710395026466322E9, 0.0, 2024-03-13 22:43:46.466
14.0, -5.972620229236782, -1.1369295865297318, -3.900715653784573, -1.1444093864411116, 0.7840000372380018, 0.6400000303983688, 0.2240000106394291, 0.0, 0.0, 0.0, 0.0, 0.0, 1.7103950264801087E9, 0.0, 2024-03-13 22:43:46.480
14.0, -15.120415520854294, -2.0232858760282397, -2.169141974300146, -2.00832627620548, 0.7840000372380018, 0.6400000303983688, 0.2240000106394291, 0.0, 0.0, 0.0, 0.0, 0.0, 1.7103950264801087E9, 0.0, 2024-03-13 22:43:46.480
15.0, -23.049003426916897, -14.45845322869718, -18.837876076810062, -13.325263542123139, 0.7840000372380018, 0.6400000303983688, 0.2240000106394291, 0.0, 0.0, 0.0, 0.0, 0.0, 1.7103950264957097E9, 0.0, 2024-03-13 22:43:46.495
15.0, -7.842570207081735, 0.29545209649950266, -12.394028453156352, 1.5744978813454509, 0.7840000372380018, 0.6400000303983688, 0.2240000106394291, 0.0, 0.0, 0.0, 0.0, 0.0, 1.7103950264957097E9, 0.0, 2024-03-13 22:43:46.495
16.0, -10.785871472209692, 1.4697806825861335, 0.7218006914481521, 4.450480947270989, 0.7840000372380018, 0.6400000303983688, 0.2240000106394291, 0.0, 0.0, 0.0, 0.0, 0.0, 1.7103950264961436E9, 0.0, 2024-03-13 22:43:46.496
16.0, -10.8569295713678, -4.738453243859112, 9.394628688693047, 3.9680338529869914, 0.7840000372380018, 0.6400000303983688, 0.2240000106394291, 0.0, 0.0, 0.0, 0.0, 0.0, 1.7103950264961436E9, 0.0, 2024-03-13 22:43:46.496
17.0, 3.6763216564431787, 7.782731807790697, 8.336237001232803, 16.05539050977677, 0.7840000372380018, 0.6400000303983688, 0.2240000106394291, 0.0, 0.0, 0.0, 0.0, 0.0, 1.710395026509962E9, 0.0, 2024-03-13 22:43:46.509
17.0, 2.902162365615368, 8.84860329516232, 8.46713349968195, 13.089649844914675, 0.7840000372380018, 0.6400000303983688, 0.2240000106394291, 0.0, 0.0, 0.0, 0.0, 0.0, 1.710395026509962E9, 0.0, 2024-03-13 22:43:46.509
18.0, -15.995552110485733, -11.492712563835084, -4.450480947270989, -5.254559437744319, 0.7840000372380018, 0.6400000303983688, 0.2240000106394291, 0.0, 0.0, 0.0, 0.0, 0.0, 1.7103950265254295E9, 0.0, 2024-03-13 22:43:46.525
18.0, -13.837629836052656, -11.051404369063675, -13.811450536362827, -6.062377828173339, 0.7840000372380018, 0.6400000303983688, 0.2240000106394291, 0.0, 0.0, 0.0, 0.0, 0.0, 1.7103950265254295E9, 0.0, 2024-03-13 22:43:46.525
19.0, -16.003031910397112, -4.622516345232725, -19.858868764713407, -10.946687170304358, 0.7840000372380018, 0.6400000303983688, 0.2240000106394291, 0.0, 0.0, 0.0, 0.0, 0.0, 1.7103950265261908E9, 0.0, 2024-03-13 22:43:46.526
19.0, -23.912920316681266, -14.163001132197678, -18.187133484520018, -16.11148900911212, 0.7840000372380018, 0.6400000303983688, 0.2240000106394291, 0.0, 0.0, 0.0, 0.0, 0.0, 1.7103950265261908E9, 0.0, 2024-03-13 22:43:46.526
20.0, -17.465332793071866, -9.772358584217727, -8.594290098175406, -8.152981903403997, 0.7840000372380018, 0.6400000303983688, 0.2240000106394291, 0.0, 0.0, 0.0, 0.0, 0.0, 1.71039502653975E9, 0.0, 2024-03-13 22:43:46.539
20.0, -4.8880492420867085, 1.5782377813011408, 1.772712578997016, 6.320430925115943, 0.7840000372380018, 0.6400000303983688, 0.2240000106394291, 0.0, 0.0, 0.0, 0.0, 0.0, 1.71039502653975E9, 0.0, 2024-03-13 22:43:46.539
21.0, -13.575836839154363, -6.081077327951789, -2.180361674167216, -5.811804531142116, 0.7840000372380018, 0.6400000303983688, 0.2240000106394291, 0.0, 0.0, 0.0, 0.0, 0.0, 1.71039502655549E9, 0.0, 2024-03-13 22:43:46.555
21.0, -28.071689067408442, -25.655713696032763, -11.784424760378897, -20.12814156152308, 0.7840000372380018, 0.6400000303983688, 0.2240000106394291, 0.0, 0.0, 0.0, 0.0, 0.0, 1.71039502655549E9, 0.0, 2024-03-13 22:43:46.555
22.0, -17.786964189261198, -13.26916504278779, -11.952720258384943, -8.100623304024339, 0.7840000372380018, 0.6400000303983688, 0.2240000106394291, 0.0, 0.0, 0.0, 0.0, 0.0, 1.7103950265564487E9, 0.0, 2024-03-13 22:43:46.556
22.0, -13.362662541680038, -9.978053081780672, -10.744732572697103, -2.9545209649950266, 0.7840000372380018, 0.6400000303983688, 0.2240000106394291, 0.0, 0.0, 0.0, 0.0, 0.0, 1.7103950265564487E9, 0.0, 2024-03-13 22:43:46.556
23.0, -24.54122350923717, -21.949472839944065, -9.832196983508766, -13.65063483826816, 0.7840000372380018, 0.6400000303983688, 0.2240000106394291, 0.0, 0.0, 0.0, 0.0, 0.0, 1.7103950265860927E9, 0.0, 2024-03-13 22:43:46.586
23.0, -28.008110768161714, -27.996891068294644, -9.794797983951867, -9.944393982179463, 0.7840000372380018, 0.6400000303983688, 0.2240000106394291, 0.0, 0.0, 0.0, 0.0, 0.0, 1.7103950265860927E9, 0.0, 2024-03-13 22:43:46.586
24.0, -14.342516330070794, -14.985779122449458, -11.773205060511827, -2.7488264674320817, 0.7840000372380018, 0.6400000303983688, 0.2240000106394291, 0.0, 0.0, 0.0, 0.0, 0.0, 1.7103950265868304E9, 0.0, 2024-03-13 22:43:46.586
24.0, -25.135867602191865, -23.131281225942075, -29.81448244675994, -22.794690229929984, 0.7840000372380018, 0.6400000303983688, 0.2240000106394291, 0.0, 0.0, 0.0, 0.0, 0.0, 1.7103950265868304E9, 0.0, 2024-03-13 22:43:46.586
25.0, -27.245171177200973, -30.98881103284657, -30.11741434317082, -29.070242355577648, 0.7840000372380018, 0.6400000303983688, 0.2240000106394291, 0.0, 0.0, 0.0, 0.0, 0.0, 1.7103950265875564E9, 0.0, 2024-03-13 22:43:46.587
25.0, -26.067102691158652, -20.57318965625018, -22.53663713298738, -18.647141179069877, 0.7840000372380018, 0.6400000303983688, 0.2240000106394291, 0.0, 0.0, 0.0, 0.0, 0.0, 1.7103950265875564E9, 0.0, 2024-03-13 22:43:46.587
26.0, -28.722431659698486, -24.19341281335801, -12.89143514726311, -16.773451301269233, 0.7840000372380018, 0.6400000303983688, 0.2240000106394291, 0.0, 0.0, 0.0, 0.0, 0.0, 1.7103950266000285E9, 0.0, 2024-03-13 22:43:46.600
26.0, -27.82485567033291, -33.89097339846194, -18.05623698607087, -18.422747181728482, 0.7840000372380018, 0.6400000303983688, 0.2240000106394291, 0.0, 0.0, 0.0, 0.0, 0.0, 1.7103950266000285E9, 0.0, 2024-03-13 22:43:46.600
27.0, -22.802170029841363, -17.34939589444548, -6.04367832839489, -7.760292408056557, 0.7840000372380018, 0.6400000303983688, 0.2240000106394291, 0.0, 0.0, 0.0, 0.0, 0.0, 1.7103950266156447E9, 0.0, 2024-03-13 22:43:46.615
27.0, -24.657160407863557, -18.437706781551242, -4.469180447049439, -9.125355891883373, 0.7840000372380018, 0.6400000303983688, 0.2240000106394291, 0.0, 0.0, 0.0, 0.0, 0.0, 1.7103950266156447E9, 0.0, 2024-03-13 22:43:46.615
28.0, -29.567649049684405, -25.72303189523518, -16.635075002908707, -22.413220434449613, 0.7840000372380018, 0.6400000303983688, 0.2240000106394291, 0.0, 0.0, 0.0, 0.0, 0.0, 1.7103950266165116E9, 0.0, 2024-03-13 22:43:46.616
28.0, -28.064209267497063, -27.578022273257375, -23.157460525631905, -16.814590200781822, 0.7840000372380018, 0.6400000303983688, 0.2240000106394291, 0.0, 0.0, 0.0, 0.0, 0.0, 1.7103950266165116E9, 0.0, 2024-03-13 22:43:46.616
29.0, -26.676706383936107, -19.458699469454587, -25.064809503033757, -15.030657921917737, 0.7840000372380018, 0.6400000303983688, 0.2240000106394291, 0.0, 0.0, 0.0, 0.0, 0.0, 1.710395026630128E9, 0.0, 2024-03-13 22:43:46.630
29.0, -28.707472059875727, -26.59068868495524, -13.467379740439355, -19.27170447167009, 0.7840000372380018, 0.6400000303983688, 0.2240000106394291, 0.0, 0.0, 0.0, 0.0, 0.0, 1.710395026630128E9, 0.0, 2024-03-13 22:43:46.630
30.0, -31.246864129789174, -22.802170029841363, -19.806510165333748, -24.002677915617824, 0.7840000372380018, 0.6400000303983688, 0.2240000106394291, 0.0, 0.0, 0.0, 0.0, 0.0, 1.710395026645892E9, 0.0, 2024-03-13 22:43:46.645
30.0, -21.582962644286454, -17.820623288862407, -22.024270839057863, -11.64978836197406, 0.7840000372380018, 0.6400000303983688, 0.2240000106394291, 0.0, 0.0, 0.0, 0.0, 0.0, 1.710395026645892E9, 0.0, 2024-03-13 22:43:46.645
31.0, -20.719045754522085, -12.723139649257064, -23.32949592359364, -18.10485568549484, 0.7840000372380018, 0.6560000311583281, 0.2240000106394291, 0.0, 0.0, 0.0, 0.0, 0.0, 1.7103950266604712E9, 0.0, 2024-03-13 22:43:46.660
31.0, -24.687079607509077, -24.5300038093701, -18.50502498075366, -24.399107310920954, 0.7840000372380018, 0.6560000311583281, 0.2240000106394291, 0.0, 0.0, 0.0, 0.0, 0.0, 1.7103950266604712E9, 0.0, 2024-03-13 22:43:46.660
32.0, -22.327202735468745, -29.294636352919042, -24.92269330471754, -26.92353978101164, 0.800000037997961, 0.6560000311583281, 0.2240000106394291, 0.0, 0.0, 0.0, 0.0, 0.0, 1.710395026661208E9, 0.0, 2024-03-13 22:43:46.661
32.0, -26.055882991291583, -33.10559440776706, -20.232858760282397, -20.98831855133176, 0.800000037997961, 0.6560000311583281, 0.2240000106394291, 0.0, 0.0, 0.0, 0.0, 0.0, 1.710395026661208E9, 0.0, 2024-03-13 22:43:46.661
33.0, -37.94128505047411, -39.85985372774303, -23.464132321998477, -27.02451707981527, 0.800000037997961, 0.6560000311583281, 0.2240000106394291, 0.0, 0.0, 0.0, 0.0, 0.0, 1.7103950266753993E9, 0.0, 2024-03-13 22:43:46.675
33.0, -35.51408997923136, -36.99135046172887, -22.772250830195844, -26.11572139058262, 0.800000037997961, 0.6560000311583281, 0.2240000106394291, 0.0, 0.0, 0.0, 0.0, 0.0, 1.7103950266753993E9, 0.0, 2024-03-13 22:43:46.675
34.0, -29.515290450304747, -29.141300454735756, -24.16723351366818, -16.421900705434382, 0.800000037997961, 0.6560000311583281, 0.2240000106394291, 0.0, 0.0, 0.0, 0.0, 0.0, 1.7103950266761875E9, 0.0, 2024-03-13 22:43:46.676
34.0, -40.432058420963585, -38.397552845068276, -22.17012693732977, -26.60190838482231, 0.800000037997961, 0.6560000311583281, 0.2240000106394291, 0.0, 0.0, 0.0, 0.0, 0.0, 1.7103950266761875E9, 0.0, 2024-03-13 22:43:46.676
35.0, -37.32420155778527, -38.861300439573824, -16.391981505788863, -24.735698306933045, 0.800000037997961, 0.6560000311583281, 0.2240000106394291, 0.0, 0.0, 0.0, 0.0, 0.0, 1.710395026689748E9, 0.0, 2024-03-13 22:43:46.689
35.0, -28.475598262622952, -23.72966521885246, -10.987826069816947, -8.347456701099873, 0.800000037997961, 0.6560000311583281, 0.2240000106394291, 0.0, 0.0, 0.0, 0.0, 0.0, 1.710395026689748E9, 0.0, 2024-03-13 22:43:46.689
36.0, -21.7138591427356, -14.170480932109058, 0.8676567897200584, 3.2424932615831494, 0.800000037997961, 0.6560000311583281, 0.2240000106394291, 0.0, 0.0, 0.0, 0.0, 0.0, 1.7103950267054355E9, 0.0, 2024-03-13 22:43:46.705
36.0, -26.280276988632977, -28.10160826705396, -12.831596747972071, -16.354582506231964, 0.800000037997961, 0.6560000311583281, 0.2240000106394291, 0.0, 0.0, 0.0, 0.0, 0.0, 1.7103950267054355E9, 0.0, 2024-03-13 22:43:46.705
37.0, -24.91147360485047, -22.050450138747692, -21.530604044906795, -16.15262790862471, 0.800000037997961, 0.6560000311583281, 0.2240000106394291, 0.0, 0.0, 0.0, 0.0, 0.0, 1.710395026706246E9, 0.0, 2024-03-13 22:43:46.706
37.0, -22.56281643267721, -16.93052709940821, -20.449772957712412, -16.298484006896615, 0.800000037997961, 0.6560000311583281, 0.2240000106394291, 0.0, 0.0, 0.0, 0.0, 0.0, 1.710395026706246E9, 0.0, 2024-03-13 22:43:46.706
38.0, -23.583809120580554, -16.84076950047165, -12.768018448725343, -12.768018448725343, 0.800000037997961, 0.6560000311583281, 0.2240000106394291, 0.0, 0.0, 0.0, 0.0, 0.0, 1.7103950267197945E9, 0.0, 2024-03-13 22:43:46.719
38.0, -21.968172339722514, -13.186887243762612, -13.205586743541062, -9.761138884350657, 0.800000037997961, 0.6560000311583281, 0.2240000106394291, 0.0, 0.0, 0.0, 0.0, 0.0, 1.7103950267197945E9, 0.0, 2024-03-13 22:43:46.719
39.0, -11.077583668753505, -4.83943054266274, -10.924247770570219, -0.9873335883021355, 0.800000037997961, 0.6560000311583281, 0.2240000106394291, 0.0, 0.0, 0.0, 0.0, 0.0, 1.7103950267354152E9, 0.0, 2024-03-13 22:43:46.735
39.0, -9.566664086654782, -5.426594835706055, -5.23959983792156, -3.781038855202496, 0.800000037997961, 0.6560000311583281, 0.2240000106394291, 0.0, 0.0, 0.0, 0.0, 0.0, 1.7103950267354152E9, 0.0, 2024-03-13 22:43:46.735
40.0, -33.90967289824039, -31.635813725180924, -29.77708344720304, -37.50745665561408, 0.800000037997961, 0.6560000311583281, 0.2400000113993883, 0.0, 0.0, 0.0, 0.0, 0.0, 1.71039502673621E9, 0.0, 2024-03-13 22:43:46.736
40.0, -25.928726392798126, -27.245171177200973, -37.82160825189203, -34.47065789159387, 0.800000037997961, 0.6560000311583281, 0.2400000113993883, 0.0, 0.0, 0.0, 0.0, 0.0, 1.71039502673621E9, 0.0, 2024-03-13 22:43:46.736
41.0, -30.745717535726726, -29.3843939518556, -22.92184682842344, -29.548949549905956, 0.800000037997961, 0.6560000311583281, 0.2400000113993883, 0.0, 0.0, 0.0, 0.0, 0.0, 1.710395026749745E9, 0.0, 2024-03-13 22:43:46.749
41.0, -56.33785293251276, -55.09620614722371, -41.74476330541074, -53.88447856158018, 0.800000037997961, 0.6560000311583281, 0.2400000113993883, 0.0, 0.0, 0.0, 0.0, 0.0, 1.710395026749745E9, 0.0, 2024-03-13 22:43:46.749
42.0, -47.665024935267866, -48.66731812339276, -43.07990758959204, -46.77866864576936, 0.800000037997961, 0.6560000311583281, 0.2400000113993883, 0.0, 0.0, 0.0, 0.0, 0.0, 1.7103950267658026E9, 0.0, 2024-03-13 22:43:46.765
42.0, -42.31322809867561, -43.04998838994652, -35.02042318508029, -44.00366287864745, 0.800000037997961, 0.6560000311583281, 0.2400000113993883, 0.0, 0.0, 0.0, 0.0, 0.0, 1.7103950267658026E9, 0.0, 2024-03-13 22:43:46.765
43.0, -44.904978767968714, -44.7628625696525, -23.931619816459715, -44.34025387465954, 0.800000037997961, 0.6560000311583281, 0.2400000113993883, 0.0, 0.0, 0.0, 0.0, 0.0, 1.7103950267664516E9, 0.0, 2024-03-13 22:43:46.766
43.0, -37.69445165339857, -40.26750282291323, -21.545563644729555, -34.429518992081285, 0.800000037997961, 0.6560000311583281, 0.2400000113993883, 0.0, 0.0, 0.0, 0.0, 0.0, 1.7103950267664516E9, 0.0, 2024-03-13 22:43:46.766
44.0, -42.892912591807544, -46.78988834563643, -37.51493645552546, -39.41854553297162, 0.800000037997961, 0.6560000311583281, 0.2400000113993883, 0.0, 0.0, 0.0, 0.0, 0.0, 1.71039502678008E9, 0.0, 2024-03-13 22:43:46.780
44.0, -43.58479408361018, -42.919091891497374, -27.697699071839452, -39.38114653341472, 0.800000037997961, 0.6560000311583281, 0.2400000113993883, 0.0, 0.0, 0.0, 0.0, 0.0, 1.71039502678008E9, 0.0, 2024-03-13 22:43:46.780
45.0, -43.99244317878038, -46.079307354055345, -24.16723351366818, -40.14034622441977, 0.800000037997961, 0.6560000311583281, 0.2400000113993883, 0.0, 0.0, 0.0, 0.0, 0.0, 1.7103950267956648E9, 0.0, 2024-03-13 22:43:46.795
45.0, -46.30370135139674, -43.83162748068571, -26.89362058136612, -32.002323920838535, 0.800000037997961, 0.6560000311583281, 0.2400000113993883, 0.0, 0.0, 0.0, 0.0, 0.0, 1.7103950267956648E9, 0.0, 2024-03-13 22:43:46.795
46.0, -55.93020383734256, -48.23348972853273, -29.915459745563567, -38.36763364542276, 0.800000037997961, 0.6560000311583281, 0.2400000113993883, 0.0, 0.0, 0.0, 0.0, 0.0, 1.7103950267963474E9, 0.0, 2024-03-13 22:43:46.796
46.0, -65.08173902891576, -54.87555204983801, -31.78540972340852, -43.97374367900193, 0.800000037997961, 0.6560000311583281, 0.2400000113993883, 0.0, 0.0, 0.0, 0.0, 0.0, 1.7103950267963474E9, 0.0, 2024-03-13 22:43:46.796
47.0, -49.44895721413195, -48.71967672277242, -36.464024567976594, -37.54859555512667, 0.800000037997961, 0.6560000311583281, 0.2400000113993883, 0.0, 0.0, 0.0, 0.0, 0.0, 1.7103950268097095E9, 0.0, 2024-03-13 22:43:46.809
47.0, -34.403339692391455, -30.98881103284657, -25.580915696918964, -28.378360863775015, 0.800000037997961, 0.6560000311583281, 0.2400000113993883, 0.0, 0.0, 0.0, 0.0, 0.0, 1.7103950268097095E9, 0.0, 2024-03-13 22:43:46.809
48.0, -33.07941510807723, -31.36654092837125, -19.37268177047372, -28.9767448566854, 0.800000037997961, 0.6560000311583281, 0.2400000113993883, 0.0, 0.0, 0.0, 0.0, 0.0, 1.710395026825422E9, 0.0, 2024-03-13 22:43:46.825
48.0, -32.13322041928768, -31.76297032367438, -29.73968444764614, -29.35073485225439, 0.800000037997961, 0.6560000311583281, 0.2400000113993883, 0.0, 0.0, 0.0, 0.0, 0.0, 1.710395026825422E9, 0.0, 2024-03-13 22:43:46.825
49.0, -31.83402842283249, -26.250357788987458, -30.55498263798654, -19.944886463694274, 0.800000037997961, 0.6560000311583281, 0.2400000113993883, 0.0, 0.0, 0.0, 0.0, 0.0, 1.7103950268261514E9, 0.0, 2024-03-13 22:43:46.826
49.0, -34.29114269372076, -29.43301265127957, -18.10485568549484, -24.447726010344923, 0.800000037997961, 0.6560000311583281, 0.2400000113993883, 0.0, 0.0, 0.0, 0.0, 0.0, 1.7103950268261514E9, 0.0, 2024-03-13 22:43:46.826
50.0, -37.627133454196155, -30.24083104170859, -16.784671001136303, -24.425286610610783, 0.800000037997961, 0.6560000311583281, 0.2400000113993883, 0.0, 0.0, 0.0, 0.0, 0.0, 1.7103950268397453E9, 0.0, 2024-03-13 22:43:46.839
50.0, -38.27413614653051, -32.851281210780144, -22.387041134759784, -23.40055402275175, 0.800000037997961, 0.6560000311583281, 0.2400000113993883, 0.0, 0.0, 0.0, 0.0, 0.0, 1.7103950268397453E9, 0.0, 2024-03-13 22:43:46.839
51.0, -41.72606380563229, -30.59238163754344, -6.993612917140126, -9.858376283198595, 0.800000037997961, 0.6400000303983688, 0.2400000113993883, 0.0, 0.0, 0.0, 0.0, 0.0, 1.7103950268554184E9, 0.0, 2024-03-13 22:43:46.855
51.0, -40.31238162238151, -36.052635572850704, -9.058037692680955, -19.021131174638867, 0.800000037997961, 0.6400000303983688, 0.2400000113993883, 0.0, 0.0, 0.0, 0.0, 0.0, 1.7103950268554184E9, 0.0, 2024-03-13 22:43:46.855
52.0, -45.85865325666964, -37.50745665561408, -29.37691415194422, -25.461238898336887, 0.800000037997961, 0.6400000303983688, 0.2400000113993883, 0.0, 0.0, 0.0, 0.0, 0.0, 1.710395026856134E9, 0.0, 2024-03-13 22:43:46.856
52.0, -41.696144605986774, -38.23673714697361, -37.88144665118307, -34.9044862864539, 0.800000037997961, 0.6400000303983688, 0.2400000113993883, 0.0, 0.0, 0.0, 0.0, 0.0, 1.710395026856134E9, 0.0, 2024-03-13 22:43:46.856
53.0, -38.61820694245398, -35.633766777813435, -28.52047706209123, -32.55956901423633, 0.800000037997961, 0.6400000303983688, 0.2400000113993883, 0.0, 0.0, 0.0, 0.0, 0.0, 1.7103950268697567E9, 0.0, 2024-03-13 22:43:46.869
53.0, -39.74391682911664, -41.06410151347518, -35.7571834763512, -34.1639860952273, 0.800000037997961, 0.6400000303983688, 0.2400000113993883, 0.0, 0.0, 0.0, 0.0, 0.0, 1.7103950268697567E9, 0.0, 2024-03-13 22:43:46.869
54.0, -41.0940207131207, -33.82365519925952, -33.08689490798861, -25.498637897893786, 0.800000037997961, 0.6400000303983688, 0.2400000113993883, 0.0, 0.0, 0.0, 0.0, 0.0, 1.7103950268854923E9, 0.0, 2024-03-13 22:43:46.885
54.0, -46.438337749801576, -33.53194300271571, -19.054790274240077, -22.15142743755132, 0.800000037997961, 0.6400000303983688, 0.2400000113993883, 0.0, 0.0, 0.0, 0.0, 0.0, 1.7103950268854923E9, 0.0, 2024-03-13 22:43:46.885
55.0, -54.62497875280678, -40.99678331427276, -27.903393569402397, -31.561015726067126, 0.800000037997961, 0.6400000303983688, 0.2400000113993883, 0.0, 0.0, 0.0, 0.0, 0.0, 1.7103950268862984E9, 0.0, 2024-03-13 22:43:46.886
55.0, -31.78540972340852, -25.969865292310715, -17.547610592097044, -13.886248535476625, 0.800000037997961, 0.6400000303983688, 0.2400000113993883, 0.0, 0.0, 0.0, 0.0, 0.0, 1.7103950268862984E9, 0.0, 2024-03-13 22:43:46.886
56.0, -46.61037314776331, -49.91644470859319, -19.7878106655553, -25.079769102856517, 0.800000037997961, 0.6400000303983688, 0.2400000113993883, 0.0, 0.0, 0.0, 0.0, 0.0, 1.710395026899752E9, 0.0, 2024-03-13 22:43:46.899
56.0, -67.45283560082316, -63.510981047526, -28.714951859787107, -42.511442796327174, 0.800000037997961, 0.6400000303983688, 0.2400000113993883, 0.0, 0.0, 0.0, 0.0, 0.0, 1.710395026899752E9, 0.0, 2024-03-13 22:43:46.899
57.0, -49.92018460854888, -51.48346279002726, -34.64269328955561, -33.10185450781137, 0.800000037997961, 0.6400000303983688, 0.2400000113993883, 0.0, 0.0, 0.0, 0.0, 0.0, 1.7103950269153645E9, 0.0, 2024-03-13 22:43:46.915
57.0, -42.74705649353564, -43.8727663801983, -33.41226620413363, -35.13636008370668, 0.800000037997961, 0.6400000303983688, 0.2400000113993883, 0.0, 0.0, 0.0, 0.0, 0.0, 1.7103950269153645E9, 0.0, 2024-03-13 22:43:46.915
58.0, -44.890019168145955, -46.139145753346384, -30.6073412373662, -39.642939530313015, 0.800000037997961, 0.6400000303983688, 0.2400000113993883, 0.0, 0.0, 0.0, 0.0, 0.0, 1.7103950269163513E9, 0.0, 2024-03-13 22:43:46.916
58.0, -42.66851859446615, -44.8002615692094, -31.119707531295717, -34.65765288937837, 0.800000037997961, 0.6400000303983688, 0.2400000113993883, 0.0, 0.0, 0.0, 0.0, 0.0, 1.7103950269163513E9, 0.0, 2024-03-13 22:43:46.916
59.0, -31.968664821237326, -26.98711808025837, -28.741131159476936, -24.92269330471754, 0.800000037997961, 0.6400000303983688, 0.2400000113993883, 0.0, 0.0, 0.0, 0.0, 0.0, 1.7103950269300148E9, 0.0, 2024-03-13 22:43:46.930
59.0, -24.286910312250257, -14.656667926348746, -10.987826069816947, -17.551350492052734, 0.800000037997961, 0.6400000303983688, 0.2400000113993883, 0.0, 0.0, 0.0, 0.0, 0.0, 1.7103950269300148E9, 0.0, 2024-03-13 22:43:46.930
60.0, -46.21020385250449, -41.34085411019623, -28.17640626616776, -30.887833734042943, 0.800000037997961, 0.6400000303983688, 0.2400000113993883, 0.0, 0.0, 0.0, 0.0, 0.0, 1.7103950269454277E9, 0.0, 2024-03-13 22:43:46.945
60.0, -55.331819844432175, -50.63076560012996, -36.29946896992624, -34.64269328955561, 0.800000037997961, 0.6400000303983688, 0.2400000113993883, 0.0, 0.0, 0.0, 0.0, 0.0, 1.7103950269454277E9, 0.0, 2024-03-13 22:43:46.945
61.0, -51.00475559569895, -46.68143124692142, -30.311889140866697, -37.686971853487194, 0.800000037997961, 0.6400000303983688, 0.2400000113993883, 0.0, 0.0, 0.0, 0.0, 0.0, 1.710395026946146E9, 0.0, 2024-03-13 22:43:46.946
61.0, -44.68058477062732, -40.37222002167255, -12.618422450497746, -21.081816050224006, 0.800000037997961, 0.6400000303983688, 0.2400000113993883, 0.0, 0.0, 0.0, 0.0, 0.0, 1.710395026946146E9, 0.0, 2024-03-13 22:43:46.946
62.0, -40.1665255241096, -31.587195025756955, -26.781423582695425, -22.039230438880622, 0.800000037997961, 0.6400000303983688, 0.2400000113993883, 0.0, 0.0, 0.0, 0.0, 0.0, 1.7103950269597297E9, 0.0, 2024-03-13 22:43:46.959
62.0, -30.296929541043937, -29.31333585269749, -25.536036897450686, -23.456652522087097, 0.800000037997961, 0.6400000303983688, 0.2400000113993883, 0.0, 0.0, 0.0, 0.0, 0.0, 1.7103950269597297E9, 0.0, 2024-03-13 22:43:46.959
63.0, -34.71001148875803, -28.696252360008657, -21.36230854690075, -29.02162365615368, 0.800000037997961, 0.6400000303983688, 0.2400000113993883, 0.0, 0.0, 0.0, 0.0, 0.0, 1.7103950269754438E9, 0.0, 2024-03-13 22:43:46.975
63.0, -37.45135815627873, -31.493697526864707, -26.037183491513133, -22.413220434449613, 0.800000037997961, 0.6400000303983688, 0.2400000113993883, 0.0, 0.0, 0.0, 0.0, 0.0, 1.7103950269754438E9, 0.0, 2024-03-13 22:43:46.975
64.0, -16.014251610264182, -8.332497101277113, -16.822070000693202, -8.8186840955168, 0.800000037997961, 0.6400000303983688, 0.2400000113993883, 0.0, 0.0, 0.0, 0.0, 0.0, 1.7103950269761617E9, 0.0, 2024-03-13 22:43:46.976
64.0, -7.083370516076684, -8.654128497466445, -9.708780284970999, -9.806017683818936, 0.800000037997961, 0.6400000303983688, 0.2400000113993883, 0.0, 0.0, 0.0, 0.0, 0.0, 1.7103950269761617E9, 0.0, 2024-03-13 22:43:46.976
65.0, -9.813497483730316, -11.451573664322495, -25.969865292310715, -20.217899160459638, 0.800000037997961, 0.6400000303983688, 0.2400000113993883, 0.0, 0.0, 0.0, 0.0, 0.0, 1.7103950269897687E9, 0.0, 2024-03-13 22:43:46.989
65.0, -4.573897645808756, -4.996506340801716, -15.658961114473641, -11.870442459359765, 0.800000037997961, 0.6400000303983688, 0.2400000113993883, 0.0, 0.0, 0.0, 0.0, 0.0, 1.7103950269897687E9, 0.0, 2024-03-13 22:43:46.989
66.0, 3.2873720610514283, 2.180361674167216, 0.5273258937522769, 0.6395228924229741, 0.800000037997961, 0.6400000303983688, 0.2400000113993883, 0.0, 0.0, 0.0, 0.0, 0.0, 1.7103950270053947E9, 0.0, 2024-03-13 22:43:47.005
66.0, 1.2528664851561189, -4.2859253492206335, 5.071304339915514, -0.45626779459416866, 0.800000037997961, 0.6400000303983688, 0.2400000113993883, 0.0, 0.0, 0.0, 0.0, 0.0, 1.7103950270053947E9, 0.0, 2024-03-13 22:43:47.005
67.0, -14.159261232241988, -20.812543253414333, -6.896375518292189, -7.778991907835007, 0.800000037997961, 0.6400000303983688, 0.2400000113993883, 0.0, 0.0, 0.0, 0.0, 0.0, 1.7103950270061095E9, 0.0, 2024-03-13 22:43:47.006
67.0, -25.999784491956234, -25.094728702679276, -7.6331358095631, -10.385702176950872, 0.800000037997961, 0.6400000303983688, 0.2400000113993883, 0.0, 0.0, 0.0, 0.0, 0.0, 1.7103950270061095E9, 0.0, 2024-03-13 22:43:47.006
68.0, -38.13575984816998, -41.88313960377127, -14.667887626215816, -21.39596764650196, 0.800000037997961, 0.6400000303983688, 0.2400000113993883, 0.0, 0.0, 0.0, 0.0, 0.0, 1.7103950270198505E9, 0.0, 2024-03-13 22:43:47.019
68.0, -52.68771057575941, -50.069780606776476, -29.283416653051972, -32.11826081946492, 0.800000037997961, 0.6400000303983688, 0.2400000113993883, 0.0, 0.0, 0.0, 0.0, 0.0, 1.7103950270198505E9, 0.0, 2024-03-13 22:43:47.019
69.0, -34.399599792435765, -26.302716388367116, -8.093143504112959, -8.358676400966942, 0.800000037997961, 0.6400000303983688, 0.2400000113993883, 0.0, 0.0, 0.0, 0.0, 0.0, 1.710395027035612E9, 0.0, 2024-03-13 22:43:47.035
69.0, -38.31901494599879, -31.669472824782133, -8.497052699327469, -13.022331645712256, 0.800000037997961, 0.6400000303983688, 0.2400000113993883, 0.0, 0.0, 0.0, 0.0, 0.0, 1.710395027035612E9, 0.0, 2024-03-13 22:43:47.035
70.0, -29.107641355134547, -25.7155520953238, -6.82531741913408, -10.976606369949877, 0.800000037997961, 0.6400000303983688, 0.2400000113993883, 0.0, 0.0, 0.0, 0.0, 0.0, 1.7103950270361507E9, 0.0, 2024-03-13 22:43:47.036
70.0, -9.099176592193544, -1.8437706781551242, 6.013759128749371, 10.542777975089848, 0.800000037997961, 0.6400000303983688, 0.2400000113993883, 0.0, 0.0, 0.0, 0.0, 0.0, 1.7103950270361507E9, 0.0, 2024-03-13 22:43:47.036
71.0, 4.091450551524758, 7.861269706860185, 10.782131572254002, 13.31404384225607, 0.800000037997961, 0.6400000303983688, 0.2400000113993883, 0.0, 0.0, 0.0, 0.0, 0.0, 1.7103950270497832E9, 0.0, 2024-03-13 22:43:47.049
71.0, 8.306317801587284, 9.375929188914597, 21.055636750534177, 11.747025760821998, 0.800000037997961, 0.6400000303983688, 0.2400000113993883, 0.0, 0.0, 0.0, 0.0, 0.0, 1.7103950270497832E9, 0.0, 2024-03-13 22:43:47.049
72.0, -2.3075182726606727, 2.4010157715529203, -11.874182359315455, -0.927495189011097, 0.800000037997961, 0.6400000303983688, 0.2400000113993883, 0.0, 0.0, 0.0, 0.0, 0.0, 1.7103950270656745E9, 0.0, 2024-03-13 22:43:47.065
72.0, -0.7292804913595319, 1.8587302779778838, -7.23296651430428, 0.7741592908278108, 0.800000037997961, 0.6400000303983688, 0.2400000113993883, 0.0, 0.0, 0.0, 0.0, 0.0, 1.7103950270656745E9, 0.0, 2024-03-13 22:43:47.065
73.0, -6.503686022944748, -10.647495173849165, -2.2701192731037736, -2.853543666191399, 0.800000037997961, 0.6400000303983688, 0.2400000113993883, 0.0, 0.0, 0.0, 0.0, 0.0, 1.7103950270662658E9, 0.0, 2024-03-13 22:43:47.066
73.0, -1.4697806825861335, -6.7430396201089025, 0.07479799911379814, 1.1967679858207703, 0.800000037997961, 0.6400000303983688, 0.2400000113993883, 0.0, 0.0, 0.0, 0.0, 0.0, 1.7103950270662658E9, 0.0, 2024-03-13 22:43:47.066
74.0, -4.188687950372696, -3.0741977635771036, 6.2568526258692145, 2.4047556715086102, 0.800000037997961, 0.6400000303983688, 0.2400000113993883, 0.0, 0.0, 0.0, 0.0, 0.0, 1.7103950270800526E9, 0.0, 2024-03-13 22:43:47.080
74.0, -11.051404369063675, -10.007972281426191, 0.17951519787311554, 0.45626779459416866, 0.800000037997961, 0.6400000303983688, 0.2400000113993883, 0.0, 0.0, 0.0, 0.0, 0.0, 1.7103950270800526E9, 0.0, 2024-03-13 22:43:47.080
75.0, -27.132974178530276, -20.55823005642742, -2.778745667077601, -5.359276636503637, 0.800000037997961, 0.6400000303983688, 0.2400000113993883, 0.0, 0.0, 0.0, 0.0, 0.0, 1.71039502709576E9, 0.0, 2024-03-13 22:43:47.095
75.0, -20.490911857225, -16.204986508004367, -5.0114659406244755, -4.1251096511259675, 0.800000037997961, 0.6400000303983688, 0.2400000113993883, 0.0, 0.0, 0.0, 0.0, 0.0, 1.71039502709576E9, 0.0, 2024-03-13 22:43:47.095
76.0, -27.985671368427575, -25.988564792089164, 0.44130819477140903, -2.4084955714643, 0.800000037997961, 0.6400000303983688, 0.2400000113993883, 0.0, 0.0, 0.0, 0.0, 0.0, 1.710395027096388E9, 0.0, 2024-03-13 22:43:47.096
76.0, -27.851034970022738, -28.296083064749837, -2.2028010739013553, -10.400661776773632, 0.800000037997961, 0.6400000303983688, 0.2400000113993883, 0.0, 0.0, 0.0, 0.0, 0.0, 1.710395027096388E9, 0.0, 2024-03-13 22:43:47.096
77.0, -23.015344327315688, -17.77574448939413, -4.914228541776538, -4.0054328525438905, 0.800000037997961, 0.6400000303983688, 0.2400000113993883, 0.0, 0.0, 0.0, 0.0, 0.0, 1.710395027109727E9, 0.0, 2024-03-13 22:43:47.109
77.0, -25.36026159953326, -22.308503235690296, -13.931127334944904, -6.978653317317367, 0.800000037997961, 0.6400000303983688, 0.2400000113993883, 0.0, 0.0, 0.0, 0.0, 0.0, 1.710395027109727E9, 0.0, 2024-03-13 22:43:47.109
78.0, -27.099315078929067, -26.874921081587672, -11.556290863081813, -14.967079622671008, 0.800000037997961, 0.6400000303983688, 0.2400000113993883, 0.0, 0.0, 0.0, 0.0, 0.0, 1.7103950271257026E9, 0.0, 2024-03-13 22:43:47.125
78.0, -29.83318194653839, -27.462085374630988, -16.354582506231964, -14.608049226924777, 0.800000037997961, 0.6400000303983688, 0.2400000113993883, 0.0, 0.0, 0.0, 0.0, 0.0, 1.7103950271257026E9, 0.0, 2024-03-13 22:43:47.125
79.0, -20.427333557978272, -19.223085772246122, -27.233951477333903, -12.90265484713018, 0.800000037997961, 0.6400000303983688, 0.2400000113993883, 0.0, 0.0, 0.0, 0.0, 0.0, 1.71039502712621E9, 0.0, 2024-03-13 22:43:47.126
79.0, -30.498884138651192, -25.517337397672236, -23.135021125897765, -22.431919934228063, 0.800000037997961, 0.6400000303983688, 0.2400000113993883, 0.0, 0.0, 0.0, 0.0, 0.0, 1.71039502712621E9, 0.0, 2024-03-13 22:43:47.126
80.0, -19.76163136586547, -13.70673333760351, -9.402108488604426, -9.379669088870287, 0.800000037997961, 0.6400000303983688, 0.2400000113993883, 0.0, 0.0, 0.0, 0.0, 0.0, 1.7103950271397412E9, 0.0, 2024-03-13 22:43:47.139
80.0, -19.193166572600603, -13.127048844471574, -10.378222377039492, -6.7392997201532125, 0.800000037997961, 0.6400000303983688, 0.2400000113993883, 0.0, 0.0, 0.0, 0.0, 0.0, 1.7103950271397412E9, 0.0, 2024-03-13 22:43:47.139
81.0, -22.630134631879628, -13.65437473822385, -5.871642930433154, -4.779592143371701, 0.800000037997961, 0.6400000303983688, 0.2400000113993883, 0.0, 0.0, 0.0, 0.0, 0.0, 1.7103950271554687E9, 0.0, 2024-03-13 22:43:47.155
81.0, -13.976006134413183, -17.68598689045757, -0.6357829924672842, -3.541685258038342, 0.800000037997961, 0.6400000303983688, 0.2400000113993883, 0.0, 0.0, 0.0, 0.0, 0.0, 1.7103950271554687E9, 0.0, 2024-03-13 22:43:47.155
82.0, -22.061669838614762, -25.831488993950188, -8.377375900745392, -8.43721430003643, 0.800000037997961, 0.6400000303983688, 0.2400000113993883, 0.0, 0.0, 0.0, 0.0, 0.0, 1.71039502715634E9, 0.0, 2024-03-13 22:43:47.156
82.0, -23.060223126783967, -27.649080372415483, 0.6657021921128035, -4.076490951701999, 0.800000037997961, 0.6400000303983688, 0.2400000113993883, 0.0, 0.0, 0.0, 0.0, 0.0, 1.71039502715634E9, 0.0, 2024-03-13 22:43:47.156
83.0, -28.767310459166765, -31.284263129346073, 3.130296262912452, -9.435767588205636, 0.800000037997961, 0.6400000303983688, 0.2400000113993883, 0.0, 0.0, 0.0, 0.0, 0.0, 1.7103950271699839E9, 0.0, 2024-03-13 22:43:47.169
83.0, -18.90145437605679, -20.46099265757948, -4.555198146030307, -6.249372825957835, 0.800000037997961, 0.6400000303983688, 0.2400000113993883, 0.0, 0.0, 0.0, 0.0, 0.0, 1.7103950271699839E9, 0.0, 2024-03-13 22:43:47.169
84.0, -12.689480549655855, -14.45471332874149, -3.4519276591017842, -2.5094728702679276, 0.800000037997961, 0.6400000303983688, 0.2400000113993883, 0.0, 0.0, 0.0, 0.0, 0.0, 1.7103950271857157E9, 0.0, 2024-03-13 22:43:47.185
84.0, -20.618068455718458, -21.549303544685245, -2.01954597607255, -7.63687570951879, 0.800000037997961, 0.6400000303983688, 0.2400000113993883, 0.0, 0.0, 0.0, 0.0, 0.0, 1.7103950271857157E9, 0.0, 2024-03-13 22:43:47.185
85.0, -28.16892646625638, -22.18134663719684, -14.89976142346859, -13.70299343764782, 0.800000037997961, 0.6400000303983688, 0.2400000113993883, 0.0, 0.0, 0.0, 0.0, 0.0, 1.7103950271863918E9, 0.0, 2024-03-13 22:43:47.186
85.0, -28.019330468028784, -25.984824892133474, -27.275090376846492, -20.49465175718069, 0.800000037997961, 0.6400000303983688, 0.2400000113993883, 0.0, 0.0, 0.0, 0.0, 0.0, 1.7103950271863918E9, 0.0, 2024-03-13 22:43:47.186
86.0, -25.861408193595707, -26.845001881942153, -17.510211592540145, -21.867195040918887, 0.800000037997961, 0.6400000303983688, 0.2400000113993883, 0.0, 0.0, 0.0, 0.0, 0.0, 1.7103950271996946E9, 0.0, 2024-03-13 22:43:47.199
86.0, -27.518183873966336, -31.209465130232275, -18.437706781551242, -23.538930321112275, 0.800000037997961, 0.6400000303983688, 0.2400000113993883, 0.0, 0.0, 0.0, 0.0, 0.0, 1.7103950271996946E9, 0.0, 2024-03-13 22:43:47.199
87.0, -27.30500957649201, -26.276537088677287, -26.777683682739735, -24.97879180405289, 0.800000037997961, 0.6400000303983688, 0.2400000113993883, 0.0, 0.0, 0.0, 0.0, 0.0, 1.7103950272157364E9, 0.0, 2024-03-13 22:43:47.215
87.0, -15.774898013100028, -15.247572119347751, -15.094236221164465, -14.271458230912685, 0.800000037997961, 0.6400000303983688, 0.2400000113993883, 0.0, 0.0, 0.0, 0.0, 0.0, 1.7103950272157364E9, 0.0, 2024-03-13 22:43:47.215
88.0, -17.68598689045757, -20.318876459263265, -2.0793843753635883, -7.958507105708122, 0.800000037997961, 0.6400000303983688, 0.2400000113993883, 0.0, 0.0, 0.0, 0.0, 0.0, 1.710395027216329E9, 0.0, 2024-03-13 22:43:47.216
88.0, -19.900007664225996, -19.888787964358926, -12.831596747972071, -12.04995765723288, 0.800000037997961, 0.6400000303983688, 0.2400000113993883, 0.0, 0.0, 0.0, 0.0, 0.0, 1.710395027216329E9, 0.0, 2024-03-13 22:43:47.216
89.0, -23.202339325100183, -19.810250065289438, -16.5640169037506, -11.309457466006279, 0.800000037997961, 0.6400000303983688, 0.2400000113993883, 0.0, 0.0, 0.0, 0.0, 0.0, 1.7103950272300892E9, 0.0, 2024-03-13 22:43:47.230
89.0, -27.35362827591598, -20.247818360105157, -0.1570757981389761, -11.470273164100945, 0.800000037997961, 0.6400000303983688, 0.2400000113993883, 0.0, 0.0, 0.0, 0.0, 0.0, 1.7103950272300892E9, 0.0, 2024-03-13 22:43:47.230
90.0, -37.92632545065135, -34.23504419438541, -18.98373217508197, -24.406587110832334, 0.800000037997961, 0.6400000303983688, 0.2400000113993883, 0.0, 0.0, 0.0, 0.0, 0.0, 1.710395027245438E9, 0.0, 2024-03-13 22:43:47.245
90.0, -34.276183093898, -34.758630188181996, -37.55981525499374, -28.9393458571285, 0.800000037997961, 0.6400000303983688, 0.2400000113993883, 0.0, 0.0, 0.0, 0.0, 0.0, 1.710395027245438E9, 0.0, 2024-03-13 22:43:47.245
91.0, -27.114274678751826, -26.13816079031676, -19.7504116659984, -14.813743724487722, 0.800000037997961, 0.6400000303983688, 0.2400000113993883, 0.0, 0.0, 0.0, 0.0, 0.0, 1.7103950272463603E9, 0.0, 2024-03-13 22:43:47.246
91.0, -26.788903382606804, -22.727372030727565, -9.028118493035436, -13.381362041458488, 0.800000037997961, 0.6400000303983688, 0.2400000113993883, 0.0, 0.0, 0.0, 0.0, 0.0, 1.7103950272463603E9, 0.0, 2024-03-13 22:43:47.246
92.0, -23.176160025410354, -18.47884568106383, -19.34650247078389, -17.566310091875494, 0.800000037997961, 0.6400000303983688, 0.2400000113993883, 0.0, 0.0, 0.0, 0.0, 0.0, 1.7103950272597408E9, 0.0, 2024-03-13 22:43:47.259
92.0, -19.870088464580476, -17.439153493382037, -15.917014211416245, -12.188333955593407, 0.800000037997961, 0.6400000303983688, 0.2400000113993883, 0.0, 0.0, 0.0, 0.0, 0.0, 1.7103950272597408E9, 0.0, 2024-03-13 22:43:47.259
93.0, -34.30984219349921, -30.345548240467906, -25.072289302945137, -28.460638662800193, 0.800000037997961, 0.6400000303983688, 0.2400000113993883, 0.0, 0.0, 0.0, 0.0, 0.0, 1.7103950272919223E9, 0.0, 2024-03-13 22:43:47.291
93.0, -36.30320886988193, -32.52217001467943, -27.34988837596029, -23.00038472749293, 0.800000037997961, 0.6400000303983688, 0.2400000113993883, 0.0, 0.0, 0.0, 0.0, 0.0, 1.7103950272919223E9, 0.0, 2024-03-13 22:43:47.291
94.0, -25.498637897893786, -20.760184654034674, -16.90434779971838, -15.920754111371934, 0.800000037997961, 0.6400000303983688, 0.2400000113993883, 0.0, 0.0, 0.0, 0.0, 0.0, 1.710395027292458E9, 0.0, 2024-03-13 22:43:47.292
94.0, -22.97794532775879, -16.406941105611622, -7.603216609917581, -4.906748741865158, 0.800000037997961, 0.6400000303983688, 0.2400000113993883, 0.0, 0.0, 0.0, 0.0, 0.0, 1.710395027292458E9, 0.0, 2024-03-13 22:43:47.292
95.0, -30.95889183320105, -27.084355479106307, -9.132835691794753, -13.646894938312471, 0.800000037997961, 0.6400000303983688, 0.2400000113993883, 0.0, 0.0, 0.0, 0.0, 0.0, 1.710395027293318E9, 0.0, 2024-03-13 22:43:47.293
95.0, -28.23250476550311, -26.250357788987458, -6.084817227907479, -4.080230851657689, 0.800000037997961, 0.6400000303983688, 0.2400000113993883, 0.0, 0.0, 0.0, 0.0, 0.0, 1.710395027293318E9, 0.0, 2024-03-13 22:43:47.293
96.0, -33.999430497176945, -24.56366290897131, -14.08446323312819, -10.984086169861257, 0.800000037997961, 0.6400000303983688, 0.2400000113993883, 0.0, 0.0, 0.0, 0.0, 0.0, 1.710395027294052E9, 0.0, 2024-03-13 22:43:47.294
96.0, -26.9011003812775, -18.692019978538156, -4.192427850328386, -4.637475945055485, 0.800000037997961, 0.6400000303983688, 0.2400000113993883, 0.0, 0.0, 0.0, 0.0, 0.0, 1.710395027294052E9, 0.0, 2024-03-13 22:43:47.294
97.0, -31.190765630453825, -21.983131939545274, -14.439753728918731, -7.498499411158264, 0.800000037997961, 0.6400000303983688, 0.2400000113993883, 0.0, 0.0, 0.0, 0.0, 0.0, 1.7103950273047407E9, 0.0, 2024-03-13 22:43:47.304
97.0, -18.57234317995608, -7.25166601408273, -7.565817610360682, 4.742193143814802, 0.800000037997961, 0.6400000303983688, 0.2400000113993883, 0.0, 0.0, 0.0, 0.0, 0.0, 1.7103950273047407E9, 0.0, 2024-03-13 22:43:47.304
98.0, -28.000630968250334, -16.43312040530145, -2.9620007649064064, -3.294851860962808, 0.800000037997961, 0.6400000303983688, 0.2400000113993883, 0.0, 0.0, 0.0, 0.0, 0.0, 1.7103950273197303E9, 0.0, 2024-03-13 22:43:47.319
98.0, -35.44677178002894, -31.317922228947282, -15.243832219392061, -13.732912637293339, 0.800000037997961, 0.6400000303983688, 0.2400000113993883, 0.0, 0.0, 0.0, 0.0, 0.0, 1.7103950273197303E9, 0.0, 2024-03-13 22:43:47.319
99.0, -30.360507840290666, -24.716998807154596, -14.533251227810979, -7.528418610803783, 0.800000037997961, 0.6400000303983688, 0.2400000113993883, 0.0, 0.0, 0.0, 0.0, 0.0, 1.7103950273354368E9, 0.0, 2024-03-13 22:43:47.335
99.0, -39.91221232712269, -35.0914812842384, -16.48547900468111, -16.803370500914752, 0.800000037997961, 0.6400000303983688, 0.2400000113993883, 0.0, 0.0, 0.0, 0.0, 0.0, 1.7103950273354368E9, 0.0, 2024-03-13 22:43:47.335
100.0, -42.79193529300392, -35.977837573736906, -20.266517859883606, -24.17097341362387, 0.800000037997961, 0.6400000303983688, 0.2400000113993883, 0.0, 0.0, 0.0, 0.0, 0.0, 1.710395027336176E9, 0.0, 2024-03-13 22:43:47.336
100.0, -36.58370136655867, -39.609280430711806, -28.034290067851543, -21.481985345482826, 0.800000037997961, 0.6400000303983688, 0.2400000113993883, 0.0, 0.0, 0.0, 0.0, 0.0, 1.710395027336176E9, 0.0, 2024-03-13 22:43:47.336
0.0, -822.9070168002509, -433.62644026242197, -526.0187987177633, -478.9241085257381, 0.800000037997961, 0.6400000303983688, 0.2400000113993883, 0.0, 0.0, 0.0, 0.0, 0.0, 1.7103950273504095E9, 0.0, 2024-03-13 22:43:47.350
1.0, -816.1527574802749, -433.62644026242197, -520.6595220812596, -481.87114969082177, 0.800000037997961, 0.6400000303983688, 0.2400000113993883, 0.0, 0.0, 0.0, 0.0, 0.0, 1.710395027351165E9, 0.0, 2024-03-13 22:43:47.351
1.0, -809.6677709571086, -421.4904649062082, -525.0950434287079, -483.81215776782483, 0.800000037997961, 0.6400000303983688, 0.2400000113993883, 0.0, 0.0, 0.0, 0.0, 0.0, 1.710395027351165E9, 0.0, 2024-03-13 22:43:47.351
2.0, -808.0072553767823, -422.48527829442173, -525.9664401183836, -479.7132274163887, 0.7840000372380018, 0.6400000303983688, 0.2400000113993883, 0.0, 0.0, 0.0, 0.0, 0.0, 1.7103950273650022E9, 0.0, 2024-03-13 22:43:47.365
2.0, -810.5728267463855, -421.5727427052334, -513.6023308648728, -473.3628772916272, 0.7840000372380018, 0.6400000303983688, 0.2400000113993883, 0.0, 0.0, 0.0, 0.0, 0.0, 1.7103950273650022E9, 0.0, 2024-03-13 22:43:47.365
3.0, -815.8311260840856, -424.81149606686085, -525.6410688222386, -480.3677099086344, 0.7840000372380018, 0.6400000303983688, 0.2400000113993883, 0.0, 0.0, 0.0, 0.0, 0.0, 1.7103950273805113E9, 0.0, 2024-03-13 22:43:47.380
3.0, -809.7650083559565, -414.81474348530173, -522.054504764732, -472.5887180007994, 0.7840000372380018, 0.6400000303983688, 0.2400000113993883, 0.0, 0.0, 0.0, 0.0, 0.0, 1.7103950273805113E9, 0.0, 2024-03-13 22:43:47.380
4.0, -815.4421764886938, -416.72957226261497, -517.652642516885, -474.3689103797078, 0.7840000372380018, 0.6400000303983688, 0.2400000113993883, 0.0, 0.0, 0.0, 0.0, 0.0, 1.7103950273811536E9, 0.0, 2024-03-13 22:43:47.381
4.0, -801.78780175047, -409.38440874964, -502.67808309430256, -465.56892578396946, 0.7840000372380018, 0.6400000303983688, 0.2400000113993883, 0.0, 0.0, 0.0, 0.0, 0.0, 1.7103950273811536E9, 0.0, 2024-03-13 22:43:47.381
5.0, -793.6161203472875, -405.1209228001535, -510.80114579806104, -464.83590539265424, 0.7840000372380018, 0.6400000303983688, 0.2400000113993883, 0.0, 0.0, 0.0, 0.0, 0.0, 1.7103950273947098E9, 0.0, 2024-03-13 22:43:47.394
5.0, -795.5870476239361, -407.454620372504, -506.02529355464503, -466.780653369613, 0.7840000372380018, 0.6400000303983688, 0.2400000113993883, 0.0, 0.0, 0.0, 0.0, 0.0, 1.7103950273947098E9, 0.0, 2024-03-13 22:43:47.394
6.0, -803.4370976309292, -415.11019558180124, -507.90272333240137, -472.65229630004615, 0.7840000372380018, 0.6400000303983688, 0.2400000113993883, 0.0, 0.0, 0.0, 0.0, 0.0, 1.7103950274104452E9, 0.0, 2024-03-13 22:43:47.410
6.0, -798.6537655876018, -401.09305054787546, -520.281792185735, -468.3027926515788, 0.7840000372380018, 0.6400000303983688, 0.2400000113993883, 0.0, 0.0, 0.0, 0.0, 0.0, 1.7103950274104452E9, 0.0, 2024-03-13 22:43:47.410
7.0, -793.6385597470216, -401.2613460458815, -509.17054941738024, -466.90407006815076, 0.7840000372380018, 0.6400000303983688, 0.2400000113993883, 0.0, 0.0, 0.0, 0.0, 0.0, 1.7103950274111247E9, 0.0, 2024-03-13 22:43:47.411
7.0, -802.3974054432474, -413.02333140652627, -518.3333043088205, -474.64566297642887, 0.7840000372380018, 0.6400000303983688, 0.2400000113993883, 0.0, 0.0, 0.0, 0.0, 0.0, 1.7103950274111247E9, 0.0, 2024-03-13 22:43:47.411
8.0, -811.1936501390301, -414.95685968361795, -524.9080484309234, -481.20544749870896, 0.7840000372380018, 0.6400000303983688, 0.2400000113993883, 0.0, 0.0, 0.0, 0.0, 0.0, 1.7103950274248066E9, 0.0, 2024-03-13 22:43:47.424
8.0, -792.6661857585423, -403.6661017173901, -523.9394143423997, -472.98140749614686, 0.7840000372380018, 0.6400000303983688, 0.2400000113993883, 0.0, 0.0, 0.0, 0.0, 0.0, 1.7103950274248066E9, 0.0, 2024-03-13 22:43:47.424
9.0, -803.7063704277389, -416.36680196691304, -524.9230080307461, -481.3849626965821, 0.7840000372380018, 0.6400000303983688, 0.2400000113993883, 0.0, 0.0, 0.0, 0.0, 0.0, 1.7103950274408865E9, 0.0, 2024-03-13 22:43:47.440
9.0, -800.2282634689473, -417.5598300527781, -534.3026771196164, -485.4577137483284, 0.7840000372380018, 0.6400000303983688, 0.2400000113993883, 0.0, 0.0, 0.0, 0.0, 0.0, 1.7103950274408865E9, 0.0, 2024-03-13 22:43:47.440
10.0, -798.5079094893299, -405.5285718953237, -537.7059860792942, -477.7460400396958, 0.7840000372380018, 0.6400000303983688, 0.2400000113993883, 0.0, 0.0, 0.0, 0.0, 0.0, 1.7103950274411426E9, 0.0, 2024-03-13 22:43:47.441
10.0, -798.145139193628, -405.35279659740627, -526.878975707572, -472.06513200700283, 0.7840000372380018, 0.6400000303983688, 0.2400000113993883, 0.0, 0.0, 0.0, 0.0, 0.0, 1.7103950274411426E9, 0.0, 2024-03-13 22:43:47.441
11.0, -803.0070091360249, -413.50951840076596, -520.655782181304, -476.7774059511721, 0.7840000372380018, 0.6400000303983688, 0.2400000113993883, 0.0, 0.0, 0.0, 0.0, 0.0, 1.7103950274547513E9, 0.0, 2024-03-13 22:43:47.454
11.0, -800.6359125641175, -410.2745049390942, -531.606209251564, -472.82807159796357, 0.7840000372380018, 0.6400000303983688, 0.2400000113993883, 0.0, 0.0, 0.0, 0.0, 0.0, 1.7103950274547513E9, 0.0, 2024-03-13 22:43:47.454
12.0, -792.5539887598716, -399.8177446629852, -513.0039468719624, -460.08623244892806, 0.7840000372380018, 0.6400000303983688, 0.2400000113993883, 0.0, 0.0, 0.0, 0.0, 0.0, 1.7103950274704206E9, 0.0, 2024-03-13 22:43:47.470
12.0, -791.981784066651, -401.0032929489389, -497.5207610554062, -458.60149216651917, 0.7840000372380018, 0.6400000303983688, 0.2400000113993883, 0.0, 0.0, 0.0, 0.0, 0.0, 1.7103950274704206E9, 0.0, 2024-03-13 22:43:47.470
13.0, -789.4797909962945, -407.0432313773781, -511.1975751933642, -466.90780996810645, 0.7840000372380018, 0.6400000303983688, 0.2400000113993883, 0.0, 0.0, 0.0, 0.0, 0.0, 1.7103950274711487E9, 0.0, 2024-03-13 22:43:47.471
13.0, -785.7511107404716, -391.20849496498704, -521.5608379705809, -459.94037635065615, 0.7840000372380018, 0.6400000303983688, 0.2400000113993883, 0.0, 0.0, 0.0, 0.0, 0.0, 1.7103950274711487E9, 0.0, 2024-03-13 22:43:47.471
14.0, -799.2371899806894, -409.0814768532291, -521.4224616722204, -473.4788141902536, 0.7840000372380018, 0.6400000303983688, 0.2400000113993883, 0.0, 0.0, 0.0, 0.0, 0.0, 1.710395027485052E9, 0.0, 2024-03-13 22:43:47.485
14.0, -806.6010529934429, -411.374035526067, -518.9167287019081, -474.12955678254366, 0.7840000372380018, 0.6400000303983688, 0.2400000113993883, 0.0, 0.0, 0.0, 0.0, 0.0, 1.710395027485052E9, 0.0, 2024-03-13 22:43:47.485
15.0, -796.2938887155615, -400.3675099564716, -521.4673404716887, -467.46131516154855, 0.7840000372380018, 0.6400000303983688, 0.2400000113993883, 0.0, 0.0, 0.0, 0.0, 0.0, 1.7103950275004928E9, 0.0, 2024-03-13 22:43:47.500
15.0, -793.9975901427679, -405.0723041007295, -507.7456475342624, -461.93748292699456, 0.7840000372380018, 0.6400000303983688, 0.2400000113993883, 0.0, 0.0, 0.0, 0.0, 0.0, 1.7103950275004928E9, 0.0, 2024-03-13 22:43:47.500
16.0, -805.6660780045204, -410.0912498412654, -516.8485640264116, -469.409803038463, 0.7840000372380018, 0.6400000303983688, 0.2400000113993883, 0.0, 0.0, 0.0, 0.0, 0.0, 1.7103950275012145E9, 0.0, 2024-03-13 22:43:47.501
16.0, -803.3996986313723, -412.03599781822413, -533.0872096340172, -475.91722896136343, 0.7840000372380018, 0.6400000303983688, 0.2400000113993883, 0.0, 0.0, 0.0, 0.0, 0.0, 1.7103950275012145E9, 0.0, 2024-03-13 22:43:47.501
17.0, -797.8571668970399, -407.5929966708645, -523.9618537421338, -472.20724820531905, 0.7840000372380018, 0.6400000303983688, 0.2400000113993883, 0.0, 0.0, 0.0, 0.0, 0.0, 1.7103950275151148E9, 0.0, 2024-03-13 22:43:47.515
17.0, -803.6652315282263, -414.20887969247997, -521.2878252738155, -481.1119499998167, 0.7840000372380018, 0.6400000303983688, 0.2400000113993883, 0.0, 0.0, 0.0, 0.0, 0.0, 1.7103950275151148E9, 0.0, 2024-03-13 22:43:47.515
18.0, -791.6227536709048, -406.1867942875251, -501.1559438123368, -464.6002916954458, 0.7840000372380018, 0.6400000303983688, 0.2400000113993883, 0.0, 0.0, 0.0, 0.0, 0.0, 1.7103950275308905E9, 0.0, 2024-03-13 22:43:47.530
18.0, -802.9135116371326, -414.8671020846814, -534.6617075153627, -474.8887564735487, 0.7840000372380018, 0.6400000303983688, 0.2400000113993883, 0.0, 0.0, 0.0, 0.0, 0.0, 1.7103950275308905E9, 0.0, 2024-03-13 22:43:47.530
19.0, -809.9445235538296, -421.5989220049232, -532.256951843854, -489.1302955048159, 0.7840000372380018, 0.6400000303983688, 0.2400000113993883, 0.0, 0.0, 0.0, 0.0, 0.0, 1.7103950275314128E9, 0.0, 2024-03-13 22:43:47.531
19.0, -812.4539964240976, -422.70593239180744, -536.8009302900173, -493.96224624756724, 0.7840000372380018, 0.6400000303983688, 0.2400000113993883, 0.0, 0.0, 0.0, 0.0, 0.0, 1.7103950275314128E9, 0.0, 2024-03-13 22:43:47.531
20.0, -806.5412145941518, -413.84610939677805, -528.7227463857271, -478.4865402309224, 0.7840000372380018, 0.6400000303983688, 0.2400000113993883, 0.0, 0.0, 0.0, 0.0, 0.0, 1.710395027544752E9, 0.0, 2024-03-13 22:43:47.544
20.0, -803.728809827473, -406.73281968105584, -523.8646163432859, -473.7144278874621, 0.7840000372380018, 0.6400000303983688, 0.2400000113993883, 0.0, 0.0, 0.0, 0.0, 0.0, 1.710395027544752E9, 0.0, 2024-03-13 22:43:47.544
21.0, -803.4483173307963, -409.7546588452533, -523.2288333508186, -478.12750983517617, 0.7840000372380018, 0.6400000303983688, 0.2400000113993883, 0.0, 0.0, 0.0, 0.0, 0.0, 1.7103950275604885E9, 0.0, 2024-03-13 22:43:47.560
21.0, -798.2199371927418, -409.0478177536279, -525.7009072215296, -471.4069096148014, 0.7840000372380018, 0.6400000303983688, 0.2400000113993883, 0.0, 0.0, 0.0, 0.0, 0.0, 1.7103950275604885E9, 0.0, 2024-03-13 22:43:47.560
22.0, -789.0721419011243, -404.3729428090155, -518.8194913030602, -467.72310815844685, 0.800000037997961, 0.6400000303983688, 0.2400000113993883, 0.0, 0.0, 0.0, 0.0, 0.0, 1.7103950275613236E9, 0.0, 2024-03-13 22:43:47.561
22.0, -797.1428460055031, -405.4836930958554, -512.2933658803813, -470.1877022292465, 0.800000037997961, 0.6400000303983688, 0.2400000113993883, 0.0, 0.0, 0.0, 0.0, 0.0, 1.7103950275613236E9, 0.0, 2024-03-13 22:43:47.561
23.0, -791.873326967936, -403.6661017173901, -513.8454243619926, -461.64203083049506, 0.800000037997961, 0.6400000303983688, 0.2400000113993883, 0.0, 0.0, 0.0, 0.0, 0.0, 1.7103950275748396E9, 0.0, 2024-03-13 22:43:47.574
23.0, -782.5347967785783, -389.83969158120453, -500.46780222048983, -449.30036097671837, 0.800000037997961, 0.6400000303983688, 0.2400000113993883, 0.0, 0.0, 0.0, 0.0, 0.0, 1.7103950275748396E9, 0.0, 2024-03-13 22:43:47.574
24.0, -801.3577132555656, -407.43592087272555, -519.5525116943754, -472.7457937989384, 0.800000037997961, 0.6400000303983688, 0.2400000113993883, 0.0, 0.0, 0.0, 0.0, 0.0, 1.7103950275904775E9, 0.0, 2024-03-13 22:43:47.590
24.0, -818.419136853423, -425.59687505755574, -534.4148741182871, -486.2655321387574, 0.800000037997961, 0.6400000303983688, 0.2400000113993883, 0.0, 0.0, 0.0, 0.0, 0.0, 1.7103950275904775E9, 0.0, 2024-03-13 22:43:47.590
25.0, -801.1744581577368, -410.0426311418414, -533.7491719261743, -476.73252715170383, 0.800000037997961, 0.6400000303983688, 0.2400000113993883, 0.0, 0.0, 0.0, 0.0, 0.0, 1.7103950275912368E9, 0.0, 2024-03-13 22:43:47.591
25.0, -800.3479402675293, -407.0507111772895, -521.5608379705809, -468.9236160442233, 0.800000037997961, 0.6400000303983688, 0.2400000113993883, 0.0, 0.0, 0.0, 0.0, 0.0, 1.7103950275912368E9, 0.0, 2024-03-13 22:43:47.591
26.0, -796.4958433131687, -408.70000705774873, -521.0746509763412, -475.0308726718649, 0.800000037997961, 0.6400000303983688, 0.2400000113993883, 0.0, 0.0, 0.0, 0.0, 0.0, 1.710395027604978E9, 0.0, 2024-03-13 22:43:47.604
26.0, -789.0048237019219, -402.570311030373, -519.1523423991166, -466.90407006815076, 0.800000037997961, 0.6400000303983688, 0.2400000113993883, 0.0, 0.0, 0.0, 0.0, 0.0, 1.710395027604978E9, 0.0, 2024-03-13 22:43:47.604
27.0, -792.1276401649229, -398.3666634801775, -517.4806071189232, -466.249587575905, 0.800000037997961, 0.6400000303983688, 0.2400000113993883, 0.0, 0.0, 0.0, 0.0, 0.0, 1.7103950276204517E9, 0.0, 2024-03-13 22:43:47.620
27.0, -797.673911799211, -412.0846165176481, -518.6998145044781, -472.1511497059837, 0.800000037997961, 0.6400000303983688, 0.2400000113993883, 0.0, 0.0, 0.0, 0.0, 0.0, 1.7103950276204517E9, 0.0, 2024-03-13 22:43:47.620
28.0, -802.4946428420953, -417.7617846503854, -522.6229695579968, -474.02857948374003, 0.800000037997961, 0.6400000303983688, 0.2400000113993883, 0.0, 0.0, 0.0, 0.0, 0.0, 1.7103950276211786E9, 0.0, 2024-03-13 22:43:47.621
28.0, -800.5162357655354, -411.31793702673167, -527.0809303051792, -475.7003147639334, 0.800000037997961, 0.6400000303983688, 0.2400000113993883, 0.0, 0.0, 0.0, 0.0, 0.0, 1.7103950276211786E9, 0.0, 2024-03-13 22:43:47.621
29.0, -797.3111415035091, -408.4905726602301, -521.2728656739928, -474.0697183832526, 0.800000037997961, 0.6400000303983688, 0.2400000113993883, 0.0, 0.0, 0.0, 0.0, 0.0, 1.7103950276347866E9, 0.0, 2024-03-13 22:43:47.634
29.0, -800.9799833600409, -415.6150820758194, -524.0254320413806, -478.4528811313212, 0.800000037997961, 0.6400000303983688, 0.2400000113993883, 0.0, 0.0, 0.0, 0.0, 0.0, 1.7103950276347866E9, 0.0, 2024-03-13 22:43:47.634
30.0, -802.0832538469695, -415.9367134720087, -534.8113035135902, -477.5291258422658, 0.800000037997961, 0.6400000303983688, 0.2400000113993883, 0.0, 0.0, 0.0, 0.0, 0.0, 1.710395027650774E9, 0.0, 2024-03-13 22:43:47.650
30.0, -798.1900179930963, -410.7532121334225, -519.3094181972556, -473.6620692880824, 0.800000037997961, 0.6400000303983688, 0.2400000113993883, 0.0, 0.0, 0.0, 0.0, 0.0, 1.710395027650774E9, 0.0, 2024-03-13 22:43:47.650
31.0, -795.7740426217206, -407.72389316931367, -507.1884024408646, -469.6379369357601, 0.800000037997961, 0.6400000303983688, 0.2400000113993883, 0.0, 0.0, 0.0, 0.0, 0.0, 1.7103950276513035E9, 0.0, 2024-03-13 22:43:47.651
31.0, -800.9837232599966, -412.91113440785557, -528.3674558899365, -475.1430696705356, 0.800000037997961, 0.6400000303983688, 0.2400000113993883, 0.0, 0.0, 0.0, 0.0, 0.0, 1.7103950276513035E9, 0.0, 2024-03-13 22:43:47.651
32.0, -795.901199220214, -401.3436238449067, -513.7369672632776, -464.8882639920339, 0.7840000372380018, 0.6400000303983688, 0.2400000113993883, 0.0, 0.0, 0.0, 0.0, 0.0, 1.7103950276651196E9, 0.0, 2024-03-13 22:43:47.665
32.0, -800.5012761657126, -409.10765615291893, -503.30638628685847, -462.969695314765, 0.7840000372380018, 0.6400000303983688, 0.2400000113993883, 0.0, 0.0, 0.0, 0.0, 0.0, 1.7103950276651196E9, 0.0, 2024-03-13 22:43:47.665
33.0, -801.1931576575153, -412.0172983184457, -508.1084178299643, -460.5948588429019, 0.7840000372380018, 0.6400000303983688, 0.2400000113993883, 0.0, 0.0, 0.0, 0.0, 0.0, 1.7103950276807718E9, 0.0, 2024-03-13 22:43:47.680
33.0, -799.603700176347, -408.7897646566853, -525.2708187266253, -465.82697888091207, 0.7840000372380018, 0.6400000303983688, 0.2400000113993883, 0.0, 0.0, 0.0, 0.0, 0.0, 1.7103950276807718E9, 0.0, 2024-03-13 22:43:47.680
34.0, -786.1251007360406, -398.0375522840768, -506.4030234501697, -459.0315806614235, 0.7840000372380018, 0.6400000303983688, 0.2400000113993883, 0.0, 0.0, 0.0, 0.0, 0.0, 1.7103950276813807E9, 0.0, 2024-03-13 22:43:47.681
34.0, -794.5548352361657, -404.185947811231, -516.6017306293361, -471.1451166179031, 0.7840000372380018, 0.6400000303983688, 0.2400000113993883, 0.0, 0.0, 0.0, 0.0, 0.0, 1.7103950276813807E9, 0.0, 2024-03-13 22:43:47.681
35.0, -794.7867090334184, -410.940207131207, -532.6384216393344, -477.0728580476716, 0.7840000372380018, 0.6400000303983688, 0.2400000113993883, 0.0, 0.0, 0.0, 0.0, 0.0, 1.7103950276949875E9, 0.0, 2024-03-13 22:43:47.694
35.0, -804.6787444162183, -423.22577848564833, -546.5059706750326, -488.76752520911396, 0.7840000372380018, 0.6400000303983688, 0.2400000113993883, 0.0, 0.0, 0.0, 0.0, 0.0, 1.7103950276949875E9, 0.0, 2024-03-13 22:43:47.694
36.0, -797.2924420037307, -402.43567463196814, -515.8537506381981, -471.01422011945397, 0.7840000372380018, 0.6400000303983688, 0.2400000113993883, 0.0, 0.0, 0.0, 0.0, 0.0, 1.7103950277104685E9, 0.0, 2024-03-13 22:43:47.710
36.0, -787.3704874212854, -392.3042856520042, -519.9115420901217, -454.97004930954427, 0.7840000372380018, 0.6400000303983688, 0.2400000113993883, 0.0, 0.0, 0.0, 0.0, 0.0, 1.7103950277104685E9, 0.0, 2024-03-13 22:43:47.710
37.0, -794.4725574371405, -402.14770233538, -519.8330041910522, -462.53586691990495, 0.7840000372380018, 0.6400000303983688, 0.2400000113993883, 0.0, 0.0, 0.0, 0.0, 0.0, 1.7103950277111678E9, 0.0, 2024-03-13 22:43:47.711
37.0, -799.5588213768788, -412.6082025114447, -513.1423231703229, -471.1974752172828, 0.7840000372380018, 0.6400000303983688, 0.2400000113993883, 0.0, 0.0, 0.0, 0.0, 0.0, 1.7103950277111678E9, 0.0, 2024-03-13 22:43:47.711
38.0, -796.0171361188404, -409.0178985539824, -527.372642501723, -473.99118048418313, 0.7840000372380018, 0.6400000303983688, 0.2400000113993883, 0.0, 0.0, 0.0, 0.0, 0.0, 1.7103950277248118E9, 0.0, 2024-03-13 22:43:47.724
38.0, -780.7845235993154, -389.83969158120453, -515.8874097377993, -458.844585663639, 0.7840000372380018, 0.6400000303983688, 0.2400000113993883, 0.0, 0.0, 0.0, 0.0, 0.0, 1.7103950277248118E9, 0.0, 2024-03-13 22:43:47.724
39.0, -790.5157432840206, -394.368710427545, -513.0824847710319, -466.35430477466434, 0.7840000372380018, 0.6400000303983688, 0.2400000113993883, 0.0, 0.0, 0.0, 0.0, 0.0, 1.7103950277404952E9, 0.0, 2024-03-13 22:43:47.740
39.0, -783.9073400623165, -393.7366673350334, -510.57301190076396, -465.8082793811336, 0.7840000372380018, 0.6400000303983688, 0.2400000113993883, 0.0, 0.0, 0.0, 0.0, 0.0, 1.7103950277404952E9, 0.0, 2024-03-13 22:43:47.740
40.0, -774.1312415781431, -390.50165387336165, -511.01805999549106, -456.5557668907568, 0.7840000372380018, 0.6400000303983688, 0.2400000113993883, 0.0, 0.0, 0.0, 0.0, 0.0, 1.7103950277419045E9, 0.0, 2024-03-13 22:43:47.741
40.0, -794.6034539355896, -406.13817558810115, -519.3804762964137, -472.5288796015084, 0.7840000372380018, 0.6400000303983688, 0.2400000113993883, 0.0, 0.0, 0.0, 0.0, 0.0, 1.7103950277419045E9, 0.0, 2024-03-13 22:43:47.741
41.0, -808.7440156680532, -421.0080178119242, -529.9531734711491, -479.9039623141289, 0.7840000372380018, 0.6400000303983688, 0.2400000113993883, 0.0, 0.0, 0.0, 0.0, 0.0, 1.710395027754783E9, 0.0, 2024-03-13 22:43:47.754
41.0, -804.6114262170158, -413.32626330293715, -531.34067635471, -475.0084332721308, 0.7840000372380018, 0.6400000303983688, 0.2400000113993883, 0.0, 0.0, 0.0, 0.0, 0.0, 1.710395027754783E9, 0.0, 2024-03-13 22:43:47.754
42.0, -801.316574356053, -409.1899339519441, -522.3873558607884, -472.42416240274906, 0.7840000372380018, 0.6400000303983688, 0.2400000113993883, 0.0, 0.0, 0.0, 0.0, 0.0, 1.7103950277705512E9, 0.0, 2024-03-13 22:43:47.770
42.0, -814.3725651013665, -427.56032253429294, -535.3161900076084, -492.32790996693075, 0.7840000372380018, 0.6400000303983688, 0.2400000113993883, 0.0, 0.0, 0.0, 0.0, 0.0, 1.7103950277705512E9, 0.0, 2024-03-13 22:43:47.770
43.0, -807.7417224799283, -417.91512054856867, -541.3486486361362, -489.02183840610087, 0.7840000372380018, 0.6400000303983688, 0.2400000113993883, 0.0, 0.0, 0.0, 0.0, 0.0, 1.7103950277711973E9, 0.0, 2024-03-13 22:43:47.771
43.0, -794.6782519347034, -406.4560670843348, -527.8663092958741, -470.65518972370774, 0.7840000372380018, 0.6400000303983688, 0.2400000113993883, 0.0, 0.0, 0.0, 0.0, 0.0, 1.7103950277711973E9, 0.0, 2024-03-13 22:43:47.771
44.0, -804.9779364126734, -418.32650954369456, -523.3260707496665, -471.2573136165738, 0.7840000372380018, 0.6400000303983688, 0.2400000113993883, 0.0, 0.0, 0.0, 0.0, 0.0, 1.7103950277851033E9, 0.0, 2024-03-13 22:43:47.785
44.0, -817.888071059715, -429.9052398065105, -533.5733966282569, -486.3440700378269, 0.7840000372380018, 0.6400000303983688, 0.2400000113993883, 0.0, 0.0, 0.0, 0.0, 0.0, 1.7103950277851033E9, 0.0, 2024-03-13 22:43:47.785
45.0, -802.113173046615, -416.81185006164014, -539.8489487539046, -477.46180764306337, 0.7840000372380018, 0.6400000303983688, 0.2400000113993883, 0.0, 0.0, 0.0, 0.0, 0.0, 1.710395027800508E9, 0.0, 2024-03-13 22:43:47.800
45.0, -805.4529037070461, -410.3119039386511, -528.3412765902467, -470.42331592645496, 0.7840000372380018, 0.6400000303983688, 0.2400000113993883, 0.0, 0.0, 0.0, 0.0, 0.0, 1.710395027800508E9, 0.0, 2024-03-13 22:43:47.800
46.0, -801.5447082533501, -408.6065095588565, -516.5344124301337, -465.60258488357067, 0.7840000372380018, 0.6400000303983688, 0.2400000113993883, 0.0, 0.0, 0.0, 0.0, 0.0, 1.7103950278011887E9, 0.0, 2024-03-13 22:43:47.801
46.0, -795.4823304251768, -407.88470886740834, -515.2067479458638, -462.90985691547394, 0.7840000372380018, 0.6400000303983688, 0.2400000113993883, 0.0, 0.0, 0.0, 0.0, 0.0, 1.7103950278011887E9, 0.0, 2024-03-13 22:43:47.801
47.0, -795.6768052228726, -402.9667404256761, -508.50858712522313, -459.3232928579673, 0.7840000372380018, 0.6400000303983688, 0.2400000113993883, 0.0, 0.0, 0.0, 0.0, 0.0, 1.7103950278150487E9, 0.0, 2024-03-13 22:43:47.815
47.0, -797.0269091068767, -413.18414710462093, -509.0807918184437, -462.6331043187529, 0.7840000372380018, 0.6400000303983688, 0.2400000113993883, 0.0, 0.0, 0.0, 0.0, 0.0, 1.7103950278150487E9, 0.0, 2024-03-13 22:43:47.815
48.0, -798.7397832865827, -412.3912883140147, -517.2375136218034, -463.9981678025797, 0.7840000372380018, 0.6400000303983688, 0.2400000113993883, 0.0, 0.0, 0.0, 0.0, 0.0, 1.710395027830808E9, 0.0, 2024-03-13 22:43:47.830
48.0, -792.1052007651888, -396.76224639918655, -504.24136127578095, -456.12941829580814, 0.7840000372380018, 0.6400000303983688, 0.2400000113993883, 0.0, 0.0, 0.0, 0.0, 0.0, 1.710395027830808E9, 0.0, 2024-03-13 22:43:47.830
49.0, -797.673911799211, -410.5961363352835, -498.97558213816956, -454.1734506189823, 0.7840000372380018, 0.6400000303983688, 0.2400000113993883, 0.0, 0.0, 0.0, 0.0, 0.0, 1.7103950278314853E9, 0.0, 2024-03-13 22:43:47.831
49.0, -805.3145274086855, -414.051803894341, -512.0128733837046, -464.50305429659784, 0.7840000372380018, 0.6400000303983688, 0.2400000113993883, 0.0, 0.0, 0.0, 0.0, 0.0, 1.7103950278314853E9, 0.0, 2024-03-13 22:43:47.831
50.0, -804.5067090182565, -408.9692798545584, -519.4515343955718, -467.1209842655808, 0.7840000372380018, 0.6400000303983688, 0.2400000113993883, 0.0, 0.0, 0.0, 0.0, 0.0, 1.7103950278447666E9, 0.0, 2024-03-13 22:43:47.844
50.0, -805.8979518017732, -418.3826080430299, -511.5192065895535, -469.76509353425354, 0.7840000372380018, 0.6400000303983688, 0.2400000113993883, 0.0, 0.0, 0.0, 0.0, 0.0, 1.7103950278447666E9, 0.0, 2024-03-13 22:43:47.844
51.0, -806.2682018973865, -418.25545144453645, -515.0309726479463, -474.12581688258797, 0.7840000372380018, 0.6400000303983688, 0.2400000113993883, 0.0, 0.0, 0.0, 0.0, 0.0, 1.7103950278604703E9, 0.0, 2024-03-13 22:43:47.860
51.0, -802.8686328376643, -413.39358150213957, -518.8082716031931, -467.0387064665556, 0.7840000372380018, 0.6400000303983688, 0.2400000113993883, 0.0, 0.0, 0.0, 0.0, 0.0, 1.7103950278604703E9, 0.0, 2024-03-13 22:43:47.860
52.0, -786.7347044288181, -400.90979545004666, -511.68002228764817, -462.2104956237599, 0.7840000372380018, 0.6400000303983688, 0.2400000113993883, 0.0, 0.0, 0.0, 0.0, 0.0, 1.710395027861194E9, 0.0, 2024-03-13 22:43:47.861
52.0, -803.235143033322, -418.36390854325145, -528.0944431931712, -477.73108043987304, 0.7840000372380018, 0.6400000303983688, 0.2400000113993883, 0.0, 0.0, 0.0, 0.0, 0.0, 1.710395027861194E9, 0.0, 2024-03-13 22:43:47.861
53.0, -803.30620113248, -421.3782679075375, -539.6245547565632, -483.76353906840086, 0.7840000372380018, 0.6400000303983688, 0.2400000113993883, 0.0, 0.0, 0.0, 0.0, 0.0, 1.7103950278747573E9, 0.0, 2024-03-13 22:43:47.874
53.0, -799.6597986756824, -413.3000840032473, -534.0259245228954, -481.0895106000826, 0.7840000372380018, 0.6400000303983688, 0.2400000113993883, 0.0, 0.0, 0.0, 0.0, 0.0, 1.7103950278747573E9, 0.0, 2024-03-13 22:43:47.874
54.0, -796.383646314498, -406.51590548362583, -523.0567979528569, -476.5679715536535, 0.7840000372380018, 0.6400000303983688, 0.2400000113993883, 0.0, 0.0, 0.0, 0.0, 0.0, 1.7103950278904347E9, 0.0, 2024-03-13 22:43:47.890
54.0, -796.9932500072755, -411.43013402540237, -531.4865324529819, -485.3081177501008, 0.7840000372380018, 0.6400000303983688, 0.2400000113993883, 0.0, 0.0, 0.0, 0.0, 0.0, 1.7103950278904347E9, 0.0, 2024-03-13 22:43:47.890
55.0, -787.4378056204878, -410.0014922423288, -529.5829233755358, -479.31679802108556, 0.7840000372380018, 0.6400000303983688, 0.2400000113993883, 0.0, 0.0, 0.0, 0.0, 0.0, 1.710395027891188E9, 0.0, 2024-03-13 22:43:47.891
55.0, -789.9771976904012, -408.5915499590337, -517.6676021167077, -472.9365286966786, 0.7840000372380018, 0.6400000303983688, 0.2400000113993883, 0.0, 0.0, 0.0, 0.0, 0.0, 1.710395027891188E9, 0.0, 2024-03-13 22:43:47.891
56.0, -787.2358510228805, -412.13323521707207, -516.4783139307983, -478.0078330365941, 0.7840000372380018, 0.6400000303983688, 0.2400000113993883, 0.0, 0.0, 0.0, 0.0, 0.0, 1.7103950279048195E9, 0.0, 2024-03-13 22:43:47.904
56.0, -786.5626690308563, -401.42590164393187, -521.680514769163, -470.4120962265879, 0.7840000372380018, 0.6400000303983688, 0.2400000113993883, 0.0, 0.0, 0.0, 0.0, 0.0, 1.7103950279048195E9, 0.0, 2024-03-13 22:43:47.904
57.0, -785.9081865386106, -401.0519116483629, -512.5663785771467, -462.64058411866426, 0.7840000372380018, 0.6400000303983688, 0.2400000113993883, 0.0, 0.0, 0.0, 0.0, 0.0, 1.710395027920884E9, 0.0, 2024-03-13 22:43:47.920
57.0, -785.9381057382561, -404.79929140396416, -506.60497804777697, -466.38796387426555, 0.7840000372380018, 0.6400000303983688, 0.2400000113993883, 0.0, 0.0, 0.0, 0.0, 0.0, 1.710395027920884E9, 0.0, 2024-03-13 22:43:47.920
58.0, -799.652318875771, -411.9686796190217, -516.579291229602, -472.98140749614686, 0.7840000372380018, 0.6400000303983688, 0.2400000113993883, 0.0, 0.0, 0.0, 0.0, 0.0, 1.7103950279212725E9, 0.0, 2024-03-13 22:43:47.921
58.0, -783.4847313673235, -394.6791221238673, -498.46695574419573, -455.86388539895415, 0.7840000372380018, 0.6400000303983688, 0.2400000113993883, 0.0, 0.0, 0.0, 0.0, 0.0, 1.7103950279212725E9, 0.0, 2024-03-13 22:43:47.921
59.0, -786.3906336328946, -402.98917982541025, -493.26849480578676, -451.93325054552406, 0.7840000372380018, 0.6400000303983688, 0.2400000113993883, 0.0, 0.0, 0.0, 0.0, 0.0, 1.710395027934794E9, 0.0, 2024-03-13 22:43:47.934
59.0, -806.455196895171, -413.9732659952715, -527.0098722060211, -479.90770221408457, 0.7840000372380018, 0.6400000303983688, 0.2400000113993883, 0.0, 0.0, 0.0, 0.0, 0.0, 1.710395027934794E9, 0.0, 2024-03-13 22:43:47.934
60.0, -800.4601372662, -416.1311882697046, -528.6554281865247, -471.99033400788903, 0.7840000372380018, 0.6400000303983688, 0.2400000113993883, 0.0, 0.0, 0.0, 0.0, 0.0, 1.7103950279509115E9, 0.0, 2024-03-13 22:43:47.950
60.0, -806.0625073998235, -419.0557900350541, -521.3813227727078, -472.3755437033251, 0.7840000372380018, 0.6400000303983688, 0.2400000113993883, 0.0, 0.0, 0.0, 0.0, 0.0, 1.7103950279509115E9, 0.0, 2024-03-13 22:43:47.950
61.0, -805.5277017061599, -423.80920287873596, -522.3387371613644, -477.7497799396515, 0.7840000372380018, 0.6400000303983688, 0.2400000113993883, 0.0, 0.0, 0.0, 0.0, 0.0, 1.7103950279512277E9, 0.0, 2024-03-13 22:43:47.951
61.0, -798.627586287912, -407.10306977666914, -515.1768287462182, -460.23956834711134, 0.7840000372380018, 0.6400000303983688, 0.2400000113993883, 0.0, 0.0, 0.0, 0.0, 0.0, 1.7103950279512277E9, 0.0, 2024-03-13 22:43:47.951
62.0, -793.4927036487497, -407.4434006726369, -510.6253705001436, -458.2948203701526, 0.7840000372380018, 0.6400000303983688, 0.2400000113993883, 0.0, 0.0, 0.0, 0.0, 0.0, 1.7103950279649963E9, 0.0, 2024-03-13 22:43:47.964
62.0, -810.8346197432838, -426.498190946877, -525.1399222281761, -478.7558130277321, 0.7840000372380018, 0.6400000303983688, 0.2400000113993883, 0.0, 0.0, 0.0, 0.0, 0.0, 1.7103950279649963E9, 0.0, 2024-03-13 22:43:47.964
63.0, -804.6151661169715, -417.85154224932194, -527.6157359988429, -474.53720587771386, 0.7840000372380018, 0.6400000303983688, 0.2400000113993883, 0.0, 0.0, 0.0, 0.0, 0.0, 1.7103950279806635E9, 0.0, 2024-03-13 22:43:47.980
63.0, -798.2610760922544, -410.09872964117676, -533.1844470328651, -478.03027243632823, 0.7840000372380018, 0.6400000303983688, 0.2400000113993883, 0.0, 0.0, 0.0, 0.0, 0.0, 1.7103950279806635E9, 0.0, 2024-03-13 22:43:47.980
64.0, -801.2492561568506, -409.926694243215, -517.5666248179041, -475.2365671694279, 0.7840000372380018, 0.6400000303983688, 0.2400000113993883, 0.0, 0.0, 0.0, 0.0, 0.0, 1.7103950279812987E9, 0.0, 2024-03-13 22:43:47.981
64.0, -801.1295793582685, -409.60132294707, -522.80248475587, -477.0840777475387, 0.7840000372380018, 0.6400000303983688, 0.2400000113993883, 0.0, 0.0, 0.0, 0.0, 0.0, 1.7103950279812987E9, 0.0, 2024-03-13 22:43:47.981
65.0, -799.4316647783853, -405.2630389984697, -524.9379676305689, -469.09939134214073, 0.7840000372380018, 0.6400000303983688, 0.2400000113993883, 0.0, 0.0, 0.0, 0.0, 0.0, 1.710395027995029E9, 0.0, 2024-03-13 22:43:47.995
65.0, -794.2481634397991, -402.7460863282904, -506.7508341460489, -463.53442020807415, 0.7840000372380018, 0.6400000303983688, 0.2400000113993883, 0.0, 0.0, 0.0, 0.0, 0.0, 1.710395027995029E9, 0.0, 2024-03-13 22:43:47.995
66.0, -800.5648544649594, -405.13214250002056, -516.7027079281397, -471.773419810459, 0.7840000372380018, 0.6400000303983688, 0.2400000113993883, 0.0, 0.0, 0.0, 0.0, 0.0, 1.710395028010406E9, 0.0, 2024-03-13 22:43:48.010
66.0, -805.2285097097047, -403.65488201752305, -523.3971288488247, -468.3327118512243, 0.7840000372380018, 0.6400000303983688, 0.2400000113993883, 0.0, 0.0, 0.0, 0.0, 0.0, 1.710395028010406E9, 0.0, 2024-03-13 22:43:48.010
67.0, -798.519129189197, -402.28607863374054, -509.46600151387975, -456.6642239894718, 0.7840000372380018, 0.6400000303983688, 0.2400000113993883, 0.0, 0.0, 0.0, 0.0, 0.0, 1.7103950280112731E9, 0.0, 2024-03-13 22:43:48.011
67.0, -802.1842311457731, -406.9310343787074, -505.7111419583671, -461.8776445277035, 0.7840000372380018, 0.6400000303983688, 0.2400000113993883, 0.0, 0.0, 0.0, 0.0, 0.0, 1.7103950280112731E9, 0.0, 2024-03-13 22:43:48.011
68.0, -797.2625228040852, -409.17123445216566, -507.7793066338636, -457.4496029801667, 0.7840000372380018, 0.6400000303983688, 0.2400000113993883, 0.0, 0.0, 0.0, 0.0, 0.0, 1.7103950280249453E9, 0.0, 2024-03-13 22:43:48.024
68.0, -788.9001065031625, -399.2567596696317, -516.9719807249494, -454.7755745118484, 0.7840000372380018, 0.6400000303983688, 0.2400000113993883, 0.0, 0.0, 0.0, 0.0, 0.0, 1.7103950280249453E9, 0.0, 2024-03-13 22:43:48.024
69.0, -799.4728036778979, -400.90979545004666, -498.9307033387013, -458.03676727321, 0.7840000372380018, 0.6400000303983688, 0.2400000113993883, 0.0, 0.0, 0.0, 0.0, 0.0, 1.7103950280404623E9, 0.0, 2024-03-13 22:43:48.040
69.0, -794.8016686332412, -402.1813614349812, -508.1794759291224, -455.9199838982895, 0.7840000372380018, 0.6400000303983688, 0.2400000113993883, 0.0, 0.0, 0.0, 0.0, 0.0, 1.7103950280404623E9, 0.0, 2024-03-13 22:43:48.040
70.0, -787.1273939241655, -388.8486180929467, -502.8800376919098, -445.04435482714325, 0.7840000372380018, 0.6400000303983688, 0.2400000113993883, 0.0, 0.0, 0.0, 0.0, 0.0, 1.7103950280411816E9, 0.0, 2024-03-13 22:43:48.041
70.0, -792.6474862587638, -399.57839106582105, -492.6327118133195, -447.7408226951957, 0.7840000372380018, 0.6400000303983688, 0.2400000113993883, 0.0, 0.0, 0.0, 0.0, 0.0, 1.7103950280411816E9, 0.0, 2024-03-13 22:43:48.041
71.0, -803.9382442249916, -407.5331582715735, -510.1130042062141, -463.4409227091819, 0.7840000372380018, 0.6400000303983688, 0.2400000113993883, 0.0, 0.0, 0.0, 0.0, 0.0, 1.7103950280547493E9, 0.0, 2024-03-13 22:43:48.054
71.0, -802.0570745472796, -407.6827542698011, -526.5573443113826, -470.69258872326463, 0.7840000372380018, 0.6400000303983688, 0.2400000113993883, 0.0, 0.0, 0.0, 0.0, 0.0, 1.7103950280547493E9, 0.0, 2024-03-13 22:43:48.054
72.0, -797.3635001028888, -409.7546588452533, -516.4745740308426, -469.42850253824145, 0.7840000372380018, 0.6400000303983688, 0.2400000113993883, 0.0, 0.0, 0.0, 0.0, 0.0, 1.710395028070708E9, 0.0, 2024-03-13 22:43:48.070
72.0, -802.5769206411205, -417.40275425463915, -523.344770249445, -483.35215007327497, 0.7840000372380018, 0.6400000303983688, 0.2400000113993883, 0.0, 0.0, 0.0, 0.0, 0.0, 1.710395028070708E9, 0.0, 2024-03-13 22:43:48.070
73.0, -803.7400295273401, -425.96338525321335, -525.3605763255619, -483.0043393773958, 0.7840000372380018, 0.6400000303983688, 0.2400000113993883, 0.0, 0.0, 0.0, 0.0, 0.0, 1.7103950280711205E9, 0.0, 2024-03-13 22:43:48.071
73.0, -796.4584443136118, -407.8173906682059, -522.4135351604782, -474.7802993748337, 0.7840000372380018, 0.6400000303983688, 0.2400000113993883, 0.0, 0.0, 0.0, 0.0, 0.0, 1.7103950280711205E9, 0.0, 2024-03-13 22:43:48.071
74.0, -797.8833461967297, -413.7077330984175, -522.5406917589717, -479.3018384212628, 0.7840000372380018, 0.6400000303983688, 0.2400000113993883, 0.0, 0.0, 0.0, 0.0, 0.0, 1.7103950280850637E9, 0.0, 2024-03-13 22:43:48.085
74.0, -797.8085481976159, -422.3095029965043, -525.1735813277774, -481.4111419962719, 0.7840000372380018, 0.6400000303983688, 0.2400000113993883, 0.0, 0.0, 0.0, 0.0, 0.0, 1.7103950280850637E9, 0.0, 2024-03-13 22:43:48.085
75.0, -801.6382057522424, -414.36969539057463, -526.2319730152376, -477.36083034425974, 0.7840000372380018, 0.6400000303983688, 0.2400000113993883, 0.0, 0.0, 0.0, 0.0, 0.0, 1.7103950281007476E9, 0.0, 2024-03-13 22:43:48.100
75.0, -801.5783673529513, -408.7037469577044, -522.3275174614973, -469.518260137178, 0.7840000372380018, 0.6400000303983688, 0.2400000113993883, 0.0, 0.0, 0.0, 0.0, 0.0, 1.7103950281007476E9, 0.0, 2024-03-13 22:43:48.100
76.0, -802.3861857433803, -408.47187316045165, -516.8635236262344, -472.9365286966786, 0.7840000372380018, 0.6400000303983688, 0.2400000113993883, 0.0, 0.0, 0.0, 0.0, 0.0, 1.7103950281012046E9, 0.0, 2024-03-13 22:43:48.101
76.0, -796.8436540090479, -397.09135759528726, -525.1623616279103, -469.1779292412102, 0.7840000372380018, 0.6400000303983688, 0.2400000113993883, 0.0, 0.0, 0.0, 0.0, 0.0, 1.7103950281012046E9, 0.0, 2024-03-13 22:43:48.101
77.0, -793.1411530529149, -391.3767904629931, -513.4639545665123, -456.7315421886742, 0.7840000372380018, 0.6400000303983688, 0.2400000113993883, 0.0, 0.0, 0.0, 0.0, 0.0, 1.710395028115128E9, 0.0, 2024-03-13 22:43:48.115
77.0, -792.090241165366, -403.47162691969424, -501.38781760958955, -460.49762144405395, 0.7840000372380018, 0.6400000303983688, 0.2400000113993883, 0.0, 0.0, 0.0, 0.0, 0.0, 1.710395028115128E9, 0.0, 2024-03-13 22:43:48.115
78.0, -798.470510489773, -405.1658015996218, -513.2657398688607, -463.1753898123279, 0.7840000372380018, 0.6400000303983688, 0.2400000113993883, 0.0, 0.0, 0.0, 0.0, 0.0, 1.7103950281304595E9, 0.0, 2024-03-13 22:43:48.130
78.0, -784.842315051239, -389.2487873882055, -500.19852942368016, -447.7595221949741, 0.7840000372380018, 0.6400000303983688, 0.2400000113993883, 0.0, 0.0, 0.0, 0.0, 0.0, 1.7103950281304595E9, 0.0, 2024-03-13 22:43:48.130
79.0, -802.1094331466593, -409.2983910506591, -508.86387762101367, -464.27118049934506, 0.7840000372380018, 0.6400000303983688, 0.2400000113993883, 0.0, 0.0, 0.0, 0.0, 0.0, 1.7103950281311836E9, 0.0, 2024-03-13 22:43:48.131
79.0, -796.7015378107317, -416.95396625995636, -514.1034774589352, -463.5568596078083, 0.7840000372380018, 0.6400000303983688, 0.2400000113993883, 0.0, 0.0, 0.0, 0.0, 0.0, 1.7103950281311836E9, 0.0, 2024-03-13 22:43:48.131
80.0, -799.7084173751064, -408.62146915867925, -518.0565517120995, -460.9688488384709, 0.7840000372380018, 0.6400000303983688, 0.2400000113993883, 0.0, 0.0, 0.0, 0.0, 0.0, 1.7103950281449478E9, 0.0, 2024-03-13 22:43:48.144
80.0, -807.4275708836503, -414.003185194917, -527.6119960988872, -472.57375840097666, 0.7840000372380018, 0.6400000303983688, 0.2400000113993883, 0.0, 0.0, 0.0, 0.0, 0.0, 1.7103950281449478E9, 0.0, 2024-03-13 22:43:48.144
81.0, -799.8206143737771, -410.50637873634696, -518.6511958050542, -466.8554513687268, 0.7840000372380018, 0.6400000303983688, 0.2400000113993883, 0.0, 0.0, 0.0, 0.0, 0.0, 1.710395028160454E9, 0.0, 2024-03-13 22:43:48.160
81.0, -791.5703950715251, -386.8776908162981, -515.5695182415657, -454.2183294184506, 0.7840000372380018, 0.6400000303983688, 0.2400000113993883, 0.0, 0.0, 0.0, 0.0, 0.0, 1.710395028160454E9, 0.0, 2024-03-13 22:43:48.160
82.0, -797.2251238045283, -409.84067654423416, -514.058598659467, -465.0789988897741, 0.7840000372380018, 0.6400000303983688, 0.2400000113993883, 0.0, 0.0, 0.0, 0.0, 0.0, 1.7103950281611447E9, 0.0, 2024-03-13 22:43:48.161
82.0, -810.1464781514369, -419.77011092659086, -527.3539430019446, -480.62202310562134, 0.7840000372380018, 0.6400000303983688, 0.2400000113993883, 0.0, 0.0, 0.0, 0.0, 0.0, 1.7103950281611447E9, 0.0, 2024-03-13 22:43:48.161
83.0, -814.2678479026072, -424.17571307439357, -536.6662938916124, -482.06562448851764, 0.7840000372380018, 0.6400000303983688, 0.2400000113993883, 0.0, 0.0, 0.0, 0.0, 0.0, 1.7103950281747336E9, 0.0, 2024-03-13 22:43:48.174
83.0, -810.9206374422647, -417.55609015282243, -540.0172442519106, -483.9056552667171, 0.7840000372380018, 0.6400000303983688, 0.2400000113993883, 0.0, 0.0, 0.0, 0.0, 0.0, 1.7103950281747336E9, 0.0, 2024-03-13 22:43:48.174
84.0, -817.671156862285, -426.84600164275616, -522.1330426638015, -479.6646087169647, 0.7840000372380018, 0.6400000303983688, 0.2400000113993883, 0.0, 0.0, 0.0, 0.0, 0.0, 1.7103950281907125E9, 0.0, 2024-03-13 22:43:48.190
84.0, -823.3296254952438, -435.8292413363233, -534.3999145184644, -490.9778060829267, 0.7840000372380018, 0.6400000303983688, 0.2400000113993883, 0.0, 0.0, 0.0, 0.0, 0.0, 1.7103950281907125E9, 0.0, 2024-03-13 22:43:48.190
85.0, -816.8259394722991, -427.3097492372617, -535.6565209035762, -487.2416460271925, 0.7840000372380018, 0.6400000303983688, 0.2400000113993883, 0.0, 0.0, 0.0, 0.0, 0.0, 1.7103950281914124E9, 0.0, 2024-03-13 22:43:48.191
85.0, -814.6941964975558, -422.7508111912757, -528.2328194915317, -487.55205772351474, 0.7840000372380018, 0.6400000303983688, 0.2400000113993883, 0.0, 0.0, 0.0, 0.0, 0.0, 1.7103950281914124E9, 0.0, 2024-03-13 22:43:48.191
86.0, -816.3547120778821, -423.7194452797994, -526.8640161077492, -490.383161989972, 0.7840000372380018, 0.6400000303983688, 0.2400000113993883, 0.0, 0.0, 0.0, 0.0, 0.0, 1.7103950282047544E9, 0.0, 2024-03-13 22:43:48.204
86.0, -804.0018225242384, -416.1311882697046, -526.8827156075276, -479.9787603132427, 0.7840000372380018, 0.6400000303983688, 0.2400000113993883, 0.0, 0.0, 0.0, 0.0, 0.0, 1.7103950282047544E9, 0.0, 2024-03-13 22:43:48.204
87.0, -808.1119725755416, -424.10839487519115, -524.900568631012, -481.47098039556295, 0.7840000372380018, 0.6400000303983688, 0.2400000113993883, 0.0, 0.0, 0.0, 0.0, 0.0, 1.7103950282204552E9, 0.0, 2024-03-13 22:43:48.220
87.0, -817.5178209641017, -428.7645703200251, -524.9379676305689, -487.4473405247554, 0.7840000372380018, 0.6400000303983688, 0.2400000113993883, 0.0, 0.0, 0.0, 0.0, 0.0, 1.7103950282204552E9, 0.0, 2024-03-13 22:43:48.220
88.0, -827.4996139458381, -435.9788373345509, -539.6694335560314, -497.6722270036116, 0.7840000372380018, 0.6400000303983688, 0.2400000113993883, 0.0, 0.0, 0.0, 0.0, 0.0, 1.710395028221142E9, 0.0, 2024-03-13 22:43:48.221
88.0, -813.6470245099626, -422.73585159145296, -530.4206609656103, -482.49945288337767, 0.7840000372380018, 0.6400000303983688, 0.2400000113993883, 0.0, 0.0, 0.0, 0.0, 0.0, 1.710395028221142E9, 0.0, 2024-03-13 22:43:48.221
89.0, -797.2550430041738, -407.3723425734788, -504.1516036768444, -470.17274262942374, 0.7840000372380018, 0.6400000303983688, 0.2400000113993883, 0.0, 0.0, 0.0, 0.0, 0.0, 1.71039502823474E9, 0.0, 2024-03-13 22:43:48.234
89.0, -811.1749506392516, -427.8034160314128, -528.0832234933041, -485.21462025120854, 0.7840000372380018, 0.6400000303983688, 0.2400000113993883, 0.0, 0.0, 0.0, 0.0, 0.0, 1.71039502823474E9, 0.0, 2024-03-13 22:43:48.234
90.0, -810.0567205525003, -413.68903359863907, -534.5382908168249, -478.8567903265357, 0.7840000372380018, 0.6400000303983688, 0.2400000113993883, 0.0, 0.0, 0.0, 0.0, 0.0, 1.7103950282504127E9, 0.0, 2024-03-13 22:43:48.250
90.0, -813.4899487118237, -423.21455878578126, -525.5812304229476, -484.35444326139987, 0.7840000372380018, 0.6400000303983688, 0.2400000113993883, 0.0, 0.0, 0.0, 0.0, 0.0, 1.7103950282504127E9, 0.0, 2024-03-13 22:43:48.250
91.0, -809.9295639540069, -422.2833236968145, -530.8619691603817, -486.9424540307373, 0.7840000372380018, 0.6400000303983688, 0.2400000113993883, 0.0, 0.0, 0.0, 0.0, 0.0, 1.7103950282511382E9, 0.0, 2024-03-13 22:43:48.251
91.0, -806.7057701922022, -411.50867192447186, -533.8351896251552, -481.4784601954743, 0.7840000372380018, 0.6400000303983688, 0.2400000113993883, 0.0, 0.0, 0.0, 0.0, 0.0, 1.7103950282511382E9, 0.0, 2024-03-13 22:43:48.251
92.0, -796.6192600117065, -409.24229255132377, -519.376736396458, -470.9992605196312, 0.7840000372380018, 0.6400000303983688, 0.2400000113993883, 0.0, 0.0, 0.0, 0.0, 0.0, 1.710395028265174E9, 0.0, 2024-03-13 22:43:48.265
92.0, -816.7212222735398, -420.39841411914676, -535.9108341005631, -494.7962439376861, 0.7840000372380018, 0.6400000303983688, 0.2400000113993883, 0.0, 0.0, 0.0, 0.0, 0.0, 1.710395028265174E9, 0.0, 2024-03-13 22:43:48.265
93.0, -818.0301872580312, -428.4915576232597, -546.2778367777355, -497.6759669035673, 0.7840000372380018, 0.6400000303983688, 0.2400000113993883, 0.0, 0.0, 0.0, 0.0, 0.0, 1.7103950282808602E9, 0.0, 2024-03-13 22:43:48.280
93.0, -812.8092869198881, -419.2390451328829, -536.2623846963979, -488.10556291695684, 0.7840000372380018, 0.6400000303983688, 0.2400000113993883, 0.0, 0.0, 0.0, 0.0, 0.0, 1.7103950282808602E9, 0.0, 2024-03-13 22:43:48.280
94.0, -821.422276517842, -430.22687120269984, -526.0973366168328, -487.7839315207675, 0.7840000372380018, 0.6400000303983688, 0.2400000113993883, 0.0, 0.0, 0.0, 0.0, 0.0, 1.7103950282812724E9, 0.0, 2024-03-13 22:43:48.281
94.0, -807.3901718840934, -431.4572982881218, -532.0101184467785, -490.22234629187733, 0.7840000372380018, 0.6400000303983688, 0.2400000113993883, 0.0, 0.0, 0.0, 0.0, 0.0, 1.7103950282812724E9, 0.0, 2024-03-13 22:43:48.281
95.0, -813.3403527135961, -427.8034160314128, -540.0135043519549, -487.8587295198813, 0.7840000372380018, 0.6400000303983688, 0.2400000113993883, 0.0, 0.0, 0.0, 0.0, 0.0, 1.710395028294786E9, 0.0, 2024-03-13 22:43:48.294
95.0, -821.7102488144301, -429.6471867095679, -536.0641699987464, -488.17662101611495, 0.7840000372380018, 0.6400000303983688, 0.2400000113993883, 0.0, 0.0, 0.0, 0.0, 0.0, 1.710395028294786E9, 0.0, 2024-03-13 22:43:48.294
96.0, -824.8517647772096, -433.1252936683595, -533.1732273329981, -493.5695567522198, 0.7840000372380018, 0.6400000303983688, 0.2400000113993883, 0.0, 0.0, 0.0, 0.0, 0.0, 1.710395028310524E9, 0.0, 2024-03-13 22:43:48.310
96.0, -817.8506720601581, -424.6843394683674, -535.417167306412, -486.7031004335731, 0.7840000372380018, 0.6400000303983688, 0.2400000113993883, 0.0, 0.0, 0.0, 0.0, 0.0, 1.710395028310524E9, 0.0, 2024-03-13 22:43:48.310
97.0, -809.2638617618941, -419.37368153128773, -523.030618653167, -478.31450483296067, 0.7840000372380018, 0.6400000303983688, 0.2400000113993883, 0.0, 0.0, 0.0, 0.0, 0.0, 1.710395028311449E9, 0.0, 2024-03-13 22:43:48.311
97.0, -821.9458625116386, -430.15581310354173, -534.4223539181985, -494.1978599447757, 0.7840000372380018, 0.6400000303983688, 0.2400000113993883, 0.0, 0.0, 0.0, 0.0, 0.0, 1.710395028311449E9, 0.0, 2024-03-13 22:43:48.311
98.0, -818.8006066489033, -428.62245412170887, -543.0727425157093, -495.4619461297989, 0.7840000372380018, 0.6400000303983688, 0.2400000113993883, 0.0, 0.0, 0.0, 0.0, 0.0, 1.7103950283249075E9, 0.0, 2024-03-13 22:43:48.324
98.0, -814.6418378981762, -426.7188450442627, -535.4545663059689, -486.17203463986516, 0.7840000372380018, 0.6400000303983688, 0.2400000113993883, 0.0, 0.0, 0.0, 0.0, 0.0, 1.7103950283249075E9, 0.0, 2024-03-13 22:43:48.324
99.0, -813.546047211159, -430.3951667007059, -528.9658398828469, -489.73989919759333, 0.7840000372380018, 0.6400000303983688, 0.2400000113993883, 0.0, 0.0, 0.0, 0.0, 0.0, 1.710395028340825E9, 0.0, 2024-03-13 22:43:48.340
99.0, -825.3342118714936, -440.0964671857655, -543.6748664085753, -500.6379676684737, 0.7840000372380018, 0.6400000303983688, 0.2400000113993883, 0.0, 0.0, 0.0, 0.0, 0.0, 1.710395028340825E9, 0.0, 2024-03-13 22:43:48.340
100.0, -815.4720956883393, -427.1638931389898, -544.3143893009983, -494.0931427460164, 0.7840000372380018, 0.6400000303983688, 0.2400000113993883, 0.0, 0.0, 0.0, 0.0, 0.0, 1.7103950283414218E9, 0.0, 2024-03-13 22:43:48.341
100.0, -808.1867705746554, -424.25425097346306, -530.9405070594512, -482.91458177845925, 0.7840000372380018, 0.6400000303983688, 0.2400000113993883, 0.0, 0.0, 0.0, 0.0, 0.0, 1.7103950283414218E9, 0.0, 2024-03-13 22:43:48.341
0.0, -823.8513415390626, -442.14032251155004, -532.3018306433223, -494.23338899435475, 0.7840000372380018, 0.6400000303983688, 0.2400000113993883, 0.0, 0.0, 0.0, 0.0, 0.0, 1.710395028355462E9, 0.0, 2024-03-13 22:43:48.355
1.0, -820.7397447759286, -431.67982233548537, -543.2672173134051, -491.71269642421976, 0.7840000372380018, 0.6400000303983688, 0.2400000113993883, 0.0, 0.0, 0.0, 0.0, 0.0, 1.71039502835619E9, 0.0, 2024-03-13 22:43:48.356
1.0, -816.5697563253343, -431.0103802434169, -535.3236698075198, -488.23458946542814, 0.7840000372380018, 0.6400000303983688, 0.2400000113993883, 0.0, 0.0, 0.0, 0.0, 0.0, 1.71039502835619E9, 0.0, 2024-03-13 22:43:48.356
2.0, -813.5890560606495, -424.00928752636537, -518.8194913030602, -485.5418614973314, 0.7840000372380018, 0.6400000303983688, 0.2400000113993883, 0.0, 0.0, 0.0, 0.0, 0.0, 1.7103950283699532E9, 0.0, 2024-03-13 22:43:48.369
2.0, -810.0473708026111, -424.28230022313073, -528.7451857854612, -482.3966056345962, 0.7840000372380018, 0.6400000303983688, 0.2400000113993883, 0.0, 0.0, 0.0, 0.0, 0.0, 1.7103950283699532E9, 0.0, 2024-03-13 22:43:48.369
3.0, -805.1069629611447, -415.90866422234103, -517.9181754137389, -470.10729438019916, 0.7840000372380018, 0.6400000303983688, 0.2400000113993883, 0.0, 0.0, 0.0, 0.0, 0.0, 1.7103950284020228E9, 0.0, 2024-03-13 22:43:48.402
3.0, -814.3071168521419, -420.6284179664217, -520.7717190799303, -482.70327743096277, 0.7840000372380018, 0.6400000303983688, 0.2400000113993883, 0.0, 0.0, 0.0, 0.0, 0.0, 1.7103950284020228E9, 0.0, 2024-03-13 22:43:48.402
4.0, -814.7858240464702, -426.1111113014631, -526.5199453118257, -486.5067556858994, 0.7840000372380018, 0.6400000303983688, 0.2400000113993883, 0.0, 0.0, 0.0, 0.0, 0.0, 1.7103950284025192E9, 0.0, 2024-03-13 22:43:48.402
4.0, -813.0467705670744, -424.8058862169273, -532.7805378376506, -482.8790527288802, 0.7840000372380018, 0.6400000303983688, 0.2400000113993883, 0.0, 0.0, 0.0, 0.0, 0.0, 1.7103950284025192E9, 0.0, 2024-03-13 22:43:48.402
5.0, -802.945300786756, -414.01253494480625, -529.2238929797895, -483.5896337204613, 0.7840000372380018, 0.6400000303983688, 0.2400000113993883, 0.0, 0.0, 0.0, 0.0, 0.0, 1.7103950284033284E9, 0.0, 2024-03-13 22:43:48.403
5.0, -795.9217686699703, -413.8031005472876, -524.2984447381459, -484.3600531113334, 0.7840000372380018, 0.6400000303983688, 0.2400000113993883, 0.0, 0.0, 0.0, 0.0, 0.0, 1.7103950284033284E9, 0.0, 2024-03-13 22:43:48.403
6.0, -796.0451853685081, -407.7369828191586, -537.8032234781422, -480.59397385595366, 0.7840000372380018, 0.6400000303983688, 0.2400000113993883, 0.0, 0.0, 0.0, 0.0, 0.0, 1.710395028404105E9, 0.0, 2024-03-13 22:43:48.404
6.0, -801.509179203771, -413.6609843489714, -527.372642501723, -476.85781380021945, 0.7840000372380018, 0.6400000303983688, 0.2400000113993883, 0.0, 0.0, 0.0, 0.0, 0.0, 1.710395028404105E9, 0.0, 2024-03-13 22:43:48.404
7.0, -802.7059471895918, -418.8183063878678, -517.5778445177712, -481.7383832423948, 0.7840000372380018, 0.6400000303983688, 0.2400000113993883, 0.0, 0.0, 0.0, 0.0, 0.0, 1.7103950284148045E9, 0.0, 2024-03-13 22:43:48.414
7.0, -804.1832076720893, -420.45638256845996, -532.836636336986, -481.9814767395146, 0.7840000372380018, 0.6400000303983688, 0.2400000113993883, 0.0, 0.0, 0.0, 0.0, 0.0, 1.7103950284148045E9, 0.0, 2024-03-13 22:43:48.414
8.0, -789.8032923424616, -406.0540278390981, -512.4093027790077, -466.84610161883757, 0.7840000372380018, 0.6400000303983688, 0.2400000113993883, 0.0, 0.0, 0.0, 0.0, 0.0, 1.7103950284301913E9, 0.0, 2024-03-13 22:43:48.430
8.0, -795.6524958731607, -414.667017437052, -514.7803993509151, -477.51977609237656, 0.7840000372380018, 0.6400000303983688, 0.2400000113993883, 0.0, 0.0, 0.0, 0.0, 0.0, 1.7103950284301913E9, 0.0, 2024-03-13 22:43:48.430
9.0, -807.2200064361095, -419.6971828774549, -525.8430234198458, -485.3698260993697, 0.7840000372380018, 0.6400000303983688, 0.2400000113993883, 0.0, 0.0, 0.0, 0.0, 0.0, 1.7103950284458158E9, 0.0, 2024-03-13 22:43:48.445
9.0, -801.6999141015112, -414.8390528350137, -523.8010380440392, -474.6550127263181, 0.7840000372380018, 0.6400000303983688, 0.2400000113993883, 0.0, 0.0, 0.0, 0.0, 0.0, 1.7103950284458158E9, 0.0, 2024-03-13 22:43:48.445
10.0, -805.3762357579544, -428.98335446743295, -524.0590911409818, -476.67455870239064, 0.7840000372380018, 0.6400000303983688, 0.2400000113993883, 0.0, 0.0, 0.0, 0.0, 0.0, 1.7103950284464583E9, 0.0, 2024-03-13 22:43:48.446
10.0, -819.8234692867845, -434.91109589720145, -529.6876405742951, -485.4034851989709, 0.7840000372380018, 0.6400000303983688, 0.2400000113993883, 0.0, 0.0, 0.0, 0.0, 0.0, 1.7103950284464583E9, 0.0, 2024-03-13 22:43:48.446
11.0, -805.9671399509534, -416.8772983108647, -531.0078252586536, -478.74646327784285, 0.7840000372380018, 0.6400000303983688, 0.2400000113993883, 0.0, 0.0, 0.0, 0.0, 0.0, 1.7103950284598844E9, 0.0, 2024-03-13 22:43:48.459
11.0, -796.3518571648747, -408.6943972078152, -511.3396913916804, -465.4548588353209, 0.7840000372380018, 0.6400000303983688, 0.2400000113993883, 0.0, 0.0, 0.0, 0.0, 0.0, 1.7103950284598844E9, 0.0, 2024-03-13 22:43:48.459
12.0, -795.7759125716984, -409.75278889527544, -512.394343179185, -471.62569376220927, 0.7840000372380018, 0.6400000303983688, 0.2400000113993883, 0.0, 0.0, 0.0, 0.0, 0.0, 1.710395028475478E9, 0.0, 2024-03-13 22:43:48.475
12.0, -797.2307336544618, -409.03846800373867, -518.8120115031488, -471.14698656788096, 0.7840000372380018, 0.6400000303983688, 0.2400000113993883, 0.0, 0.0, 0.0, 0.0, 0.0, 1.710395028475478E9, 0.0, 2024-03-13 22:43:48.475
13.0, -795.0428921803832, -405.85581314144656, -517.9331350135617, -470.52242327528074, 0.7840000372380018, 0.6400000303983688, 0.2400000113993883, 0.0, 0.0, 0.0, 0.0, 0.0, 1.7103950284761603E9, 0.0, 2024-03-13 22:43:48.476
13.0, -801.8906489992514, -411.52176157431677, -521.0746509763412, -476.091134309303, 0.7840000372380018, 0.6400000303983688, 0.2400000113993883, 0.0, 0.0, 0.0, 0.0, 0.0, 1.7103950284761603E9, 0.0, 2024-03-13 22:43:48.476
14.0, -797.0811376562342, -411.0692336796783, -524.8108110320754, -476.3117884066887, 0.7840000372380018, 0.6400000303983688, 0.2400000113993883, 0.0, 0.0, 0.0, 0.0, 0.0, 1.7103950284897878E9, 0.0, 2024-03-13 22:43:48.489
14.0, -792.1594293145463, -406.96656342828646, -530.6637544627301, -475.9190989113413, 0.7840000372380018, 0.6400000303983688, 0.2400000113993883, 0.0, 0.0, 0.0, 0.0, 0.0, 1.7103950284897878E9, 0.0, 2024-03-13 22:43:48.489
15.0, -792.7465936075896, -404.6253860560246, -523.0717575526796, -470.93381227040663, 0.7840000372380018, 0.6400000303983688, 0.2400000113993883, 0.0, 0.0, 0.0, 0.0, 0.0, 1.7103950285054548E9, 0.0, 2024-03-13 22:43:48.505
15.0, -776.0105413058773, -401.19589779665694, -507.9625617316924, -464.7928965431638, 0.7840000372380018, 0.6400000303983688, 0.2400000113993883, 0.0, 0.0, 0.0, 0.0, 0.0, 1.7103950285054548E9, 0.0, 2024-03-13 22:43:48.505
16.0, -774.7576748207211, -383.4575523068197, -509.3725040149875, -453.87612857250497, 0.7840000372380018, 0.6400000303983688, 0.2400000113993883, 0.0, 0.0, 0.0, 0.0, 0.0, 1.7103950285061498E9, 0.0, 2024-03-13 22:43:48.506
16.0, -782.6189445275813, -392.6464864979498, -510.65154979983345, -462.07772917533293, 0.7840000372380018, 0.6400000303983688, 0.2400000113993883, 0.0, 0.0, 0.0, 0.0, 0.0, 1.7103950285061498E9, 0.0, 2024-03-13 22:43:48.506
17.0, -775.1466244161129, -391.89476660685614, -506.6012381478213, -457.8292028256692, 0.7840000372380018, 0.6400000303983688, 0.2400000113993883, 0.0, 0.0, 0.0, 0.0, 0.0, 1.710395028519794E9, 0.0, 2024-03-13 22:43:48.519
17.0, -778.4040772775188, -386.2475176737644, -511.3658706913702, -458.1283948221244, 0.7840000372380018, 0.6400000303983688, 0.2400000113993883, 0.0, 0.0, 0.0, 0.0, 0.0, 1.710395028519794E9, 0.0, 2024-03-13 22:43:48.519
18.0, -761.1369591820985, -377.03240418294445, -495.01876798504964, -441.77007241593674, 0.7840000372380018, 0.6400000303983688, 0.2400000113993883, 0.0, 0.0, 0.0, 0.0, 0.0, 1.7103950285354323E9, 0.0, 2024-03-13 22:43:48.535
18.0, -775.6814301097766, -389.2394376383163, -511.066678694915, -461.21381228556857, 0.7840000372380018, 0.6400000303983688, 0.2400000113993883, 0.0, 0.0, 0.0, 0.0, 0.0, 1.7103950285354323E9, 0.0, 2024-03-13 22:43:48.535
19.0, -776.4518495006487, -396.33776775421575, -510.7787063983269, -462.15252717444673, 0.7840000372380018, 0.6400000303983688, 0.2400000113993883, 0.0, 0.0, 0.0, 0.0, 0.0, 1.7103950285361793E9, 0.0, 2024-03-13 22:43:48.536
19.0, -777.3456855900586, -389.04122294066474, -515.1543893464841, -458.00123822363093, 0.7840000372380018, 0.6400000303983688, 0.2400000113993883, 0.0, 0.0, 0.0, 0.0, 0.0, 1.7103950285361793E9, 0.0, 2024-03-13 22:43:48.536
20.0, -777.6934962859377, -391.015890117269, -509.76145361037925, -459.0184910115786, 0.7840000372380018, 0.6400000303983688, 0.2400000113993883, 0.0, 0.0, 0.0, 0.0, 0.0, 1.7103950285498147E9, 0.0, 2024-03-13 22:43:48.549
20.0, -781.8036463372409, -406.22606323705986, -517.1514959228225, -466.73390462016687, 0.7840000372380018, 0.6400000303983688, 0.2400000113993883, 0.0, 0.0, 0.0, 0.0, 0.0, 1.7103950285498147E9, 0.0, 2024-03-13 22:43:48.549
21.0, -780.7377748498693, -397.04460884584114, -515.4124424434267, -464.36280804825947, 0.7840000372380018, 0.6400000303983688, 0.2400000113993883, 0.0, 0.0, 0.0, 0.0, 0.0, 1.7103950285654693E9, 0.0, 2024-03-13 22:43:48.565
21.0, -788.7561203548685, -406.8805457293056, -519.425355095882, -473.4732043403201, 0.7840000372380018, 0.6400000303983688, 0.2400000113993883, 0.0, 0.0, 0.0, 0.0, 0.0, 1.7103950285654693E9, 0.0, 2024-03-13 22:43:48.565
22.0, -781.8447852367535, -403.48097666958347, -515.0459322477691, -468.43929899996147, 0.7840000372380018, 0.6400000303983688, 0.2400000113993883, 0.0, 0.0, 0.0, 0.0, 0.0, 1.710395028566197E9, 0.0, 2024-03-13 22:43:48.566
22.0, -771.4142042603344, -393.6487796860747, -517.7685794155113, -463.1959592620842, 0.7840000372380018, 0.6400000303983688, 0.2400000113993883, 0.0, 0.0, 0.0, 0.0, 0.0, 1.710395028566197E9, 0.0, 2024-03-13 22:43:48.566
23.0, -762.87975256145, -387.2348512620665, -515.8612304381095, -457.7581447265111, 0.7840000372380018, 0.6400000303983688, 0.2400000113993883, 0.0, 0.0, 0.0, 0.0, 0.0, 1.710395028580035E9, 0.0, 2024-03-13 22:43:48.580
23.0, -773.3626921372488, -392.22013790300116, -506.7358745462261, -457.18594003329054, 0.7840000372380018, 0.6400000303983688, 0.2400000113993883, 0.0, 0.0, 0.0, 0.0, 0.0, 1.710395028580035E9, 0.0, 2024-03-13 22:43:48.580
24.0, -776.3097333023325, -388.977644641418, -504.9631619672291, -456.6062555401586, 0.7840000372380018, 0.6400000303983688, 0.2400000113993883, 0.0, 0.0, 0.0, 0.0, 0.0, 1.7103950285957007E9, 0.0, 2024-03-13 22:43:48.595
24.0, -775.5019149119034, -381.7858170266263, -511.7847394864075, -452.4100877898745, 0.7840000372380018, 0.6400000303983688, 0.2400000113993883, 0.0, 0.0, 0.0, 0.0, 0.0, 1.7103950285957007E9, 0.0, 2024-03-13 22:43:48.595
25.0, -784.4701950056478, -398.1291798329912, -512.7122346754186, -463.03140366403386, 0.7840000372380018, 0.6400000303983688, 0.2400000113993883, 0.0, 0.0, 0.0, 0.0, 0.0, 1.7103950285963564E9, 0.0, 2024-03-13 22:43:48.596
25.0, -781.0706259459257, -395.6571059622802, -507.02384684281424, -458.4238469186239, 0.7840000372380018, 0.6400000303983688, 0.2400000113993883, 0.0, 0.0, 0.0, 0.0, 0.0, 1.7103950285963564E9, 0.0, 2024-03-13 22:43:48.596
26.0, -783.91294991225, -386.082962075714, -510.02698650723323, -458.36400851933286, 0.7840000372380018, 0.6400000303983688, 0.2400000113993883, 0.0, 0.0, 0.0, 0.0, 0.0, 1.7103950286097648E9, 0.0, 2024-03-13 22:43:48.609
26.0, -778.9127036714926, -389.8677408308722, -510.8871634970419, -459.0484102112241, 0.7840000372380018, 0.6400000303983688, 0.2400000113993883, 0.0, 0.0, 0.0, 0.0, 0.0, 1.7103950286097648E9, 0.0, 2024-03-13 22:43:48.609
27.0, -779.7990599609911, -392.6053475984372, -508.19817542890087, -464.17955295043066, 0.7840000372380018, 0.6400000303983688, 0.2400000113993883, 0.0, 0.0, 0.0, 0.0, 0.0, 1.7103950286257465E9, 0.0, 2024-03-13 22:43:48.625
27.0, -781.8111261371523, -395.93011865904555, -519.6385293933563, -464.1346741509624, 0.7840000372380018, 0.6400000303983688, 0.2400000113993883, 0.0, 0.0, 0.0, 0.0, 0.0, 1.7103950286257465E9, 0.0, 2024-03-13 22:43:48.625
28.0, -764.4467706428841, -372.48094593686983, -509.776413210202, -447.1143894526176, 0.7840000372380018, 0.6400000303983688, 0.2400000113993883, 0.0, 0.0, 0.0, 0.0, 0.0, 1.7103950286264238E9, 0.0, 2024-03-13 22:43:48.626
28.0, -755.3924728501588, -370.3155438625254, -497.3375059575774, -447.32008395018056, 0.7840000372380018, 0.6400000303983688, 0.2400000113993883, 0.0, 0.0, 0.0, 0.0, 0.0, 1.7103950286264238E9, 0.0, 2024-03-13 22:43:48.626
29.0, -769.2188829863444, -379.65781395183876, -511.76603998662904, -458.96239251224324, 0.7840000372380018, 0.6400000303983688, 0.2400000113993883, 0.0, 0.0, 0.0, 0.0, 0.0, 1.710395028639772E9, 0.0, 2024-03-13 22:43:48.639
29.0, -763.9231846490875, -377.2343587805517, -520.8352973791771, -456.4903186415322, 0.7840000372380018, 0.6400000303983688, 0.2400000113993883, 0.0, 0.0, 0.0, 0.0, 0.0, 1.710395028639772E9, 0.0, 2024-03-13 22:43:48.639
30.0, -775.6178518105298, -385.4621386830695, -519.8928425903432, -461.8682947778143, 0.7840000372380018, 0.6400000303983688, 0.2400000113993883, 0.0, 0.0, 0.0, 0.0, 0.0, 1.7103950286555376E9, 0.0, 2024-03-13 22:43:48.655
30.0, -779.4101103655994, -388.6859324448742, -505.8457783567719, -464.81159604294226, 0.7840000372380018, 0.6400000303983688, 0.2400000113993883, 0.0, 0.0, 0.0, 0.0, 0.0, 1.7103950286555376E9, 0.0, 2024-03-13 22:43:48.655
31.0, -773.0373208411038, -393.0915345926769, -515.4161823433824, -457.5225310293026, 0.7840000372380018, 0.6400000303983688, 0.2400000113993883, 0.0, 0.0, 0.0, 0.0, 0.0, 1.710395028656324E9, 0.0, 2024-03-13 22:43:48.656
31.0, -776.3059934023768, -392.6427465979941, -517.1851550224237, -459.21296580927446, 0.7840000372380018, 0.6400000303983688, 0.2400000113993883, 0.0, 0.0, 0.0, 0.0, 0.0, 1.710395028656324E9, 0.0, 2024-03-13 22:43:48.656
32.0, -784.7544274022803, -401.42029179399833, -517.5741046178155, -473.52182303974405, 0.7840000372380018, 0.6400000303983688, 0.2400000113993883, 0.0, 0.0, 0.0, 0.0, 0.0, 1.710395028669855E9, 0.0, 2024-03-13 22:43:48.669
32.0, -782.7386213261634, -394.52765617566183, -525.4129349249415, -465.36884113634005, 0.7840000372380018, 0.6400000303983688, 0.2400000113993883, 0.0, 0.0, 0.0, 0.0, 0.0, 1.710395028669855E9, 0.0, 2024-03-13 22:43:48.669
33.0, -782.5591061282903, -389.7555438322015, -514.1221769587137, -458.65572071587667, 0.7840000372380018, 0.6400000303983688, 0.2400000113993883, 0.0, 0.0, 0.0, 0.0, 0.0, 1.710395028685432E9, 0.0, 2024-03-13 22:43:48.685
33.0, -786.5271399812773, -394.51643647579476, -519.3879560963251, -465.22672493802384, 0.7840000372380018, 0.6400000303983688, 0.2400000113993883, 0.0, 0.0, 0.0, 0.0, 0.0, 1.710395028685432E9, 0.0, 2024-03-13 22:43:48.685
34.0, -788.4531884584576, -405.4369443464093, -526.7293797093444, -474.8719269237481, 0.7840000372380018, 0.6400000303983688, 0.2400000113993883, 0.0, 0.0, 0.0, 0.0, 0.0, 1.710395028686146E9, 0.0, 2024-03-13 22:43:48.686
34.0, -786.2503873845562, -393.56276198709384, -529.1416151807643, -470.40274647669867, 0.7840000372380018, 0.6400000303983688, 0.2400000113993883, 0.0, 0.0, 0.0, 0.0, 0.0, 1.710395028686146E9, 0.0, 2024-03-13 22:43:48.686
35.0, -780.1393908569589, -391.3150821137242, -508.35899112699553, -456.6399146397598, 0.7840000372380018, 0.6400000303983688, 0.2400000113993883, 0.0, 0.0, 0.0, 0.0, 0.0, 1.710395028699744E9, 0.0, 2024-03-13 22:43:48.699
35.0, -785.2705335961655, -397.6429928387515, -508.12337742978707, -462.89302736567333, 0.7840000372380018, 0.6400000303983688, 0.2400000113993883, 0.0, 0.0, 0.0, 0.0, 0.0, 1.710395028699744E9, 0.0, 2024-03-13 22:43:48.699
36.0, -783.0901719219983, -397.1680255443789, -510.0382062071003, -457.3018769319169, 0.7840000372380018, 0.6400000303983688, 0.2400000113993883, 0.0, 0.0, 0.0, 0.0, 0.0, 1.710395028715739E9, 0.0, 2024-03-13 22:43:48.715
36.0, -783.7745736138895, -398.31243493082, -503.83371218061075, -456.6436545397155, 0.7840000372380018, 0.6400000303983688, 0.2400000113993883, 0.0, 0.0, 0.0, 0.0, 0.0, 1.710395028715739E9, 0.0, 2024-03-13 22:43:48.715
37.0, -796.84178405907, -400.1786450087093, -509.16680951742455, -464.3590681483038, 0.7840000372380018, 0.6400000303983688, 0.2400000113993883, 0.0, 0.0, 0.0, 0.0, 0.0, 1.710395028716372E9, 0.0, 2024-03-13 22:43:48.716
37.0, -795.9666474694386, -401.51752919284627, -519.6123500936665, -462.65741366846487, 0.7840000372380018, 0.6400000303983688, 0.2400000113993883, 0.0, 0.0, 0.0, 0.0, 0.0, 1.710395028716372E9, 0.0, 2024-03-13 22:43:48.716
38.0, -782.948055723682, -394.1985449795611, -510.4795144018717, -454.65402776328847, 0.7840000372380018, 0.6400000303983688, 0.2400000113993883, 0.0, 0.0, 0.0, 0.0, 0.0, 1.7103950287302797E9, 0.0, 2024-03-13 22:43:48.730
38.0, -779.7130422620103, -390.95605171797797, -500.0788526250981, -449.8295568204485, 0.7840000372380018, 0.6400000303983688, 0.2400000113993883, 0.0, 0.0, 0.0, 0.0, 0.0, 1.7103950287302797E9, 0.0, 2024-03-13 22:43:48.730
39.0, -775.59167251084, -389.7966827317141, -502.8089795927517, -449.69118052208796, 0.7840000372380018, 0.6400000303983688, 0.2400000113993883, 0.0, 0.0, 0.0, 0.0, 0.0, 1.7103950287458112E9, 0.0, 2024-03-13 22:43:48.745
39.0, -776.8669783957303, -391.3450013133697, -516.2688795332797, -451.83788309665397, 0.7840000372380018, 0.6400000303983688, 0.2400000113993883, 0.0, 0.0, 0.0, 0.0, 0.0, 1.7103950287458112E9, 0.0, 2024-03-13 22:43:48.745
40.0, -775.6141119105741, -387.36200786055997, -507.38661713851616, -452.69058028655127, 0.7840000372380018, 0.6400000303983688, 0.2400000113993883, 0.0, 0.0, 0.0, 0.0, 0.0, 1.7103950287463715E9, 0.0, 2024-03-13 22:43:48.746
40.0, -785.6520033916458, -393.97041108226404, -511.0404993952252, -459.47101890621707, 0.7840000372380018, 0.6400000303983688, 0.2400000113993883, 0.0, 0.0, 0.0, 0.0, 0.0, 1.7103950287463715E9, 0.0, 2024-03-13 22:43:48.746
41.0, -783.961568611674, -391.6778524094261, -514.6046240529977, -452.36894889036193, 0.7840000372380018, 0.6560000311583281, 0.2400000113993883, 0.0, 0.0, 0.0, 0.0, 0.0, 1.710395028759834E9, 0.0, 2024-03-13 22:43:48.759
41.0, -776.507947999984, -393.0877946927212, -506.39180375030264, -449.7098800218664, 0.7840000372380018, 0.6560000311583281, 0.2400000113993883, 0.0, 0.0, 0.0, 0.0, 0.0, 1.710395028759834E9, 0.0, 2024-03-13 22:43:48.759
42.0, -782.2561742318794, -391.3599609131925, -489.8838853458874, -449.6014229231514, 0.7840000372380018, 0.6560000311583281, 0.2400000113993883, 0.0, 0.0, 0.0, 0.0, 0.0, 1.7103950287756038E9, 0.0, 2024-03-13 22:43:48.775
42.0, -793.6067705973983, -401.6970443907194, -504.626570971217, -452.28667109133676, 0.7840000372380018, 0.6560000311583281, 0.2400000113993883, 0.0, 0.0, 0.0, 0.0, 0.0, 1.7103950287756038E9, 0.0, 2024-03-13 22:43:48.775
43.0, -780.7003758503124, -389.834081731271, -501.7692874050699, -447.6342355464585, 0.7840000372380018, 0.6560000311583281, 0.2400000113993883, 0.0, 0.0, 0.0, 0.0, 0.0, 1.7103950287764263E9, 0.0, 2024-03-13 22:43:48.776
43.0, -794.635243085213, -401.26695589581504, -508.02614003093913, -456.7969904378988, 0.7840000372380018, 0.6560000311583281, 0.2400000113993883, 0.0, 0.0, 0.0, 0.0, 0.0, 1.7103950287764263E9, 0.0, 2024-03-13 22:43:48.776
44.0, -789.8294716421515, -399.41570541774854, -511.7436005868949, -461.33348908415064, 0.7840000372380018, 0.6560000311583281, 0.2400000113993883, 0.0, 0.0, 0.0, 0.0, 0.0, 1.7103950287898529E9, 0.0, 2024-03-13 22:43:48.789
44.0, -777.4466628888622, -386.15402017487213, -502.6332042948343, -442.7499262043275, 0.7840000372380018, 0.6560000311583281, 0.2400000113993883, 0.0, 0.0, 0.0, 0.0, 0.0, 1.7103950287898529E9, 0.0, 2024-03-13 22:43:48.789
45.0, -788.3783904593438, -397.6055938391946, -499.6973828296177, -448.3074175384827, 0.7840000372380018, 0.6560000311583281, 0.2400000113993883, 0.0, 0.0, 0.0, 0.0, 0.0, 1.7103950288054876E9, 0.0, 2024-03-13 22:43:48.805
45.0, -788.6738425558433, -394.1985449795611, -498.42207694472745, -451.06372380582616, 0.7840000372380018, 0.6560000311583281, 0.2400000113993883, 0.0, 0.0, 0.0, 0.0, 0.0, 1.7103950288054876E9, 0.0, 2024-03-13 22:43:48.805
46.0, -778.5424535758793, -391.41231951257214, -511.3359514917247, -449.4219077252783, 0.7840000372380018, 0.6560000311583281, 0.2400000113993883, 0.0, 0.0, 0.0, 0.0, 0.0, 1.7103950288062418E9, 0.0, 2024-03-13 22:43:48.806
46.0, -785.3266320955008, -395.2756361667998, -509.2677868162282, -454.17158066900447, 0.7840000372380018, 0.6560000311583281, 0.2400000113993883, 0.0, 0.0, 0.0, 0.0, 0.0, 1.7103950288062418E9, 0.0, 2024-03-13 22:43:48.806
47.0, -792.6418764088303, -396.85387394810095, -504.3273789747618, -460.7201454914175, 0.7840000372380018, 0.6560000311583281, 0.2400000113993883, 0.0, 0.0, 0.0, 0.0, 0.0, 1.710395028819833E9, 0.0, 2024-03-13 22:43:48.819
47.0, -796.5126728629693, -404.9208381525241, -509.3799838148989, -461.9019538774155, 0.7840000372380018, 0.6560000311583281, 0.2400000113993883, 0.0, 0.0, 0.0, 0.0, 0.0, 1.710395028819833E9, 0.0, 2024-03-13 22:43:48.819
48.0, -796.1087636677548, -408.45504361065105, -516.0257860361598, -460.54811009345576, 0.7840000372380018, 0.6560000311583281, 0.2400000113993883, 0.0, 0.0, 0.0, 0.0, 0.0, 1.7103950288358493E9, 0.0, 2024-03-13 22:43:48.835
48.0, -800.0842773206532, -420.78923366451636, -515.300245444756, -468.15506660332903, 0.7840000372380018, 0.6560000311583281, 0.2400000113993883, 0.0, 0.0, 0.0, 0.0, 0.0, 1.7103950288358493E9, 0.0, 2024-03-13 22:43:48.835
49.0, -796.8268244592473, -414.6707573370077, -522.3574366611429, -474.84948752401397, 0.7840000372380018, 0.6560000311583281, 0.2400000113993883, 0.0, 0.0, 0.0, 0.0, 0.0, 1.7103950288364472E9, 0.0, 2024-03-13 22:43:48.836
49.0, -791.2992523247376, -403.35382007109, -516.4783139307983, -460.9146202891134, 0.7840000372380018, 0.6560000311583281, 0.2400000113993883, 0.0, 0.0, 0.0, 0.0, 0.0, 1.7103950288364472E9, 0.0, 2024-03-13 22:43:48.836
50.0, -802.1898409957066, -412.45673656323925, -514.866417049896, -467.99425090523437, 0.7840000372380018, 0.6560000311583281, 0.2240000106394291, 0.0, 0.0, 0.0, 0.0, 0.0, 1.7103950288499968E9, 0.0, 2024-03-13 22:43:48.849
50.0, -804.501099168323, -413.00650185672566, -513.852904161904, -473.2862093425356, 0.7840000372380018, 0.6560000311583281, 0.2240000106394291, 0.0, 0.0, 0.0, 0.0, 0.0, 1.7103950288499968E9, 0.0, 2024-03-13 22:43:48.849
51.0, -805.6716878544539, -414.027494544629, -528.9321807832457, -479.9170519639738, 0.7840000372380018, 0.6400000303983688, 0.2240000106394291, 0.0, 0.0, 0.0, 0.0, 0.0, 1.710395028865817E9, 0.0, 2024-03-13 22:43:48.865
51.0, -797.9338348461315, -408.2942279125564, -517.3085717209615, -473.136613344308, 0.7840000372380018, 0.6400000303983688, 0.2240000106394291, 0.0, 0.0, 0.0, 0.0, 0.0, 1.710395028865817E9, 0.0, 2024-03-13 22:43:48.865
52.0, -806.0942965494469, -422.3674714458175, -515.9696875368245, -477.41505889361724, 0.7840000372380018, 0.6400000303983688, 0.2240000106394291, 0.0, 0.0, 0.0, 0.0, 0.0, 1.7103950288664012E9, 0.0, 2024-03-13 22:43:48.866
52.0, -802.3020379943773, -412.7334891599603, -530.3196836668067, -477.6095336913131, 0.7840000372380018, 0.6400000303983688, 0.2240000106394291, 0.0, 0.0, 0.0, 0.0, 0.0, 1.7103950288664012E9, 0.0, 2024-03-13 22:43:48.866
53.0, -800.6976209133863, -413.20097665442154, -526.347909913864, -473.89955293526873, 0.7840000372380018, 0.6400000303983688, 0.2240000106394291, 0.0, 0.0, 0.0, 0.0, 0.0, 1.7103950288799798E9, 0.0, 2024-03-13 22:43:48.879
53.0, -799.8673631232232, -410.0258015920408, -506.0813920539804, -468.3570212009363, 0.7840000372380018, 0.6400000303983688, 0.2240000106394291, 0.0, 0.0, 0.0, 0.0, 0.0, 1.7103950288799798E9, 0.0, 2024-03-13 22:43:48.879
54.0, -799.4559741280973, -414.3640855406411, -512.3644239795394, -468.15506660332903, 0.7840000372380018, 0.6400000303983688, 0.2240000106394291, 0.0, 0.0, 0.0, 0.0, 0.0, 1.7103950288957472E9, 0.0, 2024-03-13 22:43:48.895
54.0, -787.8510645655915, -398.66398552665487, -503.13435088889673, -456.2360054445453, 0.7840000372380018, 0.6400000303983688, 0.2240000106394291, 0.0, 0.0, 0.0, 0.0, 0.0, 1.7103950288957472E9, 0.0, 2024-03-13 22:43:48.895
55.0, -794.8708567824215, -400.8443472008221, -504.3049395750277, -458.66320051578805, 0.7840000372380018, 0.6400000303983688, 0.2240000106394291, 0.0, 0.0, 0.0, 0.0, 0.0, 1.71039502889646E9, 0.0, 2024-03-13 22:43:48.896
55.0, -803.3828690815717, -413.45528985140845, -521.2167671746574, -471.89870645897463, 0.7840000372380018, 0.6400000303983688, 0.2240000106394291, 0.0, 0.0, 0.0, 0.0, 0.0, 1.71039502889646E9, 0.0, 2024-03-13 22:43:48.896
56.0, -796.1349429674447, -406.9516038284637, -517.7947587152012, -465.3239623368718, 0.7840000372380018, 0.6400000303983688, 0.2240000106394291, 0.0, 0.0, 0.0, 0.0, 0.0, 1.710395028909745E9, 0.0, 2024-03-13 22:43:48.909
56.0, -787.6229306682944, -394.4640778764151, -504.6564901708625, -451.40031480183825, 0.7840000372380018, 0.6400000303983688, 0.2240000106394291, 0.0, 0.0, 0.0, 0.0, 0.0, 1.710395028909745E9, 0.0, 2024-03-13 22:43:48.909
57.0, -805.7614454533905, -419.90661727497354, -511.4743277900852, -470.8739738711156, 0.7840000372380018, 0.6400000303983688, 0.2240000106394291, 0.0, 0.0, 0.0, 0.0, 0.0, 1.7103950289255347E9, 0.0, 2024-03-13 22:43:48.925
57.0, -818.7538578994572, -430.42695585032925, -535.031957610976, -487.52774837380275, 0.7840000372380018, 0.6400000303983688, 0.2240000106394291, 0.0, 0.0, 0.0, 0.0, 0.0, 1.7103950289255347E9, 0.0, 2024-03-13 22:43:48.925
58.0, -819.5579363899305, -430.0305264550261, -542.7361515196972, -487.97653636848554, 0.7840000372380018, 0.6400000303983688, 0.2240000106394291, 0.0, 0.0, 0.0, 0.0, 0.0, 1.7103950289262087E9, 0.0, 2024-03-13 22:43:48.926
58.0, -831.1104873530567, -435.91338908532634, -538.2108725733124, -491.53318122634664, 0.7840000372380018, 0.6400000303983688, 0.2240000106394291, 0.0, 0.0, 0.0, 0.0, 0.0, 1.7103950289262087E9, 0.0, 2024-03-13 22:43:48.926
59.0, -835.6582056991756, -441.21282732253894, -546.5845085741021, -494.0650934963487, 0.7840000372380018, 0.6400000303983688, 0.2240000106394291, 0.0, 0.0, 0.0, 0.0, 0.0, 1.710395028939746E9, 0.0, 2024-03-13 22:43:48.939
59.0, -814.0976824546233, -423.5604995316826, -530.1252088691108, -482.1422924376093, 0.7840000372380018, 0.6400000303983688, 0.2240000106394291, 0.0, 0.0, 0.0, 0.0, 0.0, 1.710395028939746E9, 0.0, 2024-03-13 22:43:48.939
60.0, -818.2115724058822, -427.3602378866635, -530.8320499607362, -485.19031090149656, 0.7840000372380018, 0.6400000303983688, 0.2240000106394291, 0.0, 0.0, 0.0, 0.0, 0.0, 1.7103950289555025E9, 0.0, 2024-03-13 22:43:48.955
60.0, -832.3783134380355, -445.4987526717596, -541.4795451345854, -498.0630465489812, 0.7840000372380018, 0.6400000303983688, 0.2240000106394291, 0.0, 0.0, 0.0, 0.0, 0.0, 1.7103950289555025E9, 0.0, 2024-03-13 22:43:48.955
61.0, -828.5523957833648, -432.1398300300352, -536.9467863882892, -491.5855398257263, 0.7840000372380018, 0.6400000303983688, 0.2240000106394291, 0.0, 0.0, 0.0, 0.0, 0.0, 1.7103950289562109E9, 0.0, 2024-03-13 22:43:48.956
61.0, -834.0313492184505, -436.605270577129, -531.6810072506778, -493.2497953060083, 0.7840000372380018, 0.6400000303983688, 0.2240000106394291, 0.0, 0.0, 0.0, 0.0, 0.0, 1.7103950289562109E9, 0.0, 2024-03-13 22:43:48.956
62.0, -840.0264088474214, -456.81195003772154, -541.1803531381302, -505.83455865690485, 0.800000037997961, 0.6400000303983688, 0.2240000106394291, 0.0, 0.0, 0.0, 0.0, 0.0, 1.7103950289698937E9, 0.0, 2024-03-13 22:43:48.969
62.0, -844.5404680939391, -458.9025541129522, -550.8629541234113, -510.24764060461894, 0.800000037997961, 0.6400000303983688, 0.2240000106394291, 0.0, 0.0, 0.0, 0.0, 0.0, 1.7103950289698937E9, 0.0, 2024-03-13 22:43:48.969
63.0, -836.5969205880538, -453.10570918163285, -556.3643469582312, -502.7828002930619, 0.800000037997961, 0.6400000303983688, 0.2240000106394291, 0.0, 0.0, 0.0, 0.0, 0.0, 1.7103950289854457E9, 0.0, 2024-03-13 22:43:48.985
63.0, -835.6021071998402, -447.05829095328227, -544.2956898012199, -500.86049171583727, 0.800000037997961, 0.6400000303983688, 0.2240000106394291, 0.0, 0.0, 0.0, 0.0, 0.0, 1.7103950289854457E9, 0.0, 2024-03-13 22:43:48.985
64.0, -840.3854392431676, -450.8617692082189, -544.9539121934213, -507.05002614250407, 0.800000037997961, 0.6400000303983688, 0.2240000106394291, 0.0, 0.0, 0.0, 0.0, 0.0, 1.7103950289862816E9, 0.0, 2024-03-13 22:43:48.986
64.0, -828.862807479687, -438.25082655763254, -535.9295336003415, -491.6229388252832, 0.800000037997961, 0.6400000303983688, 0.2240000106394291, 0.0, 0.0, 0.0, 0.0, 0.0, 1.7103950289862816E9, 0.0, 2024-03-13 22:43:48.986
65.0, -836.7165973866358, -446.639422158245, -541.1915728379972, -498.5791527428664, 0.800000037997961, 0.6400000303983688, 0.2240000106394291, 0.0, 0.0, 0.0, 0.0, 0.0, 1.7103950289998643E9, 0.0, 2024-03-13 22:43:48.999
65.0, -839.9029921488836, -445.69322746945545, -534.452273117844, -500.68097651796415, 0.800000037997961, 0.6400000303983688, 0.2240000106394291, 0.0, 0.0, 0.0, 0.0, 0.0, 1.7103950289998643E9, 0.0, 2024-03-13 22:43:48.999
66.0, -845.1986904861405, -453.8948280722834, -551.9176059109159, -505.67748285876587, 0.800000037997961, 0.6400000303983688, 0.2240000106394291, 0.0, 0.0, 0.0, 0.0, 0.0, 1.7103950290157552E9, 0.0, 2024-03-13 22:43:49.015
66.0, -842.7602757150307, -448.7449858332984, -548.5890949503519, -503.8972904798575, 0.800000037997961, 0.6400000303983688, 0.2240000106394291, 0.0, 0.0, 0.0, 0.0, 0.0, 1.7103950290157552E9, 0.0, 2024-03-13 22:43:49.015
67.0, -835.0710414061323, -441.6765749170445, -529.1752742803656, -495.0337275848724, 0.800000037997961, 0.6400000303983688, 0.2240000106394291, 0.0, 0.0, 0.0, 0.0, 0.0, 1.7103950290163553E9, 0.0, 2024-03-13 22:43:49.016
67.0, -831.166585852392, -436.20510128187016, -545.6121345856227, -494.12493189563975, 0.800000037997961, 0.6400000303983688, 0.2240000106394291, 0.0, 0.0, 0.0, 0.0, 0.0, 1.7103950290163553E9, 0.0, 2024-03-13 22:43:49.016
68.0, -819.733711687848, -429.3349050632678, -534.1493412214331, -481.8692797408439, 0.800000037997961, 0.6400000303983688, 0.2240000106394291, 0.0, 0.0, 0.0, 0.0, 0.0, 1.710395029030284E9, 0.0, 2024-03-13 22:43:49.030
68.0, -830.7888559568673, -443.18001469923183, -533.6519345273264, -491.93335052160546, 0.800000037997961, 0.6400000303983688, 0.2240000106394291, 0.0, 0.0, 0.0, 0.0, 0.0, 1.710395029030284E9, 0.0, 2024-03-13 22:43:49.030
69.0, -841.683184527792, -450.21850641584024, -551.0125501216389, -505.34837166266516, 0.800000037997961, 0.6400000303983688, 0.2240000106394291, 0.0, 0.0, 0.0, 0.0, 0.0, 1.7103950290455122E9, 0.0, 2024-03-13 22:43:49.045
69.0, -832.3857932379469, -435.46460109064355, -545.2381445900537, -489.93250404531136, 0.800000037997961, 0.6400000303983688, 0.2240000106394291, 0.0, 0.0, 0.0, 0.0, 0.0, 1.7103950290455122E9, 0.0, 2024-03-13 22:43:49.045
