%OpenBCI Raw EXG Data
%Number of channels = 4
%Sample Rate = 200 Hz
%Board = OpenBCI_GUI$BoardGanglionBLE
Sample Index, EXG Channel 0, EXG Channel 1, EXG Channel 2, EXG Channel 3, Accel Channel 0, Accel Channel 1, Accel Channel 2, Other, Other, Other, Other, Other, Timestamp, Other, Timestamp (Formatted)
2.0, 14.634228526614606, 5.078784139826894, 9.940654082223773, 3.5940438574180007, 0.6880000326782465, 0.0, 0.0, 0.0, 0.0, 0.0, 0.0, 0.0, 1.7103952940884678E9, 0.0, 2024-03-13 22:48:14.088
2.0, 11.047664469107985, 10.396921876817942, 1.6343362806364894, 2.898422465659678, 0.6880000326782465, 0.0, 0.0, 0.0, 0.0, 0.0, 0.0, 0.0, 1.7103952940884678E9, 0.0, 2024-03-13 22:48:14.088
3.0, 24.754397806711495, 28.251204265281558, 12.708180049434304, 17.872981888242066, 0.6880000326782465, 0.0, 0.0, 0.0, 0.0, 0.0, 0.0, 0.0, 1.7103952941025536E9, 0.0, 2024-03-13 22:48:14.102
3.0, 28.647633660584688, 24.814236206002533, 22.9368064282462, 20.18424006085843, 0.6880000326782465, 0.0, 0.0, 0.0, 0.0, 0.0, 0.0, 0.0, 1.7103952941025536E9, 0.0, 2024-03-13 22:48:14.102
4.0, 28.299822964705527, 29.212358553893864, 16.14514810871333, 15.127895320765674, 0.6880000326782465, 0.0, 0.0, 0.0, 0.0, 0.0, 0.0, 0.0, 1.7103952941035311E9, 0.0, 2024-03-13 22:48:14.103
4.0, 28.419499763287604, 29.71350514795631, 18.785517477430403, 15.333589818328619, 0.6880000326782465, 0.0, 0.0, 0.0, 0.0, 0.0, 0.0, 0.0, 1.7103952941035311E9, 0.0, 2024-03-13 22:48:14.103
5.0, 19.858868764713407, 23.022824127227068, 32.05842242017388, 14.237799131311476, 0.6880000326782465, 0.0, 0.0, 0.0, 0.0, 0.0, 0.0, 0.0, 1.7103952941170185E9, 0.0, 2024-03-13 22:48:14.117
5.0, 17.69720659032464, 15.232612519524992, 28.344701764173806, 9.349749889224768, 0.6880000326782465, 0.0, 0.0, 0.0, 0.0, 0.0, 0.0, 0.0, 1.7103952941170185E9, 0.0, 2024-03-13 22:48:14.117
6.0, 9.039338192902505, 14.06950363330543, 13.889988435432315, 10.367002677172422, 0.6880000326782465, 0.0, 0.0, 0.0, 0.0, 0.0, 0.0, 0.0, 1.7103952941325068E9, 0.0, 2024-03-13 22:48:14.132
6.0, 8.699007296934724, 12.947533646598458, 26.246617889031768, 9.6713812854141, 0.6880000326782465, 0.0, 0.0, 0.0, 0.0, 0.0, 0.0, 0.0, 1.7103952941325068E9, 0.0, 2024-03-13 22:48:14.132
7.0, 17.218499395996332, 13.358922641724348, 37.664532453753054, 19.533497468568385, 0.6880000326782465, 0.0, 0.0, 0.0, 0.0, 0.0, 0.0, 0.0, 1.710395294133222E9, 0.0, 2024-03-13 22:48:14.133
7.0, 8.594290098175406, 9.892035382799804, 21.79239704180509, 12.670781049877405, 0.6880000326782465, 0.0, 0.0, 0.0, 0.0, 0.0, 0.0, 0.0, 1.710395294133222E9, 0.0, 2024-03-13 22:48:14.133
8.0, 15.816036912612617, 11.885402059182525, 26.867441281676292, 17.34939589444548, 0.6880000326782465, 0.0, 0.0, 0.0, 0.0, 0.0, 0.0, 0.0, 1.7103952941468053E9, 0.0, 2024-03-13 22:48:14.146
8.0, 19.29414387140423, 10.927987670525908, 29.567649049684405, 13.609495938755572, 0.6880000326782465, 0.0, 0.0, 0.0, 0.0, 0.0, 0.0, 0.0, 1.7103952941468053E9, 0.0, 2024-03-13 22:48:14.146
9.0, 13.130788744427264, 0.482447094283998, 17.36061559431255, 8.160461703315377, 0.6880000326782465, 0.0, 0.0, 0.0, 0.0, 0.0, 0.0, 0.0, 1.7103952941624746E9, 0.0, 2024-03-13 22:48:14.162
9.0, 18.430226981639862, 10.352043077349663, 16.799630600959063, 15.845956112258136, 0.6880000326782465, 0.0, 0.0, 0.0, 0.0, 0.0, 0.0, 0.0, 1.7103952941624746E9, 0.0, 2024-03-13 22:48:14.162
10.0, 16.55279720388353, 17.117522097192705, 17.925340487621725, 19.70179296657443, 0.6880000326782465, 0.0, 0.3840000182390213, 0.0, 0.0, 0.0, 0.0, 0.0, 1.7103952941631997E9, 0.0, 2024-03-13 22:48:14.163
10.0, 10.602616374380887, 16.11148900911212, 11.604909562505782, 6.43262792378664, 0.6880000326782465, 0.0, 0.3840000182390213, 0.0, 0.0, 0.0, 0.0, 0.0, 1.7103952941631997E9, 0.0, 2024-03-13 22:48:14.163
11.0, 15.041877621784806, 21.650280843488872, 15.228872619569302, 12.551104251295328, 0.6880000326782465, 0.7040000334382057, 0.3840000182390213, 0.0, 0.0, 0.0, 0.0, 0.0, 1.710395294176826E9, 0.0, 2024-03-13 22:48:14.176
11.0, 18.94633317552507, 20.442293157801032, 12.207033455371857, 9.858376283198595, 0.6880000326782465, 0.7040000334382057, 0.3840000182390213, 0.0, 0.0, 0.0, 0.0, 0.0, 1.710395294176826E9, 0.0, 2024-03-13 22:48:14.176
12.0, 12.536144651472569, 7.614436309784651, 4.910488641820848, -0.80407849047333, 0.6880000326782465, 0.7040000334382057, 0.3840000182390213, 0.0, 0.0, 0.0, 0.0, 0.0, 1.7103952941925232E9, 0.0, 2024-03-13 22:48:14.192
12.0, 14.4883724283427, 9.443247388117015, 2.367356671951711, 3.908195453695953, 0.6880000326782465, 0.7040000334382057, 0.3840000182390213, 0.0, 0.0, 0.0, 0.0, 0.0, 1.7103952941925232E9, 0.0, 2024-03-13 22:48:14.192
13.0, 9.865856083109975, 8.45217389985919, 14.428534029051661, 11.178560967557132, 0.6880000326782465, 0.7040000334382057, 0.3840000182390213, 0.0, 0.0, 0.0, 0.0, 0.0, 1.7103952941933315E9, 0.0, 2024-03-13 22:48:14.193
13.0, 11.6722277617082, 8.934620994143188, 30.296929541043937, 15.543024215847254, 0.6880000326782465, 0.7040000334382057, 0.3840000182390213, 0.0, 0.0, 0.0, 0.0, 0.0, 1.7103952941933315E9, 0.0, 2024-03-13 22:48:14.193
14.0, 7.221746814437211, 2.1915813740342855, 25.876367793418467, 17.390534793958068, 0.6880000326782465, 0.7040000334382057, 0.3840000182390213, 0.0, 0.0, 0.0, 0.0, 0.0, 1.71039529420725E9, 0.0, 2024-03-13 22:48:14.207
14.0, 12.379068853333592, 9.375929188914597, 31.246864129789174, 17.588749491609633, 0.6880000326782465, 0.7040000334382057, 0.3840000182390213, 0.0, 0.0, 0.0, 0.0, 0.0, 1.71039529420725E9, 0.0, 2024-03-13 22:48:14.207
15.0, 10.767171972431242, 4.84317044261843, 34.2013850947842, 13.209326643496752, 0.6880000326782465, 0.7040000334382057, 0.3840000182390213, 0.0, 0.0, 0.0, 0.0, 0.0, 1.7103952942225506E9, 0.0, 2024-03-13 22:48:14.222
15.0, 8.119322803802788, -1.0546517875045538, 31.179545930586755, 12.607202750630677, 0.6880000326782465, 0.7040000334382057, 0.3840000182390213, 0.0, 0.0, 0.0, 0.0, 0.0, 1.7103952942225506E9, 0.0, 2024-03-13 22:48:14.222
16.0, 8.366156200878322, 7.509719111025333, 19.223085772246122, 10.08277028053999, 0.6880000326782465, 0.7040000334382057, 0.3840000182390213, 0.0, 0.0, 0.0, 0.0, 0.0, 1.710395294223216E9, 0.0, 2024-03-13 22:48:14.223
16.0, 5.7744055315852165, 3.418268559500575, 18.030057686381042, 9.944393982179463, 0.6880000326782465, 0.7040000334382057, 0.3840000182390213, 0.0, 0.0, 0.0, 0.0, 0.0, 1.710395294223216E9, 0.0, 2024-03-13 22:48:14.223
17.0, 12.274351654574275, 15.509365116246045, 31.474998027086258, 18.265671383589506, 0.6880000326782465, 0.7040000334382057, 0.3840000182390213, 0.0, 0.0, 0.0, 0.0, 0.0, 1.710395294236816E9, 0.0, 2024-03-13 22:48:14.236
17.0, 17.973959187045693, 25.191966101527214, 28.434459363110363, 30.58116193767637, 0.6880000326782465, 0.7040000334382057, 0.3840000182390213, 0.0, 0.0, 0.0, 0.0, 0.0, 1.710395294236816E9, 0.0, 2024-03-13 22:48:14.236
18.0, 31.41889952775091, 35.82076177559793, 47.21997684054077, 42.9452711911872, 0.6880000326782465, 0.7040000334382057, 0.3840000182390213, 0.0, 0.0, 0.0, 0.0, 0.0, 1.7103952942525897E9, 0.0, 2024-03-13 22:48:14.252
18.0, 24.10739511437714, 27.73883797135204, 43.44267788529396, 35.581408178433776, 0.6880000326782465, 0.7040000334382057, 0.3840000182390213, 0.0, 0.0, 0.0, 0.0, 0.0, 1.7103952942525897E9, 0.0, 2024-03-13 22:48:14.252
19.0, 20.54701035656035, 22.54785683285445, 26.658006884157658, 22.405740634538233, 0.6880000326782465, 0.7040000334382057, 0.3840000182390213, 0.0, 0.0, 0.0, 0.0, 0.0, 1.7103952942535388E9, 0.0, 2024-03-13 22:48:14.253
19.0, 22.267364336177707, 25.442539398558438, 18.06745668593794, 21.018237750977278, 0.6880000326782465, 0.7040000334382057, 0.3840000182390213, 0.0, 0.0, 0.0, 0.0, 0.0, 1.7103952942535388E9, 0.0, 2024-03-13 22:48:14.253
20.0, 23.78576371818781, 24.313089611940086, 19.084709473885596, 15.29993071872741, 0.6880000326782465, 0.7040000334382057, 0.3840000182390213, 0.0, 0.0, 0.0, 0.0, 0.0, 1.7103952942668395E9, 0.0, 2024-03-13 22:48:14.266
20.0, 21.541823744773865, 8.635428997687995, 6.066117728129029, 5.265779137611389, 0.6880000326782465, 0.7040000334382057, 0.3840000182390213, 0.0, 0.0, 0.0, 0.0, 0.0, 1.7103952942668395E9, 0.0, 2024-03-13 22:48:14.266
21.0, 15.782377813011408, 9.604063086211681, 4.259746049530804, 7.004832617007196, 0.6880000326782465, 0.7040000334382057, 0.3840000182390213, 0.0, 0.0, 0.0, 0.0, 0.0, 1.7103952942825277E9, 0.0, 2024-03-13 22:48:14.282
21.0, 10.613836074247956, 9.820977283641696, 3.3247710606083274, 0.9723739884793758, 0.6880000326782465, 0.7040000334382057, 0.3840000182390213, 0.0, 0.0, 0.0, 0.0, 0.0, 1.7103952942825277E9, 0.0, 2024-03-13 22:48:14.282
22.0, 6.7804386196658015, 3.4070488596335053, 6.099776827730238, -4.199907650239766, 0.6880000326782465, 0.7040000334382057, 0.3840000182390213, 0.0, 0.0, 0.0, 0.0, 0.0, 1.7103952942831779E9, 0.0, 2024-03-13 22:48:14.283
22.0, 1.5183993820101023, -0.9162754891440272, 11.922801058739424, -1.6231165807694197, 0.6880000326782465, 0.7040000334382057, 0.3840000182390213, 0.0, 0.0, 0.0, 0.0, 0.0, 1.7103952942831779E9, 0.0, 2024-03-13 22:48:14.283
23.0, 9.031858392991126, 10.969126570038497, 19.877568264491856, 14.858622523956, 0.6880000326782465, 0.7040000334382057, 0.3840000182390213, 0.0, 0.0, 0.0, 0.0, 0.0, 1.710395294296775E9, 0.0, 2024-03-13 22:48:14.296
23.0, 2.4309349711984396, 3.8745363540947437, 27.32744897622615, 12.293051154352725, 0.6880000326782465, 0.7040000334382057, 0.3840000182390213, 0.0, 0.0, 0.0, 0.0, 0.0, 1.710395294296775E9, 0.0, 2024-03-13 22:48:14.296
24.0, 4.656175444833934, 9.67512118536979, 29.77334354724735, 19.522277768701315, 0.6880000326782465, 0.7040000334382057, 0.3840000182390213, 0.0, 0.0, 0.0, 0.0, 0.0, 1.7103952943124497E9, 0.0, 2024-03-13 22:48:14.312
24.0, 16.44434010516852, 20.849942252971232, 28.864547858014703, 31.890126922167838, 0.6880000326782465, 0.7040000334382057, 0.3840000182390213, 0.0, 0.0, 0.0, 0.0, 0.0, 1.7103952943124497E9, 0.0, 2024-03-13 22:48:14.312
25.0, 14.716506325639784, 21.934513240121305, 35.248557082377374, 30.5325432382524, 0.6880000326782465, 0.7040000334382057, 0.3840000182390213, 0.0, 0.0, 0.0, 0.0, 0.0, 1.7103952943131747E9, 0.0, 2024-03-13 22:48:14.313
25.0, 19.589595967903733, 26.91232008114457, 34.9044862864539, 32.028503220528364, 0.6880000326782465, 0.7040000334382057, 0.3840000182390213, 0.0, 0.0, 0.0, 0.0, 0.0, 1.7103952943131747E9, 0.0, 2024-03-13 22:48:14.313
26.0, 32.776483211666346, 37.245663658715785, 41.37825310975313, 43.16218538861722, 0.6880000326782465, 0.7040000334382057, 0.3840000182390213, 0.0, 0.0, 0.0, 0.0, 0.0, 1.7103952943267767E9, 0.0, 2024-03-13 22:48:14.326
26.0, 26.781423582695425, 32.050942620262504, 40.080507825128734, 38.034782549366355, 0.6880000326782465, 0.7040000334382057, 0.3840000182390213, 0.0, 0.0, 0.0, 0.0, 0.0, 1.7103952943267767E9, 0.0, 2024-03-13 22:48:14.326
27.0, 22.016791039146483, 25.521077297627926, 36.28450937010348, 30.869134234264493, 0.6880000326782465, 0.7040000334382057, 0.3840000182390213, 0.0, 0.0, 0.0, 0.0, 0.0, 1.7103952943424764E9, 0.0, 2024-03-13 22:48:14.342
27.0, 27.40224697533995, 33.52820310276002, 31.074828731827438, 32.843801410868764, 0.6880000326782465, 0.7040000334382057, 0.3840000182390213, 0.0, 0.0, 0.0, 0.0, 0.0, 1.7103952943424764E9, 0.0, 2024-03-13 22:48:14.342
28.0, 33.85357439890504, 19.66065406706184, 34.33976139314473, 29.896760245785117, 0.6880000326782465, 0.7040000334382057, 0.3840000182390213, 0.0, 0.0, 0.0, 0.0, 0.0, 1.710395294343169E9, 0.0, 2024-03-13 22:48:14.343
28.0, 25.79408999439329, 23.28835702408105, 35.68986527714878, 23.434213122352958, 0.6880000326782465, 0.7040000334382057, 0.3840000182390213, 0.0, 0.0, 0.0, 0.0, 0.0, 1.710395294343169E9, 0.0, 2024-03-13 22:48:14.343
29.0, 21.3436090471223, 15.030657921917737, 13.321523642167449, 13.231766043230891, 0.6880000326782465, 0.7040000334382057, 0.3840000182390213, 0.0, 0.0, 0.0, 0.0, 0.0, 1.7103952943572645E9, 0.0, 2024-03-13 22:48:14.357
29.0, 22.645094231702387, 13.990965734235942, 5.905302030034363, 6.4475875236094, 0.6880000326782465, 0.7040000334382057, 0.3840000182390213, 0.0, 0.0, 0.0, 0.0, 0.0, 1.7103952943572645E9, 0.0, 2024-03-13 22:48:14.357
30.0, 7.438661011867225, 5.123662939295173, 6.481246623210609, -0.9050557892769575, 0.6880000326782465, 0.7040000334382057, 0.3840000182390213, 0.0, 0.0, 0.0, 0.0, 0.0, 1.710395294373479E9, 0.0, 2024-03-13 22:48:14.373
30.0, 7.218006914481521, 4.196167750284076, 11.855482859537005, 0.5497652934864163, 0.6880000326782465, 0.7040000334382057, 0.3840000182390213, 0.0, 0.0, 0.0, 0.0, 0.0, 1.710395294373479E9, 0.0, 2024-03-13 22:48:14.373
31.0, 11.361816065385938, 10.931727570481598, 12.005078857764602, 7.131989215500653, 0.6880000326782465, 0.7040000334382057, 0.3840000182390213, 0.0, 0.0, 0.0, 0.0, 0.0, 1.7103952943735657E9, 0.0, 2024-03-13 22:48:14.373
31.0, 13.803970736451447, 15.25879181921482, 25.476198498159647, 12.367849153466523, 0.6880000326782465, 0.7040000334382057, 0.3840000182390213, 0.0, 0.0, 0.0, 0.0, 0.0, 1.7103952943735657E9, 0.0, 2024-03-13 22:48:14.373
32.0, 25.139607502147555, 16.743532101623714, 26.485971486195922, 14.245278931222856, 0.6880000326782465, 0.7040000334382057, 0.3840000182390213, 0.0, 0.0, 0.0, 0.0, 0.0, 1.7103952943867865E9, 0.0, 2024-03-13 22:48:14.386
32.0, 26.025963791646063, 28.284863364882767, 30.53628313820809, 23.35567522328347, 0.6880000326782465, 0.7040000334382057, 0.3840000182390213, 0.0, 0.0, 0.0, 0.0, 0.0, 1.7103952943867865E9, 0.0, 2024-03-13 22:48:14.386
33.0, 26.52711038570851, 37.200784859247506, 45.39490566216409, 36.29572906997055, 0.6880000326782465, 0.7040000334382057, 0.3840000182390213, 0.0, 0.0, 0.0, 0.0, 0.0, 1.7103952944190888E9, 0.0, 2024-03-13 22:48:14.419
33.0, 32.14444011915475, 40.63027311861515, 59.47562899533659, 44.28789527527988, 0.6880000326782465, 0.7040000334382057, 0.3840000182390213, 0.0, 0.0, 0.0, 0.0, 0.0, 1.7103952944190888E9, 0.0, 2024-03-13 22:48:14.419
34.0, 35.05782218463719, 41.4268718091771, 46.80484794545919, 44.32155437488109, 0.6880000326782465, 0.7040000334382057, 0.3840000182390213, 0.0, 0.0, 0.0, 0.0, 0.0, 1.7103952944194884E9, 0.0, 2024-03-13 22:48:14.419
34.0, 39.93091182690114, 46.509395848959684, 44.901238868013024, 46.939484343864024, 0.6880000326782465, 0.7040000334382057, 0.3840000182390213, 0.0, 0.0, 0.0, 0.0, 0.0, 1.7103952944194884E9, 0.0, 2024-03-13 22:48:14.419
35.0, 30.016437044367194, 32.06964212004095, 44.65814537089318, 39.590580930933356, 0.6880000326782465, 0.7040000334382057, 0.3840000182390213, 0.0, 0.0, 0.0, 0.0, 0.0, 1.7103952944202864E9, 0.0, 2024-03-13 22:48:14.420
35.0, 24.855375105515122, 28.370881063863635, 34.26496339403093, 24.88529430516064, 0.6880000326782465, 0.7040000334382057, 0.3840000182390213, 0.0, 0.0, 0.0, 0.0, 0.0, 1.7103952944202864E9, 0.0, 2024-03-13 22:48:14.420
36.0, 23.830642517656088, 24.55618310905993, 36.65475946571678, 30.64848013687879, 0.6880000326782465, 0.7040000334382057, 0.3840000182390213, 0.0, 0.0, 0.0, 0.0, 0.0, 1.7103952944210548E9, 0.0, 2024-03-13 22:48:14.421
36.0, 31.34410152863711, 25.30042320024222, 40.046848725527525, 34.87830698676407, 0.6880000326782465, 0.7040000334382057, 0.3840000182390213, 0.0, 0.0, 0.0, 0.0, 0.0, 1.7103952944210548E9, 0.0, 2024-03-13 22:48:14.421
37.0, 25.72303189523518, 20.707826054655015, 31.80410922318697, 22.708672530949116, 0.6880000326782465, 0.7040000334382057, 0.3840000182390213, 0.0, 0.0, 0.0, 0.0, 0.0, 1.7103952944319484E9, 0.0, 2024-03-13 22:48:14.431
37.0, 21.631581343710423, 26.20173908956349, 16.54157750401646, 20.722785654477775, 0.6880000326782465, 0.7040000334382057, 0.3840000182390213, 0.0, 0.0, 0.0, 0.0, 0.0, 1.7103952944319484E9, 0.0, 2024-03-13 22:48:14.431
38.0, 22.13272793777287, 19.855128864757717, 19.080969573929906, 23.77454401832074, 0.6880000326782465, 0.7040000334382057, 0.3840000182390213, 0.0, 0.0, 0.0, 0.0, 0.0, 1.710395294446762E9, 0.0, 2024-03-13 22:48:14.446
38.0, 19.544717168435454, 17.510211592540145, 29.567649049684405, 21.160353949293494, 0.6880000326782465, 0.7040000334382057, 0.3840000182390213, 0.0, 0.0, 0.0, 0.0, 0.0, 1.710395294446762E9, 0.0, 2024-03-13 22:48:14.446
39.0, 18.310550183057785, 19.103408973664045, 22.843308929353952, 17.820623288862407, 0.6880000326782465, 0.7040000334382057, 0.3840000182390213, 0.0, 0.0, 0.0, 0.0, 0.0, 1.7103952944624736E9, 0.0, 2024-03-13 22:48:14.462
39.0, 15.29245091881603, 18.258191583678126, 14.742685625329614, 15.599122715182602, 0.6880000326782465, 0.7040000334382057, 0.3840000182390213, 0.0, 0.0, 0.0, 0.0, 0.0, 1.7103952944624736E9, 0.0, 2024-03-13 22:48:14.462
40.0, 28.11656786687672, 27.615421272814274, 32.08086181990802, 24.99749130383134, 0.6880000326782465, 0.7040000334382057, 0.3840000182390213, 0.0, 0.0, 0.0, 0.0, 0.0, 1.71039529446323E9, 0.0, 2024-03-13 22:48:14.463
40.0, 23.32949592359364, 21.070596350356936, 36.76321656443179, 27.570542473345995, 0.6880000326782465, 0.7040000334382057, 0.3840000182390213, 0.0, 0.0, 0.0, 0.0, 0.0, 1.71039529446323E9, 0.0, 2024-03-13 22:48:14.463
41.0, 28.460638662800193, 31.314182328991592, 27.693959171883762, 29.02536355610937, 0.6880000326782465, 0.7040000334382057, 0.3840000182390213, 0.0, 0.0, 0.0, 0.0, 0.0, 1.7103952944769924E9, 0.0, 2024-03-13 22:48:14.476
41.0, 30.356767940334976, 35.31961518153548, 31.43385912757367, 29.100161555223167, 0.6880000326782465, 0.7040000334382057, 0.3840000182390213, 0.0, 0.0, 0.0, 0.0, 0.0, 1.7103952944769924E9, 0.0, 2024-03-13 22:48:14.476
42.0, 26.803862982429564, 24.09243551455438, 30.61108113732189, 24.829195805825293, 0.6880000326782465, 0.7040000334382057, 0.3840000182390213, 0.0, 0.0, 0.0, 0.0, 0.0, 1.7103952944924903E9, 0.0, 2024-03-13 22:48:14.492
42.0, 24.773097306489944, 22.630134631879628, 29.975298144854605, 27.499484374187887, 0.6880000326782465, 0.7040000334382057, 0.3840000182390213, 0.0, 0.0, 0.0, 0.0, 0.0, 1.7103952944924903E9, 0.0, 2024-03-13 22:48:14.492
43.0, 38.812681740149856, 31.706871824339032, 43.34918038640171, 35.03164288494736, 0.6880000326782465, 0.7040000334382057, 0.3840000182390213, 0.0, 0.0, 0.0, 0.0, 0.0, 1.7103952944932206E9, 0.0, 2024-03-13 22:48:14.493
43.0, 27.933312769047916, 25.69685259554535, 39.265209634788334, 30.315629040822387, 0.6880000326782465, 0.7040000334382057, 0.3840000182390213, 0.0, 0.0, 0.0, 0.0, 0.0, 1.7103952944932206E9, 0.0, 2024-03-13 22:48:14.493
44.0, 27.00207768008113, 16.47425930481404, 37.34290105756372, 27.0132973799482, 0.6880000326782465, 0.7040000334382057, 0.3840000182390213, 0.0, 0.0, 0.0, 0.0, 0.0, 1.7103952945069532E9, 0.0, 2024-03-13 22:48:14.506
44.0, 46.64029234740883, 41.01174291409552, 43.72691028192639, 39.987010326236486, 0.6880000326782465, 0.7040000334382057, 0.3840000182390213, 0.0, 0.0, 0.0, 0.0, 0.0, 1.7103952945069532E9, 0.0, 2024-03-13 22:48:14.506
45.0, 38.1656790478155, 37.178345459513366, 46.78614844568074, 38.97723733820021, 0.6880000326782465, 0.7040000334382057, 0.3840000182390213, 0.0, 0.0, 0.0, 0.0, 0.0, 1.7103952945230584E9, 0.0, 2024-03-13 22:48:14.523
45.0, 32.772743311710656, 32.417452815920115, 48.97772981971502, 43.53617538418621, 0.6880000326782465, 0.7040000334382057, 0.3840000182390213, 0.0, 0.0, 0.0, 0.0, 0.0, 1.7103952945230584E9, 0.0, 2024-03-13 22:48:14.523
46.0, 48.17365132924169, 48.106333130039275, 47.45185063779354, 48.136252329684794, 0.6880000326782465, 0.7040000334382057, 0.3840000182390213, 0.0, 0.0, 0.0, 0.0, 0.0, 1.710395294523368E9, 0.0, 2024-03-13 22:48:14.523
46.0, 27.578022273257375, 31.314182328991592, 38.54340894334018, 31.284263129346073, 0.6880000326782465, 0.7040000334382057, 0.3840000182390213, 0.0, 0.0, 0.0, 0.0, 0.0, 1.710395294523368E9, 0.0, 2024-03-13 22:48:14.523
47.0, 33.02705650869757, 33.29258940555155, 38.12080024834722, 33.150473207235336, 0.6880000326782465, 0.7040000334382057, 0.3840000182390213, 0.0, 0.0, 0.0, 0.0, 0.0, 1.7103952945375044E9, 0.0, 2024-03-13 22:48:14.537
47.0, 33.81243549939245, 43.9101653797552, 37.31672175787389, 41.03418231382966, 0.6880000326782465, 0.7040000334382057, 0.3840000182390213, 0.0, 0.0, 0.0, 0.0, 0.0, 1.7103952945375044E9, 0.0, 2024-03-13 22:48:14.537
48.0, 47.676244635134935, 48.37186602689326, 46.95070404373109, 42.55258169583976, 0.6880000326782465, 0.7040000334382057, 0.3840000182390213, 0.0, 0.0, 0.0, 0.0, 0.0, 1.7103952945528395E9, 0.0, 2024-03-13 22:48:14.552
48.0, 43.97748357895762, 42.028995702043176, 52.22396298125386, 43.44641778524965, 0.6880000326782465, 0.7040000334382057, 0.3840000182390213, 0.0, 0.0, 0.0, 0.0, 0.0, 1.7103952945528395E9, 0.0, 2024-03-13 22:48:14.552
49.0, 42.088834101334214, 39.51578293181956, 40.009449725970626, 37.93380525056273, 0.6880000326782465, 0.7040000334382057, 0.3840000182390213, 0.0, 0.0, 0.0, 0.0, 0.0, 1.7103952945533316E9, 0.0, 2024-03-13 22:48:14.553
49.0, 47.84828003309667, 47.246156140230596, 44.29537507519126, 43.98870327882469, 0.6880000326782465, 0.7040000334382057, 0.3840000182390213, 0.0, 0.0, 0.0, 0.0, 0.0, 1.7103952945533316E9, 0.0, 2024-03-13 22:48:14.553
50.0, 44.063501277938485, 44.23179677594453, 47.89689873252064, 42.537622096017, 0.6880000326782465, 0.7040000334382057, 0.3840000182390213, 0.0, 0.0, 0.0, 0.0, 0.0, 1.7103952945673218E9, 0.0, 2024-03-13 22:48:14.567
50.0, 36.071335072629154, 37.245663658715785, 41.5016698082909, 31.979884521104395, 0.6880000326782465, 0.7040000334382057, 0.3840000182390213, 0.0, 0.0, 0.0, 0.0, 0.0, 1.7103952945673218E9, 0.0, 2024-03-13 22:48:14.567
51.0, 39.03707573749125, 43.84284718055278, 42.53014229610562, 42.9452711911872, 0.6880000326782465, 0.7040000334382057, 0.3840000182390213, 0.0, 0.0, 0.0, 0.0, 0.0, 1.7103952945825427E9, 0.0, 2024-03-13 22:48:14.582
51.0, 41.50540970824659, 42.28330889903009, 44.26171597559005, 38.21055784728378, 0.6880000326782465, 0.7040000334382057, 0.3840000182390213, 0.0, 0.0, 0.0, 0.0, 0.0, 1.7103952945825427E9, 0.0, 2024-03-13 22:48:14.582
52.0, 38.487310444004834, 31.0149903325364, 40.60783371888101, 28.262423965148628, 0.6880000326782465, 0.7040000334382057, 0.3840000182390213, 0.0, 0.0, 0.0, 0.0, 0.0, 1.7103952945832238E9, 0.0, 2024-03-13 22:48:14.583
52.0, 44.882539368234575, 43.648372382856905, 37.72437085304409, 36.72955746483058, 0.6880000326782465, 0.7040000334382057, 0.3840000182390213, 0.0, 0.0, 0.0, 0.0, 0.0, 1.7103952945832238E9, 0.0, 2024-03-13 22:48:14.583
53.0, 50.948657096363604, 50.129619006067514, 43.88024618010968, 46.33736045099795, 0.6880000326782465, 0.7040000334382057, 0.3840000182390213, 0.0, 0.0, 0.0, 0.0, 0.0, 1.7103952945968225E9, 0.0, 2024-03-13 22:48:14.596
53.0, 43.54365518409759, 46.00450935494155, 49.77806841023266, 42.058914901688695, 0.6880000326782465, 0.7040000334382057, 0.3840000182390213, 0.0, 0.0, 0.0, 0.0, 0.0, 1.7103952945968225E9, 0.0, 2024-03-13 22:48:14.596
54.0, 47.00306264311075, 43.12104648910463, 34.65017308946699, 39.283909134566784, 0.6880000326782465, 0.7040000334382057, 0.3840000182390213, 0.0, 0.0, 0.0, 0.0, 0.0, 1.7103952946125112E9, 0.0, 2024-03-13 22:48:14.612
54.0, 53.48056936636567, 52.568033777177334, 47.90437853243202, 48.110073029994965, 0.6880000326782465, 0.7040000334382057, 0.3840000182390213, 0.0, 0.0, 0.0, 0.0, 0.0, 1.7103952946125112E9, 0.0, 2024-03-13 22:48:14.612
55.0, 49.58733351249248, 47.3920122385025, 53.14397837035358, 51.5433011893183, 0.6880000326782465, 0.7040000334382057, 0.3840000182390213, 0.0, 0.0, 0.0, 0.0, 0.0, 1.7103952946132588E9, 0.0, 2024-03-13 22:48:14.613
55.0, 43.4277182854712, 43.00884949043393, 48.26340892817825, 47.3546132389456, 0.6880000326782465, 0.7040000334382057, 0.3840000182390213, 0.0, 0.0, 0.0, 0.0, 0.0, 1.7103952946132588E9, 0.0, 2024-03-13 22:48:14.613
56.0, 42.77323579322547, 53.768541662953794, 45.81751435715705, 47.04794144257903, 0.6880000326782465, 0.7040000334382057, 0.3840000182390213, 0.0, 0.0, 0.0, 0.0, 0.0, 1.7103952946268153E9, 0.0, 2024-03-13 22:48:14.626
56.0, 33.606741001829505, 35.618807177990675, 40.420838721096516, 36.17231237143278, 0.6880000326782465, 0.7040000334382057, 0.3840000182390213, 0.0, 0.0, 0.0, 0.0, 0.0, 1.7103952946268153E9, 0.0, 2024-03-13 22:48:14.626
57.0, 27.02451707981527, 24.705779107287526, 29.227318153716624, 20.719045754522085, 0.6880000326782465, 0.7040000334382057, 0.3840000182390213, 0.0, 0.0, 0.0, 0.0, 0.0, 1.710395294642598E9, 0.0, 2024-03-13 22:48:14.642
57.0, 20.808803353458643, 21.36978834681213, 23.078922626562417, 20.07578296214342, 0.6880000326782465, 0.7040000334382057, 0.3840000182390213, 0.0, 0.0, 0.0, 0.0, 0.0, 1.710395294642598E9, 0.0, 2024-03-13 22:48:14.642
58.0, 31.4600384272635, 34.21634469460696, 33.69275870081037, 30.472704838961363, 0.6880000326782465, 0.7040000334382057, 0.3840000182390213, 0.0, 0.0, 0.0, 0.0, 0.0, 1.710395294643225E9, 0.0, 2024-03-13 22:48:14.643
58.0, 34.15276639536023, 30.401646739803255, 46.32240085117519, 30.95515193324536, 0.6880000326782465, 0.7040000334382057, 0.3840000182390213, 0.0, 0.0, 0.0, 0.0, 0.0, 1.710395294643225E9, 0.0, 2024-03-13 22:48:14.643
59.0, 33.4608849035576, 31.86394762247801, 45.682877958752215, 32.21923811826855, 0.6880000326782465, 0.7040000334382057, 0.3840000182390213, 0.0, 0.0, 0.0, 0.0, 0.0, 1.7103952946571898E9, 0.0, 2024-03-13 22:48:14.657
59.0, 40.413358921185136, 40.880846415646374, 45.37620616238564, 40.880846415646374, 0.6880000326782465, 0.7040000334382057, 0.3840000182390213, 0.0, 0.0, 0.0, 0.0, 0.0, 1.7103952946571898E9, 0.0, 2024-03-13 22:48:14.657
60.0, 35.671165777370334, 37.7206309530884, 50.533528201282024, 37.197044959291816, 0.6880000326782465, 0.7040000334382057, 0.3840000182390213, 0.0, 0.0, 0.0, 0.0, 0.0, 1.7103952946727982E9, 0.0, 2024-03-13 22:48:14.672
60.0, 30.476444738917053, 37.45509805623442, 46.66647164709866, 35.43181218020618, 0.6880000326782465, 0.7040000334382057, 0.3840000182390213, 0.0, 0.0, 0.0, 0.0, 0.0, 1.7103952946727982E9, 0.0, 2024-03-13 22:48:14.672
61.0, 47.10777984187007, 44.863839868456125, 46.1690649529919, 46.483216549269855, 0.6880000326782465, 0.7040000334382057, 0.3840000182390213, 0.0, 0.0, 0.0, 0.0, 0.0, 1.710395294673408E9, 0.0, 2024-03-13 22:48:14.673
61.0, 27.495744474232197, 26.878660981543362, 38.15071944799274, 22.92184682842344, 0.6880000326782465, 0.7040000334382057, 0.3840000182390213, 0.0, 0.0, 0.0, 0.0, 0.0, 1.710395294673408E9, 0.0, 2024-03-13 22:48:14.673
62.0, 26.725325083360076, 17.626148491166532, 35.652466277591884, 16.747272001579404, 0.6880000326782465, 0.7040000334382057, 0.3840000182390213, 0.0, 0.0, 0.0, 0.0, 0.0, 1.7103952946872272E9, 0.0, 2024-03-13 22:48:14.687
62.0, 17.813143488951027, 20.52457095682621, 18.003878386691213, 15.430827217176557, 0.6880000326782465, 0.7040000334382057, 0.3840000182390213, 0.0, 0.0, 0.0, 0.0, 0.0, 1.7103952946872272E9, 0.0, 2024-03-13 22:48:14.687
63.0, 30.64848013687879, 28.397060363553464, 30.54002303816378, 26.471011886373162, 0.6880000326782465, 0.7040000334382057, 0.3840000182390213, 0.0, 0.0, 0.0, 0.0, 0.0, 1.710395294702814E9, 0.0, 2024-03-13 22:48:14.702
63.0, 20.812543253414333, 15.939453611150384, 34.365940692834556, 22.798430129885674, 0.6880000326782465, 0.7040000334382057, 0.3840000182390213, 0.0, 0.0, 0.0, 0.0, 0.0, 1.710395294702814E9, 0.0, 2024-03-13 22:48:14.702
64.0, 11.728326261043549, 9.701300485059619, 29.477891450747848, 20.786363953724504, 0.6880000326782465, 0.7040000334382057, 0.3840000182390213, 0.0, 0.0, 0.0, 0.0, 0.0, 1.7103952947033997E9, 0.0, 2024-03-13 22:48:14.703
64.0, 19.866348564624786, 18.13477488514036, 30.59612153749913, 29.35447475221008, 0.6880000326782465, 0.7040000334382057, 0.3840000182390213, 0.0, 0.0, 0.0, 0.0, 0.0, 1.7103952947033997E9, 0.0, 2024-03-13 22:48:14.703
65.0, 14.671627526171505, 9.547964586876333, 27.462085374630988, 19.129588273353875, 0.6880000326782465, 0.7040000334382057, 0.3840000182390213, 0.0, 0.0, 0.0, 0.0, 0.0, 1.7103952947168088E9, 0.0, 2024-03-13 22:48:14.716
65.0, 21.31742974743247, 24.069996114820242, 37.06614846084267, 25.498637897893786, 0.6880000326782465, 0.7040000334382057, 0.3840000182390213, 0.0, 0.0, 0.0, 0.0, 0.0, 1.7103952947168088E9, 0.0, 2024-03-13 22:48:14.716
66.0, 23.497791421599686, 20.47221235744655, 32.55582911428064, 24.780577106401324, 0.6880000326782465, 0.7040000334382057, 0.3840000182390213, 0.0, 0.0, 0.0, 0.0, 0.0, 1.7103952947324884E9, 0.0, 2024-03-13 22:48:14.732
66.0, 28.62893416080624, 25.248064600862563, 33.86105419881642, 24.56366290897131, 0.6880000326782465, 0.7040000334382057, 0.3840000182390213, 0.0, 0.0, 0.0, 0.0, 0.0, 1.7103952947324884E9, 0.0, 2024-03-13 22:48:14.732
67.0, 27.499484374187887, 23.76706421840936, 34.23130429442972, 24.769357406534255, 0.6880000326782465, 0.7040000334382057, 0.3840000182390213, 0.0, 0.0, 0.0, 0.0, 0.0, 1.710395294733224E9, 0.0, 2024-03-13 22:48:14.733
67.0, 34.11910729575902, 30.60360133741051, 33.0532358083874, 27.955752168782055, 0.6880000326782465, 0.7040000334382057, 0.3840000182390213, 0.0, 0.0, 0.0, 0.0, 0.0, 1.710395294733224E9, 0.0, 2024-03-13 22:48:14.733
68.0, 25.229365101084113, 31.531096526421607, 38.59950744267553, 32.24167751800269, 0.6880000326782465, 0.7040000334382057, 0.3840000182390213, 0.0, 0.0, 0.0, 0.0, 0.0, 1.7103952947468588E9, 0.0, 2024-03-13 22:48:14.746
68.0, 23.176160025410354, 21.38474794663489, 39.80749512836337, 27.40972677525133, 0.6880000326782465, 0.7040000334382057, 0.3840000182390213, 0.0, 0.0, 0.0, 0.0, 0.0, 1.7103952947468588E9, 0.0, 2024-03-13 22:48:14.746
69.0, 21.627841443754733, 15.71505961380899, 27.33866867609322, 24.713258907198906, 0.6880000326782465, 0.7040000334382057, 0.3840000182390213, 0.0, 0.0, 0.0, 0.0, 0.0, 1.7103952947624855E9, 0.0, 2024-03-13 22:48:14.762
69.0, 35.87686027493328, 28.243724465370178, 25.76043089479208, 23.7147056190297, 0.6880000326782465, 0.7040000334382057, 0.3840000182390213, 0.0, 0.0, 0.0, 0.0, 0.0, 1.7103952947624855E9, 0.0, 2024-03-13 22:48:14.762
70.0, 24.18219311349094, 22.641354331746697, 30.083755243569613, 20.790103853680193, 0.6880000326782465, 0.7040000334382057, 0.3840000182390213, 0.0, 0.0, 0.0, 0.0, 0.0, 1.7103952947632139E9, 0.0, 2024-03-13 22:48:14.763
70.0, 22.660053831525147, 20.692866454832256, 24.832935705780983, 18.14225468505174, 0.6880000326782465, 0.7040000334382057, 0.3840000182390213, 0.0, 0.0, 0.0, 0.0, 0.0, 1.7103952947632139E9, 0.0, 2024-03-13 22:48:14.763
71.0, 31.916306221857667, 27.00581758003682, 15.744978813454509, 20.255298160016537, 0.6880000326782465, 0.7040000334382057, 0.3840000182390213, 0.0, 0.0, 0.0, 0.0, 0.0, 1.7103952947768235E9, 0.0, 2024-03-13 22:48:14.776
71.0, 17.973959187045693, 17.70094649028033, 21.36978834681213, 21.156614049337804, 0.6880000326782465, 0.7040000334382057, 0.3840000182390213, 0.0, 0.0, 0.0, 0.0, 0.0, 1.7103952947768235E9, 0.0, 2024-03-13 22:48:14.776
72.0, 20.816283153370023, 14.787564424797893, 22.233705236576498, 16.795890701003373, 0.6880000326782465, 0.7040000334382057, 0.3840000182390213, 0.0, 0.0, 0.0, 0.0, 0.0, 1.7103952947926695E9, 0.0, 2024-03-13 22:48:14.792
72.0, 19.436260069720447, 14.230319331400096, 18.710719478316605, 19.103408973664045, 0.6880000326782465, 0.7040000334382057, 0.3840000182390213, 0.0, 0.0, 0.0, 0.0, 0.0, 1.7103952947926695E9, 0.0, 2024-03-13 22:48:14.792
73.0, 30.476444738917053, 31.575975325889885, 36.864193863235414, 36.456544768065214, 0.6880000326782465, 0.7040000334382057, 0.3840000182390213, 0.0, 0.0, 0.0, 0.0, 0.0, 1.7103952947932732E9, 0.0, 2024-03-13 22:48:14.793
73.0, 28.318522464483976, 22.248664836399257, 48.30454782769084, 33.621700601652265, 0.6880000326782465, 0.7040000334382057, 0.3840000182390213, 0.0, 0.0, 0.0, 0.0, 0.0, 1.7103952947932732E9, 0.0, 2024-03-13 22:48:14.793
74.0, 29.163739854469895, 23.34071562346071, 33.67405920103192, 32.98591760918498, 0.6880000326782465, 0.7040000334382057, 0.3840000182390213, 0.0, 0.0, 0.0, 0.0, 0.0, 1.7103952948072207E9, 0.0, 2024-03-13 22:48:14.807
74.0, 27.903393569402397, 31.534836426377296, 51.79387448634952, 41.37077330984175, 0.6880000326782465, 0.7040000334382057, 0.3840000182390213, 0.0, 0.0, 0.0, 0.0, 0.0, 1.7103952948072207E9, 0.0, 2024-03-13 22:48:14.807
75.0, 18.374128482304513, 10.684894173406065, 46.32988065108657, 31.190765630453825, 0.6880000326782465, 0.7040000334382057, 0.3840000182390213, 0.0, 0.0, 0.0, 0.0, 0.0, 1.7103952948227267E9, 0.0, 2024-03-13 22:48:14.822
75.0, 14.286417830735445, 14.682847226038575, 32.16687951888889, 18.419007281772792, 0.6880000326782465, 0.7040000334382057, 0.3840000182390213, 0.0, 0.0, 0.0, 0.0, 0.0, 1.7103952948227267E9, 0.0, 2024-03-13 22:48:14.822
76.0, 21.37352824676782, 23.00786452740431, 32.55582911428064, 24.08121581468731, 0.6880000326782465, 0.7040000334382057, 0.3840000182390213, 0.0, 0.0, 0.0, 0.0, 0.0, 1.7103952948233578E9, 0.0, 2024-03-13 22:48:14.823
76.0, 14.540731027722359, 13.018591745756567, 34.66513268928975, 21.455806045792997, 0.6880000326782465, 0.7040000334382057, 0.3840000182390213, 0.0, 0.0, 0.0, 0.0, 0.0, 1.7103952948233578E9, 0.0, 2024-03-13 22:48:14.823
77.0, 20.16928046103567, 15.879615211859345, 46.457037249580026, 26.340115387924016, 0.6880000326782465, 0.7040000334382057, 0.3840000182390213, 0.0, 0.0, 0.0, 0.0, 0.0, 1.7103952948368332E9, 0.0, 2024-03-13 22:48:14.836
77.0, 16.399461305700243, 20.18797996081412, 31.42637932766229, 23.69226621929556, 0.6880000326782465, 0.7040000334382057, 0.3840000182390213, 0.0, 0.0, 0.0, 0.0, 0.0, 1.7103952948368332E9, 0.0, 2024-03-13 22:48:14.836
78.0, 17.218499395996332, 13.789011136628687, 32.413712915964425, 26.22417848929763, 0.6880000326782465, 0.7040000334382057, 0.3840000182390213, 0.0, 0.0, 0.0, 0.0, 0.0, 1.7103952948524983E9, 0.0, 2024-03-13 22:48:14.852
78.0, 20.09448246192187, 12.670781049877405, 39.37366673350334, 27.076875679194927, 0.6880000326782465, 0.7040000334382057, 0.3840000182390213, 0.0, 0.0, 0.0, 0.0, 0.0, 1.7103952948524983E9, 0.0, 2024-03-13 22:48:14.852
79.0, 22.357121935114264, 17.2671180954203, 28.352181564085186, 21.28003074787557, 0.6880000326782465, 0.7040000334382057, 0.3840000182390213, 0.0, 0.0, 0.0, 0.0, 0.0, 1.7103952948532078E9, 0.0, 2024-03-13 22:48:14.853
79.0, 27.465825274586678, 22.88444782886654, 33.595521301962435, 24.758137706667185, 0.6880000326782465, 0.7040000334382057, 0.3840000182390213, 0.0, 0.0, 0.0, 0.0, 0.0, 1.7103952948532078E9, 0.0, 2024-03-13 22:48:14.853
80.0, 28.161446666345, 18.632181579247117, 32.2753366176039, 20.719045754522085, 0.6880000326782465, 0.7040000334382057, 0.3840000182390213, 0.0, 0.0, 0.0, 0.0, 0.0, 1.7103952948670676E9, 0.0, 2024-03-13 22:48:14.867
80.0, 26.257837588898838, 22.768510930240154, 28.389580563642085, 22.046710238792002, 0.6880000326782465, 0.7040000334382057, 0.3840000182390213, 0.0, 0.0, 0.0, 0.0, 0.0, 1.7103952948670676E9, 0.0, 2024-03-13 22:48:14.867
81.0, 32.24541741795838, 24.705779107287526, 31.36654092837125, 31.669472824782133, 0.6880000326782465, 0.7040000334382057, 0.3840000182390213, 0.0, 0.0, 0.0, 0.0, 0.0, 1.7103952948824923E9, 0.0, 2024-03-13 22:48:14.882
81.0, 42.38428619783372, 43.58853398356587, 54.66237775236368, 48.70471712294966, 0.6880000326782465, 0.7040000334382057, 0.3840000182390213, 0.0, 0.0, 0.0, 0.0, 0.0, 1.7103952948824923E9, 0.0, 2024-03-13 22:48:14.882
82.0, 32.14070021919906, 31.0149903325364, 52.35111957974732, 40.61905341874808, 0.6880000326782465, 0.7040000334382057, 0.3840000182390213, 0.0, 0.0, 0.0, 0.0, 0.0, 1.7103952948832064E9, 0.0, 2024-03-13 22:48:14.883
82.0, 35.36449398100376, 37.35412075743079, 40.77986911684275, 41.09776061307639, 0.6880000326782465, 0.7040000334382057, 0.3840000182390213, 0.0, 0.0, 0.0, 0.0, 0.0, 1.7103952948832064E9, 0.0, 2024-03-13 22:48:14.883
83.0, 43.13974598888308, 48.80569442175329, 48.78325502201915, 52.246402380988, 0.6880000326782465, 0.7040000334382057, 0.3840000182390213, 0.0, 0.0, 0.0, 0.0, 0.0, 1.710395294897034E9, 0.0, 2024-03-13 22:48:14.897
83.0, 29.85188144631684, 32.6081877136603, 45.286448563449085, 40.60409381892532, 0.6880000326782465, 0.7040000334382057, 0.3840000182390213, 0.0, 0.0, 0.0, 0.0, 0.0, 1.710395294897034E9, 0.0, 2024-03-13 22:48:14.897
84.0, 27.877214269712567, 24.92643320467323, 38.072181548923254, 30.835475134663284, 0.6880000326782465, 0.7040000334382057, 0.3840000182390213, 0.0, 0.0, 0.0, 0.0, 0.0, 1.7103952949124975E9, 0.0, 2024-03-13 22:48:14.912
84.0, 23.269657524302602, 23.213559024967253, 41.96541740279645, 35.229857582598925, 0.6880000326782465, 0.7040000334382057, 0.3840000182390213, 0.0, 0.0, 0.0, 0.0, 0.0, 1.7103952949124975E9, 0.0, 2024-03-13 22:48:14.912
85.0, 21.829796041361988, 17.29329739511013, 36.18727197125554, 29.896760245785117, 0.6880000326782465, 0.7040000334382057, 0.3840000182390213, 0.0, 0.0, 0.0, 0.0, 0.0, 1.7103952949132063E9, 0.0, 2024-03-13 22:48:14.913
85.0, 23.38933432288468, 21.826056141406298, 43.55861478392035, 31.03368983231485, 0.6880000326782465, 0.7040000334382057, 0.3840000182390213, 0.0, 0.0, 0.0, 0.0, 0.0, 1.7103952949132063E9, 0.0, 2024-03-13 22:48:14.913
86.0, 28.404540163464844, 28.53917656186968, 41.85696030408144, 38.74536354094744, 0.6880000326782465, 0.7040000334382057, 0.3840000182390213, 0.0, 0.0, 0.0, 0.0, 0.0, 1.7103952949268095E9, 0.0, 2024-03-13 22:48:14.926
86.0, 23.243478224612772, 16.792150801047683, 40.11042702477425, 29.72098494786769, 0.6880000326782465, 0.7040000334382057, 0.3840000182390213, 0.0, 0.0, 0.0, 0.0, 0.0, 1.7103952949268095E9, 0.0, 2024-03-13 22:48:14.926
87.0, 15.352289318107069, 14.06202383339405, 38.476090744137764, 25.77539049461484, 0.6880000326782465, 0.7040000334382057, 0.3840000182390213, 0.0, 0.0, 0.0, 0.0, 0.0, 1.7103952949424915E9, 0.0, 2024-03-13 22:48:14.942
87.0, 15.935713711194694, 21.467025745660067, 26.52337048575282, 25.240584800951183, 0.6880000326782465, 0.7040000334382057, 0.3840000182390213, 0.0, 0.0, 0.0, 0.0, 0.0, 1.7103952949424915E9, 0.0, 2024-03-13 22:48:14.942
88.0, 34.19016539491713, 34.48561749141663, 44.2430164758116, 33.976991097442806, 0.6880000326782465, 0.7040000334382057, 0.3840000182390213, 0.0, 0.0, 0.0, 0.0, 0.0, 1.7103952949432037E9, 0.0, 2024-03-13 22:48:14.943
88.0, 24.249511312693357, 28.98796455655247, 41.77094260510057, 29.541469749994576, 0.6880000326782465, 0.7040000334382057, 0.3840000182390213, 0.0, 0.0, 0.0, 0.0, 0.0, 1.7103952949432037E9, 0.0, 2024-03-13 22:48:14.943
89.0, 26.53459018561989, 20.99579835124314, 29.051542855799198, 21.433366646058857, 0.6880000326782465, 0.7040000334382057, 0.3840000182390213, 0.0, 0.0, 0.0, 0.0, 0.0, 1.7103952949568484E9, 0.0, 2024-03-13 22:48:14.956
89.0, 21.912073840387166, 20.270257759839296, 21.29873024765402, 21.68393994309008, 0.6880000326782465, 0.7040000334382057, 0.3840000182390213, 0.0, 0.0, 0.0, 0.0, 0.0, 1.7103952949568484E9, 0.0, 2024-03-13 22:48:14.956
90.0, 23.097622126340866, 24.040076915174723, 27.82485567033291, 20.87986145261675, 0.6880000326782465, 0.7040000334382057, 0.3840000182390213, 0.0, 0.0, 0.0, 0.0, 0.0, 1.7103952949724836E9, 0.0, 2024-03-13 22:48:14.972
90.0, 24.57488260883838, 20.46099265757948, 30.401646739803255, 26.18303958978504, 0.6880000326782465, 0.7040000334382057, 0.3840000182390213, 0.0, 0.0, 0.0, 0.0, 0.0, 1.7103952949724836E9, 0.0, 2024-03-13 22:48:14.972
91.0, 15.251312019303441, 12.835336647927761, 18.14599458500743, 21.818576341494918, 0.6880000326782465, 0.7040000334382057, 0.3840000182390213, 0.0, 0.0, 0.0, 0.0, 0.0, 1.7103952949731736E9, 0.0, 2024-03-13 22:48:14.973
91.0, 20.752704854123294, 19.107148873619735, 27.540623273700476, 24.451465910300612, 0.6880000326782465, 0.7040000334382057, 0.3840000182390213, 0.0, 0.0, 0.0, 0.0, 0.0, 1.7103952949731736E9, 0.0, 2024-03-13 22:48:14.973
92.0, 15.801077312789857, 14.226579431444407, 30.58116193767637, 17.31947669479996, 0.6880000326782465, 0.7040000334382057, 0.3840000182390213, 0.0, 0.0, 0.0, 0.0, 0.0, 1.710395294986791E9, 0.0, 2024-03-13 22:48:14.986
92.0, 15.909534411504865, 19.451219669543207, 25.954905692487955, 23.69600611925125, 0.6880000326782465, 0.7040000334382057, 0.3840000182390213, 0.0, 0.0, 0.0, 0.0, 0.0, 1.710395294986791E9, 0.0, 2024-03-13 22:48:14.986
93.0, 15.561723715625703, 16.661254302598536, 30.1248941430822, 17.24467869568616, 0.6880000326782465, 0.7040000334382057, 0.3840000182390213, 0.0, 0.0, 0.0, 0.0, 0.0, 1.7103952950024643E9, 0.0, 2024-03-13 22:48:15.002
93.0, 20.015944562852383, 13.598276238888502, 28.92812615726143, 18.602262379601598, 0.6880000326782465, 0.7040000334382057, 0.3840000182390213, 0.0, 0.0, 0.0, 0.0, 0.0, 1.7103952950024643E9, 0.0, 2024-03-13 22:48:15.002
94.0, 23.72966521885246, 16.754751801490784, 31.613374325446784, 20.300176959484816, 0.6880000326782465, 0.7040000334382057, 0.3840000182390213, 0.0, 0.0, 0.0, 0.0, 0.0, 1.7103952950032032E9, 0.0, 2024-03-13 22:48:15.003
94.0, 26.818822582252324, 18.87153517641127, 26.426133086904883, 21.74751824233681, 0.6880000326782465, 0.7040000334382057, 0.3840000182390213, 0.0, 0.0, 0.0, 0.0, 0.0, 1.7103952950032032E9, 0.0, 2024-03-13 22:48:15.003
95.0, 31.220684830099344, 18.50128508079797, 27.091835279017687, 18.935113475658, 0.6880000326782465, 0.7040000334382057, 0.3840000182390213, 0.0, 0.0, 0.0, 0.0, 0.0, 1.710395295017206E9, 0.0, 2024-03-13 22:48:15.017
95.0, 22.18134663719684, 14.701546725817025, 21.070596350356936, 15.68514041416347, 0.6880000326782465, 0.7040000334382057, 0.3840000182390213, 0.0, 0.0, 0.0, 0.0, 0.0, 1.710395295017206E9, 0.0, 2024-03-13 22:48:15.017
96.0, 19.125848373398185, 18.4900653809309, 13.242985743097961, 15.602862615138292, 0.6880000326782465, 0.7040000334382057, 0.3840000182390213, 0.0, 0.0, 0.0, 0.0, 0.0, 1.710395295033118E9, 0.0, 2024-03-13 22:48:15.033
96.0, 16.014251610264182, 12.839076547883451, 18.53868408035487, 15.457006516866386, 0.6880000326782465, 0.7040000334382057, 0.3840000182390213, 0.0, 0.0, 0.0, 0.0, 0.0, 1.710395295033118E9, 0.0, 2024-03-13 22:48:15.033
97.0, 14.679107326082885, 16.56027700379491, 21.568003044463694, 10.408141576685011, 0.6880000326782465, 0.7040000334382057, 0.3840000182390213, 0.0, 0.0, 0.0, 0.0, 0.0, 1.7103952950333428E9, 0.0, 2024-03-13 22:48:15.033
97.0, 15.658961114473641, 17.850542488507926, 6.922554817982018, 7.5845171101391315, 0.6880000326782465, 0.7040000334382057, 0.3840000182390213, 0.0, 0.0, 0.0, 0.0, 0.0, 1.7103952950333428E9, 0.0, 2024-03-13 22:48:15.033
98.0, 24.21211231313646, 22.8994074286893, 18.347949182614684, 14.151781432330608, 0.6880000326782465, 0.7040000334382057, 0.3840000182390213, 0.0, 0.0, 0.0, 0.0, 0.0, 1.710395295046805E9, 0.0, 2024-03-13 22:48:15.046
98.0, 26.702885683625937, 17.065163497813046, 25.221885301172733, 15.610342415049672, 0.6880000326782465, 0.7040000334382057, 0.3840000182390213, 0.0, 0.0, 0.0, 0.0, 0.0, 1.710395295046805E9, 0.0, 2024-03-13 22:48:15.046
99.0, 24.08869561459869, 15.146594820544124, 20.16928046103567, 13.785271236672997, 0.6880000326782465, 0.7040000334382057, 0.3840000182390213, 0.0, 0.0, 0.0, 0.0, 0.0, 1.710395295062811E9, 0.0, 2024-03-13 22:48:15.062
99.0, 16.773451301269233, 23.673566719517112, 23.512751021422446, 22.09532893821597, 0.6880000326782465, 0.7040000334382057, 0.3840000182390213, 0.0, 0.0, 0.0, 0.0, 0.0, 1.710395295062811E9, 0.0, 2024-03-13 22:48:15.062
100.0, 29.922939545474946, 23.883001117035747, 37.76550975255668, 29.926679445430636, 0.6880000326782465, 0.7040000334382057, 0.3840000182390213, 0.0, 0.0, 0.0, 0.0, 0.0, 1.7103952950632844E9, 0.0, 2024-03-13 22:48:15.063
100.0, 22.387041134759784, 25.7155520953238, 29.159999954514205, 24.313089611940086, 0.6880000326782465, 0.7040000334382057, 0.3840000182390213, 0.0, 0.0, 0.0, 0.0, 0.0, 1.7103952950632844E9, 0.0, 2024-03-13 22:48:15.063
0.0, -844.0299717499875, -472.02399310749024, -549.2716266922653, -524.8968287310563, 0.6880000326782465, 0.7040000334382057, 0.3840000182390213, 0.0, 0.0, 0.0, 0.0, 0.0, 1.7103952950775084E9, 0.0, 2024-03-13 22:48:15.077
1.0, -848.0989829017781, -477.16635554656386, -545.2736736396328, -530.6375751630403, 0.6880000326782465, 0.7040000334382057, 0.3840000182390213, 0.0, 0.0, 0.0, 0.0, 0.0, 1.7103952950782547E9, 0.0, 2024-03-13 22:48:15.078
1.0, -845.9821995268576, -472.6971750995144, -545.2213150402531, -530.9330272595398, 0.6880000326782465, 0.7040000334382057, 0.3840000182390213, 0.0, 0.0, 0.0, 0.0, 0.0, 1.7103952950782547E9, 0.0, 2024-03-13 22:48:15.078
2.0, -851.2816377640702, -474.21183458156884, -553.4191757431254, -528.6180291869678, 0.6880000326782465, 0.7040000334382057, 0.3840000182390213, 0.0, 0.0, 0.0, 0.0, 0.0, 1.710395295092138E9, 0.0, 2024-03-13 22:48:15.092
2.0, -847.448240309488, -474.98973377235234, -557.5330656943843, -526.1870942157693, 0.6880000326782465, 0.7040000334382057, 0.3840000182390213, 0.0, 0.0, 0.0, 0.0, 0.0, 1.710395295092138E9, 0.0, 2024-03-13 22:48:15.092
3.0, -848.4318339978345, -476.4034159556031, -541.6384908827022, -521.680514769163, 0.6880000326782465, 0.7040000334382057, 0.3840000182390213, 0.0, 0.0, 0.0, 0.0, 0.0, 1.7103952951077933E9, 0.0, 2024-03-13 22:48:15.107
3.0, -847.2350660120137, -468.9610150437802, -543.9011303558946, -522.0283254650421, 0.6880000326782465, 0.7040000334382057, 0.3840000182390213, 0.0, 0.0, 0.0, 0.0, 0.0, 1.7103952951077933E9, 0.0, 2024-03-13 22:48:15.107
4.0, -850.7206527707167, -468.16067645326257, -547.9028233084828, -521.5009995712899, 0.6880000326782465, 0.7040000334382057, 0.3840000182390213, 0.0, 0.0, 0.0, 0.0, 0.0, 1.7103952951085365E9, 0.0, 2024-03-13 22:48:15.108
4.0, -853.8023303342052, -476.50065335445106, -546.3769441265613, -531.8979214481078, 0.6880000326782465, 0.7040000334382057, 0.3840000182390213, 0.0, 0.0, 0.0, 0.0, 0.0, 1.7103952951085365E9, 0.0, 2024-03-13 22:48:15.108
5.0, -853.346062539611, -476.79984535090625, -549.7989525860175, -524.249826038722, 0.6880000326782465, 0.7040000334382057, 0.3840000182390213, 0.0, 0.0, 0.0, 0.0, 0.0, 1.710395295121788E9, 0.0, 2024-03-13 22:48:15.121
5.0, -852.7588982465677, -482.95572067797184, -561.3402838492766, -531.9390603476204, 0.6880000326782465, 0.7040000334382057, 0.3840000182390213, 0.0, 0.0, 0.0, 0.0, 0.0, 1.710395295121788E9, 0.0, 2024-03-13 22:48:15.121
6.0, -846.6516416189261, -476.39967605564743, -557.282492397353, -528.8312034844421, 0.6880000326782465, 0.7040000334382057, 0.3840000182390213, 0.0, 0.0, 0.0, 0.0, 0.0, 1.7103952951539762E9, 0.0, 2024-03-13 22:48:15.153
6.0, -841.7860317765735, -476.91952214948833, -548.2917729038745, -528.4572134888731, 0.6880000326782465, 0.7040000334382057, 0.3840000182390213, 0.0, 0.0, 0.0, 0.0, 0.0, 1.7103952951539762E9, 0.0, 2024-03-13 22:48:15.153
7.0, -839.4111953047104, -465.7484409818426, -543.6243777591735, -519.7619460918941, 0.6880000326782465, 0.7040000334382057, 0.3840000182390213, 0.0, 0.0, 0.0, 0.0, 0.0, 1.7103952951546204E9, 0.0, 2024-03-13 22:48:15.154
7.0, -842.0515646734275, -466.27202697563916, -540.7371749933809, -516.8373443265446, 0.6880000326782465, 0.7040000334382057, 0.3840000182390213, 0.0, 0.0, 0.0, 0.0, 0.0, 1.7103952951546204E9, 0.0, 2024-03-13 22:48:15.154
8.0, -840.5930036907084, -468.05595925450325, -532.0606070961803, -515.8462708382867, 0.6880000326782465, 0.7040000334382057, 0.3840000182390213, 0.0, 0.0, 0.0, 0.0, 0.0, 1.7103952951554248E9, 0.0, 2024-03-13 22:48:15.155
8.0, -844.4862395445816, -472.2222078051418, -544.136744053103, -518.5726579059847, 0.6880000326782465, 0.7040000334382057, 0.3840000182390213, 0.0, 0.0, 0.0, 0.0, 0.0, 1.7103952951554248E9, 0.0, 2024-03-13 22:48:15.155
9.0, -847.6726343068294, -475.1542893704027, -549.9074096847326, -520.293011885602, 0.6880000326782465, 0.7040000334382057, 0.3840000182390213, 0.0, 0.0, 0.0, 0.0, 0.0, 1.710395295156152E9, 0.0, 2024-03-13 22:48:15.156
9.0, -851.850102557335, -476.68764835223556, -549.9560283841565, -525.8392835198902, 0.6880000326782465, 0.7040000334382057, 0.3840000182390213, 0.0, 0.0, 0.0, 0.0, 0.0, 1.710395295156152E9, 0.0, 2024-03-13 22:48:15.156
10.0, -843.0538578615524, -470.700068523176, -545.3970903381705, -525.3867556252517, 0.6880000326782465, 0.7040000334382057, 0.3840000182390213, 0.0, 0.0, 0.0, 0.0, 0.0, 1.7103952951825385E9, 0.0, 2024-03-13 22:48:15.182
10.0, -841.6102564786561, -475.5619384655729, -556.2241007098928, -527.1669480041601, 0.6880000326782465, 0.7040000334382057, 0.3840000182390213, 0.0, 0.0, 0.0, 0.0, 0.0, 1.7103952951825385E9, 0.0, 2024-03-13 22:48:15.182
11.0, -835.9443080457859, -470.6028311243281, -545.2886332394555, -522.2863785619847, 0.6880000326782465, 0.7040000334382057, 0.3840000182390213, 0.0, 0.0, 0.0, 0.0, 0.0, 1.7103952951832132E9, 0.0, 2024-03-13 22:48:15.183
11.0, -850.4551198738627, -484.13378916401416, -549.2043084930629, -533.0460707345046, 0.6880000326782465, 0.7040000334382057, 0.3840000182390213, 0.0, 0.0, 0.0, 0.0, 0.0, 1.7103952951832132E9, 0.0, 2024-03-13 22:48:15.183
12.0, -853.2301256409846, -484.1524886637926, -555.4723808187991, -534.5831696162932, 0.6880000326782465, 0.7040000334382057, 0.3840000182390213, 0.0, 0.0, 0.0, 0.0, 0.0, 1.7103952951974552E9, 0.0, 2024-03-13 22:48:15.197
12.0, -852.1530344537459, -479.8852628143504, -559.4703338714316, -531.9727194472216, 0.6880000326782465, 0.7040000334382057, 0.3840000182390213, 0.0, 0.0, 0.0, 0.0, 0.0, 1.7103952951974552E9, 0.0, 2024-03-13 22:48:15.197
13.0, -843.5512645556591, -478.20604773424566, -537.3151665339246, -524.9678868302144, 0.6880000326782465, 0.7040000334382057, 0.3840000182390213, 0.0, 0.0, 0.0, 0.0, 0.0, 1.7103952951982105E9, 0.0, 2024-03-13 22:48:15.198
13.0, -846.1617147247307, -476.31365835666656, -552.6786755518988, -528.4085947894491, 0.6880000326782465, 0.7040000334382057, 0.3840000182390213, 0.0, 0.0, 0.0, 0.0, 0.0, 1.7103952951982105E9, 0.0, 2024-03-13 22:48:15.198
14.0, -842.8257239642553, -473.79296578653157, -556.3923962078989, -528.3076174906455, 0.6880000326782465, 0.7040000334382057, 0.3840000182390213, 0.0, 0.0, 0.0, 0.0, 0.0, 1.7103952952124822E9, 0.0, 2024-03-13 22:48:15.212
14.0, -847.8633692045696, -483.5952435703948, -556.2428002096713, -531.2060399563052, 0.6880000326782465, 0.7040000334382057, 0.3840000182390213, 0.0, 0.0, 0.0, 0.0, 0.0, 1.7103952952124822E9, 0.0, 2024-03-13 22:48:15.212
15.0, -866.2973360861652, -496.73725201468915, -558.0267324885353, -541.1504339384846, 0.6880000326782465, 0.7040000334382057, 0.3840000182390213, 0.0, 0.0, 0.0, 0.0, 0.0, 1.7103952952275767E9, 0.0, 2024-03-13 22:48:15.227
15.0, -854.4493330265395, -472.6335968002677, -548.2356744045392, -522.1854012631811, 0.6880000326782465, 0.7040000334382057, 0.3840000182390213, 0.0, 0.0, 0.0, 0.0, 0.0, 1.7103952952275767E9, 0.0, 2024-03-13 22:48:15.227
16.0, -854.8644619216211, -478.95776762533933, -551.7549202628434, -529.0780368815176, 0.6880000326782465, 0.7040000334382057, 0.3840000182390213, 0.0, 0.0, 0.0, 0.0, 0.0, 1.710395295228253E9, 0.0, 2024-03-13 22:48:15.228
16.0, -850.4962587733753, -476.0144663602114, -538.0033081257716, -521.4336813720874, 0.6880000326782465, 0.7040000334382057, 0.3840000182390213, 0.0, 0.0, 0.0, 0.0, 0.0, 1.710395295228253E9, 0.0, 2024-03-13 22:48:15.228
17.0, -849.6473014834337, -475.5918576652184, -551.0518190711737, -521.9049087665044, 0.6880000326782465, 0.7040000334382057, 0.3840000182390213, 0.0, 0.0, 0.0, 0.0, 0.0, 1.71039529525822E9, 0.0, 2024-03-13 22:48:15.258
17.0, -839.3363973055966, -468.01856025494635, -543.1755897644907, -513.0263862716965, 0.6880000326782465, 0.7040000334382057, 0.3840000182390213, 0.0, 0.0, 0.0, 0.0, 0.0, 1.71039529525822E9, 0.0, 2024-03-13 22:48:15.258
18.0, -841.1951275835745, -473.2319807931781, -533.571526678279, -515.6929349401034, 0.6880000326782465, 0.7040000334382057, 0.3840000182390213, 0.0, 0.0, 0.0, 0.0, 0.0, 1.7103952952591047E9, 0.0, 2024-03-13 22:48:15.259
18.0, -846.1691945246421, -471.1600762177259, -538.1005455246195, -518.0154128125869, 0.6880000326782465, 0.7040000334382057, 0.3840000182390213, 0.0, 0.0, 0.0, 0.0, 0.0, 1.7103952952591047E9, 0.0, 2024-03-13 22:48:15.259
19.0, -843.1697947601788, -464.31605929881334, -540.2397682992741, -515.1656090463512, 0.6880000326782465, 0.7040000334382057, 0.3840000182390213, 0.0, 0.0, 0.0, 0.0, 0.0, 1.7103952952600324E9, 0.0, 2024-03-13 22:48:15.260
19.0, -840.7986981882714, -467.86522435676306, -536.1557975476608, -516.1903416342102, 0.6880000326782465, 0.7040000334382057, 0.3840000182390213, 0.0, 0.0, 0.0, 0.0, 0.0, 1.7103952952600324E9, 0.0, 2024-03-13 22:48:15.260
20.0, -844.2693253471516, -470.4046164266765, -532.9432234857231, -517.97801381303, 0.6880000326782465, 0.7040000334382057, 0.3840000182390213, 0.0, 0.0, 0.0, 0.0, 0.0, 1.7103952952720652E9, 0.0, 2024-03-13 22:48:15.272
20.0, -840.9969128859229, -469.4434621380642, -543.5084408605471, -515.4835005425848, 0.6880000326782465, 0.7040000334382057, 0.3840000182390213, 0.0, 0.0, 0.0, 0.0, 0.0, 1.7103952952720652E9, 0.0, 2024-03-13 22:48:15.272
21.0, -848.7422456941567, -471.6275637121871, -536.2829541461542, -513.5611919653602, 0.6880000326782465, 0.7040000334382057, 0.3840000182390213, 0.0, 0.0, 0.0, 0.0, 0.0, 1.7103952952875128E9, 0.0, 2024-03-13 22:48:15.287
21.0, -850.9674861677922, -478.80443172715604, -534.5588602665812, -515.4984601424076, 0.6880000326782465, 0.7040000334382057, 0.3840000182390213, 0.0, 0.0, 0.0, 0.0, 0.0, 1.7103952952875128E9, 0.0, 2024-03-13 22:48:15.287
22.0, -837.3766897288151, -465.57640558388084, -533.6463246773928, -510.1915421052836, 0.6880000326782465, 0.7040000334382057, 0.3840000182390213, 0.0, 0.0, 0.0, 0.0, 0.0, 1.7103952952882528E9, 0.0, 2024-03-13 22:48:15.288
22.0, -830.5251930099912, -454.04629402048886, -527.5502877496183, -499.79836012842134, 0.6880000326782465, 0.7040000334382057, 0.3840000182390213, 0.0, 0.0, 0.0, 0.0, 0.0, 1.7103952952882528E9, 0.0, 2024-03-13 22:48:15.288
23.0, -841.6513953781687, -468.3027926515788, -535.9127040505409, -515.300245444756, 0.6880000326782465, 0.7040000334382057, 0.3840000182390213, 0.0, 0.0, 0.0, 0.0, 0.0, 1.7103952953019087E9, 0.0, 2024-03-13 22:48:15.301
23.0, -837.3243311294354, -458.9941816618666, -531.8249933989719, -506.1786294528283, 0.6880000326782465, 0.7040000334382057, 0.3840000182390213, 0.0, 0.0, 0.0, 0.0, 0.0, 1.7103952953019087E9, 0.0, 2024-03-13 22:48:15.301
24.0, -829.2498871251009, -454.48760221526027, -530.6918037123978, -504.94446246745065, 0.6880000326782465, 0.7040000334382057, 0.3840000182390213, 0.0, 0.0, 0.0, 0.0, 0.0, 1.7103952953175144E9, 0.0, 2024-03-13 22:48:15.317
24.0, -836.4192753401585, -461.0660862373188, -531.316367004998, -510.94700189633295, 0.6880000326782465, 0.7040000334382057, 0.3840000182390213, 0.0, 0.0, 0.0, 0.0, 0.0, 1.7103952953175144E9, 0.0, 2024-03-13 22:48:15.317
25.0, -832.1034307912923, -453.7321424242109, -527.1875174539164, -504.783646769356, 0.6880000326782465, 0.7040000334382057, 0.3840000182390213, 0.0, 0.0, 0.0, 0.0, 0.0, 1.710395295318241E9, 0.0, 2024-03-13 22:48:15.318
25.0, -827.813765542116, -450.14931826666, -530.7628618115559, -499.05038013728335, 0.6880000326782465, 0.7040000334382057, 0.3840000182390213, 0.0, 0.0, 0.0, 0.0, 0.0, 1.710395295318241E9, 0.0, 2024-03-13 22:48:15.318
26.0, -830.0651853154413, -452.4306572396308, -530.1532581187785, -504.2899799752049, 0.6880000326782465, 0.7040000334382057, 0.3840000182390213, 0.0, 0.0, 0.0, 0.0, 0.0, 1.710395295331922E9, 0.0, 2024-03-13 22:48:15.331
26.0, -831.564885197673, -459.6598838539794, -537.4610226321965, -512.3719037794508, 0.6880000326782465, 0.7040000334382057, 0.3840000182390213, 0.0, 0.0, 0.0, 0.0, 0.0, 1.710395295331922E9, 0.0, 2024-03-13 22:48:15.331
27.0, -837.7095408248715, -461.49243483226746, -552.0017536599189, -515.614397041034, 0.6880000326782465, 0.7040000334382057, 0.3840000182390213, 0.0, 0.0, 0.0, 0.0, 0.0, 1.7103952953475327E9, 0.0, 2024-03-13 22:48:15.347
27.0, -833.4684942751192, -456.23787539452314, -539.5852858070284, -510.05316580692306, 0.6880000326782465, 0.7040000334382057, 0.3840000182390213, 0.0, 0.0, 0.0, 0.0, 0.0, 1.7103952953475327E9, 0.0, 2024-03-13 22:48:15.347
28.0, -842.8668628637679, -471.1151974182576, -545.4943277370185, -520.4426078838296, 0.6880000326782465, 0.7040000334382057, 0.3840000182390213, 0.0, 0.0, 0.0, 0.0, 0.0, 1.7103952953482308E9, 0.0, 2024-03-13 22:48:15.348
28.0, -842.4255546689965, -473.1160438945517, -553.0938044469804, -525.4054551250301, 0.6880000326782465, 0.7040000334382057, 0.3840000182390213, 0.0, 0.0, 0.0, 0.0, 0.0, 1.7103952953482308E9, 0.0, 2024-03-13 22:48:15.348
29.0, -832.3801833880134, -457.90213087480515, -540.8605916919187, -507.17344284104183, 0.6880000326782465, 0.7040000334382057, 0.3840000182390213, 0.0, 0.0, 0.0, 0.0, 0.0, 1.7103952953621871E9, 0.0, 2024-03-13 22:48:15.362
29.0, -834.833557758946, -461.7766672288999, -533.0479406844825, -510.7113881991245, 0.6880000326782465, 0.7040000334382057, 0.3840000182390213, 0.0, 0.0, 0.0, 0.0, 0.0, 1.7103952953621871E9, 0.0, 2024-03-13 22:48:15.362
30.0, -841.3260240820237, -467.16212316509336, -546.4704416254535, -518.3407841087319, 0.6880000326782465, 0.7040000334382057, 0.3840000182390213, 0.0, 0.0, 0.0, 0.0, 0.0, 1.7103952953775003E9, 0.0, 2024-03-13 22:48:15.377
30.0, -847.8820687043481, -474.7503801751882, -554.2756128329784, -520.5735043822788, 0.6880000326782465, 0.7040000334382057, 0.3840000182390213, 0.0, 0.0, 0.0, 0.0, 0.0, 1.7103952953775003E9, 0.0, 2024-03-13 22:48:15.377
31.0, -843.9813530505635, -469.8137122336775, -543.3962438618764, -509.79511270998046, 0.6880000326782465, 0.7040000334382057, 0.3840000182390213, 0.0, 0.0, 0.0, 0.0, 0.0, 1.7103952953784251E9, 0.0, 2024-03-13 22:48:15.378
31.0, -842.189940971788, -478.72963372804224, -540.8979906914756, -518.0827310117893, 0.6880000326782465, 0.7040000334382057, 0.3840000182390213, 0.0, 0.0, 0.0, 0.0, 0.0, 1.7103952953784251E9, 0.0, 2024-03-13 22:48:15.378
32.0, -848.1289021014236, -475.64795616455376, -558.1613688869402, -521.8263708674349, 0.6880000326782465, 0.7040000334382057, 0.3840000182390213, 0.0, 0.0, 0.0, 0.0, 0.0, 1.7103952953920815E9, 0.0, 2024-03-13 22:48:15.392
32.0, -844.5124188442715, -469.61549753602594, -552.9554281486198, -522.428494760301, 0.6880000326782465, 0.7040000334382057, 0.3840000182390213, 0.0, 0.0, 0.0, 0.0, 0.0, 1.7103952953920815E9, 0.0, 2024-03-13 22:48:15.392
33.0, -842.5826304671355, -469.3649242389947, -542.7791603691876, -516.8223847267218, 0.6880000326782465, 0.7040000334382057, 0.3840000182390213, 0.0, 0.0, 0.0, 0.0, 0.0, 1.710395295424012E9, 0.0, 2024-03-13 22:48:15.424
33.0, -847.9980056029744, -474.3389911800623, -555.3714035199955, -524.0703108408488, 0.6880000326782465, 0.7040000334382057, 0.3840000182390213, 0.0, 0.0, 0.0, 0.0, 0.0, 1.710395295424012E9, 0.0, 2024-03-13 22:48:15.424
34.0, -843.3455700580962, -470.16152292955667, -555.9697875129059, -516.4409149312414, 0.6880000326782465, 0.7040000334382057, 0.3840000182390213, 0.0, 0.0, 0.0, 0.0, 0.0, 1.7103952954246264E9, 0.0, 2024-03-13 22:48:15.424
34.0, -834.8896562582813, -468.8562978450209, -549.0472326949239, -520.1770749869756, 0.6880000326782465, 0.7040000334382057, 0.3840000182390213, 0.0, 0.0, 0.0, 0.0, 0.0, 1.7103952954246264E9, 0.0, 2024-03-13 22:48:15.424
35.0, -838.6594754136167, -474.3090719804168, -546.8219922212884, -522.5332119590603, 0.6880000326782465, 0.7040000334382057, 0.3840000182390213, 0.0, 0.0, 0.0, 0.0, 0.0, 1.7103952954254038E9, 0.0, 2024-03-13 22:48:15.425
35.0, -836.3332576411776, -462.7378215175122, -549.3464246913791, -509.559499012772, 0.6880000326782465, 0.7040000334382057, 0.3840000182390213, 0.0, 0.0, 0.0, 0.0, 0.0, 1.7103952954254038E9, 0.0, 2024-03-13 22:48:15.425
36.0, -831.4751275987364, -460.2844471465796, -540.9204300912097, -508.0822385302745, 0.6880000326782465, 0.7040000334382057, 0.3840000182390213, 0.0, 0.0, 0.0, 0.0, 0.0, 1.7103952954260979E9, 0.0, 2024-03-13 22:48:15.426
36.0, -830.648609708529, -462.487248220481, -533.6650241771713, -512.3195451800711, 0.6880000326782465, 0.7040000334382057, 0.3840000182390213, 0.0, 0.0, 0.0, 0.0, 0.0, 1.7103952954260979E9, 0.0, 2024-03-13 22:48:15.426
37.0, -830.4279556111433, -459.64492425415665, -541.2345816874877, -510.91708269668743, 0.6880000326782465, 0.7040000334382057, 0.3840000182390213, 0.0, 0.0, 0.0, 0.0, 0.0, 1.7103952954373488E9, 0.0, 2024-03-13 22:48:15.437
37.0, -826.9348890525289, -460.23956834711134, -537.3525655334815, -504.3236390748061, 0.6880000326782465, 0.7040000334382057, 0.3840000182390213, 0.0, 0.0, 0.0, 0.0, 0.0, 1.7103952954373488E9, 0.0, 2024-03-13 22:48:15.437
38.0, -826.2130883610807, -457.26634788233787, -529.7717883232981, -507.255720640067, 0.6880000326782465, 0.7040000334382057, 0.3840000182390213, 0.0, 0.0, 0.0, 0.0, 0.0, 1.7103952954518552E9, 0.0, 2024-03-13 22:48:15.451
38.0, -819.7954200371169, -458.90068416297436, -539.2150357114151, -512.8169518741779, 0.6880000326782465, 0.7040000334382057, 0.3840000182390213, 0.0, 0.0, 0.0, 0.0, 0.0, 1.7103952954518552E9, 0.0, 2024-03-13 22:48:15.451
39.0, -826.7329344549216, -461.60089193098247, -545.9094566321, -515.7677329392172, 0.6880000326782465, 0.7040000334382057, 0.3840000182390213, 0.0, 0.0, 0.0, 0.0, 0.0, 1.7103952954675217E9, 0.0, 2024-03-13 22:48:15.467
39.0, -829.1002911268733, -467.7717268578708, -545.4307494377717, -519.4029156961478, 0.6880000326782465, 0.7040000334382057, 0.3840000182390213, 0.0, 0.0, 0.0, 0.0, 0.0, 1.7103952954675217E9, 0.0, 2024-03-13 22:48:15.467
40.0, -834.519406162668, -467.7754667578265, -550.1654627816752, -522.2938583618961, 0.6880000326782465, 0.7040000334382057, 0.3680000174790621, 0.0, 0.0, 0.0, 0.0, 0.0, 1.710395295468526E9, 0.0, 2024-03-13 22:48:15.468
40.0, -827.0283865514211, -457.8086333759129, -550.9845008719712, -515.505939942319, 0.6880000326782465, 0.7040000334382057, 0.3680000174790621, 0.0, 0.0, 0.0, 0.0, 0.0, 1.710395295468526E9, 0.0, 2024-03-13 22:48:15.468
41.0, -834.9644542573951, -466.72081497032195, -546.9603685196489, -518.1874482105486, 0.6880000326782465, 0.7040000334382057, 0.3680000174790621, 0.0, 0.0, 0.0, 0.0, 0.0, 1.7103952954819543E9, 0.0, 2024-03-13 22:48:15.481
41.0, -834.2389136659913, -469.4472020380199, -538.9308033147827, -516.7588064274751, 0.6880000326782465, 0.7040000334382057, 0.3680000174790621, 0.0, 0.0, 0.0, 0.0, 0.0, 1.7103952954819543E9, 0.0, 2024-03-13 22:48:15.481
42.0, -825.7792599662207, -465.2585140876472, -543.5308802602813, -513.4564747666009, 0.6880000326782465, 0.7040000334382057, 0.3680000174790621, 0.0, 0.0, 0.0, 0.0, 0.0, 1.7103952954977925E9, 0.0, 2024-03-13 22:48:15.497
42.0, -831.5761048975401, -458.2836006702855, -542.8651780681685, -510.0008072075434, 0.6880000326782465, 0.7040000334382057, 0.3680000174790621, 0.0, 0.0, 0.0, 0.0, 0.0, 1.7103952954977925E9, 0.0, 2024-03-13 22:48:15.497
43.0, -827.3649775474332, -456.3949511926621, -529.7680484233424, -514.2194143575616, 0.6880000326782465, 0.7040000334382057, 0.3680000174790621, 0.0, 0.0, 0.0, 0.0, 0.0, 1.710395295498613E9, 0.0, 2024-03-13 22:48:15.498
43.0, -830.8617840060033, -461.42137673310935, -535.7593681523576, -507.90272333240137, 0.6880000326782465, 0.7040000334382057, 0.3680000174790621, 0.0, 0.0, 0.0, 0.0, 0.0, 1.710395295498613E9, 0.0, 2024-03-13 22:48:15.498
44.0, -813.497428511735, -445.6277792202309, -533.7248625764623, -501.672050006222, 0.6880000326782465, 0.7040000334382057, 0.3680000174790621, 0.0, 0.0, 0.0, 0.0, 0.0, 1.7103952955281749E9, 0.0, 2024-03-13 22:48:15.528
44.0, -826.583338456694, -454.67833711300045, -533.6575443772599, -506.83685184502974, 0.6880000326782465, 0.7040000334382057, 0.3680000174790621, 0.0, 0.0, 0.0, 0.0, 0.0, 1.7103952955281749E9, 0.0, 2024-03-13 22:48:15.528
45.0, -832.90376938181, -465.67738288268447, -537.3151665339246, -515.4012227435596, 0.6880000326782465, 0.7040000334382057, 0.3680000174790621, 0.0, 0.0, 0.0, 0.0, 0.0, 1.710395295528889E9, 0.0, 2024-03-13 22:48:15.528
45.0, -834.9644542573951, -461.8776445277035, -543.9721884550527, -510.4047164027579, 0.6880000326782465, 0.7040000334382057, 0.3680000174790621, 0.0, 0.0, 0.0, 0.0, 0.0, 1.710395295528889E9, 0.0, 2024-03-13 22:48:15.528
46.0, -828.7637001308613, -458.53417396731675, -532.7674481878057, -507.3753974386491, 0.6880000326782465, 0.7040000334382057, 0.3680000174790621, 0.0, 0.0, 0.0, 0.0, 0.0, 1.7103952955296583E9, 0.0, 2024-03-13 22:48:15.529
46.0, -831.2731730011292, -464.7723270934075, -529.4015382276848, -507.6371904355474, 0.6880000326782465, 0.7040000334382057, 0.3680000174790621, 0.0, 0.0, 0.0, 0.0, 0.0, 1.7103952955296583E9, 0.0, 2024-03-13 22:48:15.529
47.0, -835.6525958492421, -458.37709816917777, -539.7311419053003, -508.0336198308505, 0.6880000326782465, 0.7040000334382057, 0.3680000174790621, 0.0, 0.0, 0.0, 0.0, 0.0, 1.7103952955419269E9, 0.0, 2024-03-13 22:48:15.541
47.0, -830.0128267160617, -453.2534352298826, -535.7144893528894, -503.8972904798575, 0.6880000326782465, 0.7040000334382057, 0.3680000174790621, 0.0, 0.0, 0.0, 0.0, 0.0, 1.7103952955419269E9, 0.0, 2024-03-13 22:48:15.541
48.0, -833.434835175518, -465.76340058166534, -529.9363439213485, -512.4616613783874, 0.6880000326782465, 0.7040000334382057, 0.3680000174790621, 0.0, 0.0, 0.0, 0.0, 0.0, 1.710395295557516E9, 0.0, 2024-03-13 22:48:15.557
48.0, -831.0001603043638, -459.0727195609361, -538.2464016228914, -512.9927271720953, 0.6880000326782465, 0.7040000334382057, 0.3680000174790621, 0.0, 0.0, 0.0, 0.0, 0.0, 1.710395295557516E9, 0.0, 2024-03-13 22:48:15.557
49.0, -828.4458086346276, -456.01348139718175, -543.6243777591735, -509.7502339105122, 0.6880000326782465, 0.7040000334382057, 0.3680000174790621, 0.0, 0.0, 0.0, 0.0, 0.0, 1.710395295558498E9, 0.0, 2024-03-13 22:48:15.558
49.0, -833.8574438705109, -465.0266402903944, -543.1381907649338, -516.7513266275637, 0.6880000326782465, 0.7040000334382057, 0.3680000174790621, 0.0, 0.0, 0.0, 0.0, 0.0, 1.710395295558498E9, 0.0, 2024-03-13 22:48:15.558
50.0, -827.4958740458824, -460.02265414968133, -535.2806609580293, -515.5470788418315, 0.6880000326782465, 0.7040000334382057, 0.3680000174790621, 0.0, 0.0, 0.0, 0.0, 0.0, 1.7103952955725474E9, 0.0, 2024-03-13 22:48:15.572
50.0, -821.0295870224945, -451.56300044991076, -544.017067254521, -507.4539353377186, 0.6880000326782465, 0.7040000334382057, 0.3680000174790621, 0.0, 0.0, 0.0, 0.0, 0.0, 1.7103952955725474E9, 0.0, 2024-03-13 22:48:15.572
51.0, -821.6354508153163, -446.19998391345143, -533.1750972829759, -507.57735203625634, 0.6880000326782465, 0.7040000334382057, 0.3680000174790621, 0.0, 0.0, 0.0, 0.0, 0.0, 1.7103952955877805E9, 0.0, 2024-03-13 22:48:15.587
51.0, -832.8102718829177, -464.52923359628767, -549.1519498936832, -524.0254320413806, 0.6880000326782465, 0.7040000334382057, 0.3680000174790621, 0.0, 0.0, 0.0, 0.0, 0.0, 1.7103952955877805E9, 0.0, 2024-03-13 22:48:15.587
52.0, -828.2101949374191, -461.94870262686163, -548.1833158051595, -515.468540942762, 0.6880000326782465, 0.7040000334382057, 0.3680000174790621, 0.0, 0.0, 0.0, 0.0, 0.0, 1.7103952955885084E9, 0.0, 2024-03-13 22:48:15.588
52.0, -820.4162434297614, -460.0039546499029, -545.6962823346257, -514.7392604514025, 0.6880000326782465, 0.7040000334382057, 0.3680000174790621, 0.0, 0.0, 0.0, 0.0, 0.0, 1.7103952955885084E9, 0.0, 2024-03-13 22:48:15.588
53.0, -831.5349659980275, -457.7413151767105, -539.3459322098643, -515.9958668365143, 0.6880000326782465, 0.7040000334382057, 0.3680000174790621, 0.0, 0.0, 0.0, 0.0, 0.0, 1.7103952956019473E9, 0.0, 2024-03-13 22:48:15.601
53.0, -834.8148582591675, -468.57954524829984, -552.5103800538927, -521.6019768700935, 0.6880000326782465, 0.7040000334382057, 0.3680000174790621, 0.0, 0.0, 0.0, 0.0, 0.0, 1.7103952956019473E9, 0.0, 2024-03-13 22:48:15.601
54.0, -826.7329344549216, -458.3733582692221, -552.7085947515443, -516.9757206249051, 0.6880000326782465, 0.7040000334382057, 0.3680000174790621, 0.0, 0.0, 0.0, 0.0, 0.0, 1.7103952956175106E9, 0.0, 2024-03-13 22:48:15.617
54.0, -824.9116031765006, -457.94700967427343, -546.8257321212441, -517.0766979237087, 0.6880000326782465, 0.7040000334382057, 0.3680000174790621, 0.0, 0.0, 0.0, 0.0, 0.0, 1.7103952956175106E9, 0.0, 2024-03-13 22:48:15.617
55.0, -826.4935808577575, -455.7703879000619, -541.8142661806196, -517.0579984239303, 0.6880000326782465, 0.7040000334382057, 0.3680000174790621, 0.0, 0.0, 0.0, 0.0, 0.0, 1.7103952956182408E9, 0.0, 2024-03-13 22:48:15.618
55.0, -824.0327266869135, -454.61101891379803, -548.0299799069762, -515.7041546399705, 0.6880000326782465, 0.7040000334382057, 0.3680000174790621, 0.0, 0.0, 0.0, 0.0, 0.0, 1.7103952956182408E9, 0.0, 2024-03-13 22:48:15.618
56.0, -816.8446389720775, -453.86303892266005, -540.3295258982107, -511.90815618494526, 0.6880000326782465, 0.7040000334382057, 0.3680000174790621, 0.0, 0.0, 0.0, 0.0, 0.0, 1.710395295631938E9, 0.0, 2024-03-13 22:48:15.631
56.0, -822.5666859042831, -458.08912587258965, -538.7999068163335, -513.2059014695697, 0.6880000326782465, 0.7040000334382057, 0.3680000174790621, 0.0, 0.0, 0.0, 0.0, 0.0, 1.710395295631938E9, 0.0, 2024-03-13 22:48:15.631
57.0, -827.3612376474775, -457.6216383781284, -545.5579060362652, -509.20794841693714, 0.6880000326782465, 0.7040000334382057, 0.3680000174790621, 0.0, 0.0, 0.0, 0.0, 0.0, 1.710395295647487E9, 0.0, 2024-03-13 22:48:15.647
57.0, -823.194989096839, -458.3583986693993, -533.6313650775701, -508.594604824204, 0.6880000326782465, 0.7040000334382057, 0.3680000174790621, 0.0, 0.0, 0.0, 0.0, 0.0, 1.710395295647487E9, 0.0, 2024-03-13 22:48:15.647
58.0, -832.7167743840255, -470.05680573079735, -537.0234543373808, -521.0596913765185, 0.6880000326782465, 0.7040000334382057, 0.3680000174790621, 0.0, 0.0, 0.0, 0.0, 0.0, 1.7103952956482368E9, 0.0, 2024-03-13 22:48:15.648
58.0, -841.2923649824224, -472.2670866046101, -546.9416690198705, -517.7162208161317, 0.6880000326782465, 0.7040000334382057, 0.3680000174790621, 0.0, 0.0, 0.0, 0.0, 0.0, 1.7103952956482368E9, 0.0, 2024-03-13 22:48:15.648
59.0, -833.5769513738342, -464.46191539708525, -542.3902107737958, -505.2997529632412, 0.6880000326782465, 0.7040000334382057, 0.3680000174790621, 0.0, 0.0, 0.0, 0.0, 0.0, 1.7103952956619544E9, 0.0, 2024-03-13 22:48:15.661
59.0, -834.9382749577053, -466.84049176890403, -537.4572827322409, -515.3077252446674, 0.6880000326782465, 0.7040000334382057, 0.3680000174790621, 0.0, 0.0, 0.0, 0.0, 0.0, 1.7103952956619544E9, 0.0, 2024-03-13 22:48:15.661
60.0, -838.1957278191112, -473.1796221937984, -545.8084793332964, -517.013119624462, 0.6880000326782465, 0.7040000334382057, 0.3680000174790621, 0.0, 0.0, 0.0, 0.0, 0.0, 1.7103952956775317E9, 0.0, 2024-03-13 22:48:15.677
60.0, -823.5577593925409, -452.04918744415045, -544.4247163496912, -505.68122275872156, 0.6880000326782465, 0.7040000334382057, 0.3680000174790621, 0.0, 0.0, 0.0, 0.0, 0.0, 1.7103952956775317E9, 0.0, 2024-03-13 22:48:15.677
61.0, -829.4331422229297, -456.1406379956752, -537.8088333280757, -507.28563983971253, 0.6880000326782465, 0.7040000334382057, 0.3680000174790621, 0.0, 0.0, 0.0, 0.0, 0.0, 1.7103952956782248E9, 0.0, 2024-03-13 22:48:15.678
61.0, -827.5033538457938, -466.7058553704992, -533.077859884128, -508.8227387215011, 0.6880000326782465, 0.7040000334382057, 0.3680000174790621, 0.0, 0.0, 0.0, 0.0, 0.0, 1.7103952956782248E9, 0.0, 2024-03-13 22:48:15.678
62.0, -826.8077324540354, -463.16417011246085, -545.8196990331635, -513.9464016607963, 0.6880000326782465, 0.7040000334382057, 0.3680000174790621, 0.0, 0.0, 0.0, 0.0, 0.0, 1.7103952956920755E9, 0.0, 2024-03-13 22:48:15.692
62.0, -832.1221302910708, -459.16621705982834, -537.9397298265249, -508.32159212743863, 0.6880000326782465, 0.7040000334382057, 0.3680000174790621, 0.0, 0.0, 0.0, 0.0, 0.0, 1.7103952956920755E9, 0.0, 2024-03-13 22:48:15.692
63.0, -840.4396677925251, -465.2173751881346, -539.6787833059207, -517.9555744132958, 0.6880000326782465, 0.7040000334382057, 0.3680000174790621, 0.0, 0.0, 0.0, 0.0, 0.0, 1.710395295707856E9, 0.0, 2024-03-13 22:48:15.707
63.0, -834.1080171675421, -469.0732120424509, -545.3035928392783, -519.2907186974771, 0.6880000326782465, 0.7040000334382057, 0.3680000174790621, 0.0, 0.0, 0.0, 0.0, 0.0, 1.710395295707856E9, 0.0, 2024-03-13 22:48:15.707
64.0, -830.9478017049842, -464.80224629305303, -555.7379137156531, -520.1060168878175, 0.6880000326782465, 0.7040000334382057, 0.3680000174790621, 0.0, 0.0, 0.0, 0.0, 0.0, 1.710395295708754E9, 0.0, 2024-03-13 22:48:15.708
64.0, -832.8813299820758, -462.4348896211013, -539.5441469075158, -516.6428695288487, 0.6880000326782465, 0.7040000334382057, 0.3680000174790621, 0.0, 0.0, 0.0, 0.0, 0.0, 1.710395295708754E9, 0.0, 2024-03-13 22:48:15.708
65.0, -835.6451160493307, -471.87065720930696, -542.2705339752138, -518.5988372056745, 0.6880000326782465, 0.7040000334382057, 0.3680000174790621, 0.0, 0.0, 0.0, 0.0, 0.0, 1.7103952957219572E9, 0.0, 2024-03-13 22:48:15.721
65.0, -833.8948428700678, -461.24186153523624, -547.2109418166801, -512.9628079724498, 0.6880000326782465, 0.7040000334382057, 0.3680000174790621, 0.0, 0.0, 0.0, 0.0, 0.0, 1.7103952957219572E9, 0.0, 2024-03-13 22:48:15.721
66.0, -823.8045927896164, -458.41823706869036, -534.9253704622388, -509.49966061348096, 0.6880000326782465, 0.7040000334382057, 0.3680000174790621, 0.0, 0.0, 0.0, 0.0, 0.0, 1.710395295737752E9, 0.0, 2024-03-13 22:48:15.737
66.0, -823.4268628940918, -475.20664796978235, -551.8110187621787, -526.9126348071732, 0.6880000326782465, 0.7040000334382057, 0.3680000174790621, 0.0, 0.0, 0.0, 0.0, 0.0, 1.710395295737752E9, 0.0, 2024-03-13 22:48:15.737
67.0, -815.2215223913081, -470.7449473226443, -554.9712342247367, -528.2926578908227, 0.6880000326782465, 0.7040000334382057, 0.3680000174790621, 0.0, 0.0, 0.0, 0.0, 0.0, 1.7103952957384076E9, 0.0, 2024-03-13 22:48:15.738
67.0, -811.9678094298579, -468.4374290499836, -544.5780522478744, -514.8477175501175, 0.6880000326782465, 0.7040000334382057, 0.3680000174790621, 0.0, 0.0, 0.0, 0.0, 0.0, 1.7103952957384076E9, 0.0, 2024-03-13 22:48:15.738
68.0, -813.8975978069939, -463.79995310492814, -541.3467786861584, -514.395189655479, 0.6880000326782465, 0.7040000334382057, 0.3680000174790621, 0.0, 0.0, 0.0, 0.0, 0.0, 1.7103952957521915E9, 0.0, 2024-03-13 22:48:15.752
68.0, -818.2358817555942, -470.6028311243281, -549.8438313854858, -518.2809457094409, 0.6880000326782465, 0.7040000334382057, 0.3680000174790621, 0.0, 0.0, 0.0, 0.0, 0.0, 1.7103952957521915E9, 0.0, 2024-03-13 22:48:15.752
69.0, -811.7583750323392, -461.20072263572365, -545.5018075369298, -509.8063324098475, 0.6880000326782465, 0.7040000334382057, 0.3680000174790621, 0.0, 0.0, 0.0, 0.0, 0.0, 1.7103952957675004E9, 0.0, 2024-03-13 22:48:15.767
69.0, -806.1073861992918, -455.2842009058222, -529.7119499240071, -508.7442008224316, 0.6880000326782465, 0.7040000334382057, 0.3680000174790621, 0.0, 0.0, 0.0, 0.0, 0.0, 1.7103952957675004E9, 0.0, 2024-03-13 22:48:15.767
70.0, -813.3814916131087, -464.4880946967751, -541.9638621788472, -511.43318889057264, 0.6880000326782465, 0.7040000334382057, 0.3680000174790621, 0.0, 0.0, 0.0, 0.0, 0.0, 1.710395295768237E9, 0.0, 2024-03-13 22:48:15.768
70.0, -813.9312569065951, -464.3347587985918, -555.7079945160076, -515.7265940397047, 0.6880000326782465, 0.7040000334382057, 0.3680000174790621, 0.0, 0.0, 0.0, 0.0, 0.0, 1.710395295768237E9, 0.0, 2024-03-13 22:48:15.768
71.0, -805.06769401161, -455.2879408057779, -536.3764516450465, -506.39554365025833, 0.6880000326782465, 0.7040000334382057, 0.3680000174790621, 0.0, 0.0, 0.0, 0.0, 0.0, 1.710395295781962E9, 0.0, 2024-03-13 22:48:15.781
71.0, -802.3936655432917, -452.9093644339591, -529.5025155264884, -504.39469717396423, 0.6880000326782465, 0.7040000334382057, 0.3680000174790621, 0.0, 0.0, 0.0, 0.0, 0.0, 1.710395295781962E9, 0.0, 2024-03-13 22:48:15.781
72.0, -810.2212761505507, -455.31412010546774, -538.8709649154916, -503.6953358822502, 0.6880000326782465, 0.7040000334382057, 0.3680000174790621, 0.0, 0.0, 0.0, 0.0, 0.0, 1.7103952957976277E9, 0.0, 2024-03-13 22:48:15.797
72.0, -811.5115416352637, -457.9657091740519, -535.8865247508511, -504.64527047099546, 0.6880000326782465, 0.7040000334382057, 0.3680000174790621, 0.0, 0.0, 0.0, 0.0, 0.0, 1.7103952957976277E9, 0.0, 2024-03-13 22:48:15.797
73.0, -804.1439387225546, -453.45164992753416, -524.9959360798821, -502.9249164913781, 0.6880000326782465, 0.7040000334382057, 0.3680000174790621, 0.0, 0.0, 0.0, 0.0, 0.0, 1.710395295798622E9, 0.0, 2024-03-13 22:48:15.798
73.0, -816.5529267755337, -458.37709816917777, -534.2372288703918, -504.64901037095115, 0.6880000326782465, 0.7040000334382057, 0.3680000174790621, 0.0, 0.0, 0.0, 0.0, 0.0, 1.710395295798622E9, 0.0, 2024-03-13 22:48:15.798
74.0, -811.2684481381439, -449.8725656699389, -533.1414381833747, -499.6674636299722, 0.6880000326782465, 0.7040000334382057, 0.3680000174790621, 0.0, 0.0, 0.0, 0.0, 0.0, 1.7103952958119338E9, 0.0, 2024-03-13 22:48:15.811
74.0, -816.4257701770402, -458.5229542674497, -539.2786140106618, -509.91478950856254, 0.6880000326782465, 0.7040000334382057, 0.3680000174790621, 0.0, 0.0, 0.0, 0.0, 0.0, 1.7103952958119338E9, 0.0, 2024-03-13 22:48:15.811
75.0, -818.4079171535559, -468.3027926515788, -548.213235004805, -521.8899491666816, 0.6880000326782465, 0.7040000334382057, 0.3680000174790621, 0.0, 0.0, 0.0, 0.0, 0.0, 1.7103952958276117E9, 0.0, 2024-03-13 22:48:15.827
75.0, -818.9838617467321, -465.20241558831185, -552.6973750516772, -515.4124424434267, 0.6880000326782465, 0.7040000334382057, 0.3680000174790621, 0.0, 0.0, 0.0, 0.0, 0.0, 1.7103952958276117E9, 0.0, 2024-03-13 22:48:15.827
76.0, -819.010041046422, -464.0280870022252, -544.4695951491594, -520.4762669834308, 0.6880000326782465, 0.7040000334382057, 0.3680000174790621, 0.0, 0.0, 0.0, 0.0, 0.0, 1.7103952958282154E9, 0.0, 2024-03-13 22:48:15.828
76.0, -818.8380056484602, -469.98200773168355, -540.9840083904564, -517.6937814163975, 0.6880000326782465, 0.7040000334382057, 0.3680000174790621, 0.0, 0.0, 0.0, 0.0, 0.0, 1.7103952958282154E9, 0.0, 2024-03-13 22:48:15.828
77.0, -816.7922803726979, -458.2499415706843, -544.8622846445069, -515.7602531393059, 0.6880000326782465, 0.7040000334382057, 0.3680000174790621, 0.0, 0.0, 0.0, 0.0, 0.0, 1.7103952958419104E9, 0.0, 2024-03-13 22:48:15.841
77.0, -817.5290406639688, -457.9582293741405, -534.1811303710565, -508.2505340282805, 0.6880000326782465, 0.7040000334382057, 0.3680000174790621, 0.0, 0.0, 0.0, 0.0, 0.0, 1.7103952958419104E9, 0.0, 2024-03-13 22:48:15.841
78.0, -815.9769821823575, -465.24729438778013, -534.4541430678219, -515.99960673647, 0.6880000326782465, 0.7040000334382057, 0.3680000174790621, 0.0, 0.0, 0.0, 0.0, 0.0, 1.710395295857948E9, 0.0, 2024-03-13 22:48:15.857
78.0, -817.4355431650765, -463.7438546055928, -549.2043084930629, -516.8710034261458, 0.6880000326782465, 0.7040000334382057, 0.3680000174790621, 0.0, 0.0, 0.0, 0.0, 0.0, 1.710395295857948E9, 0.0, 2024-03-13 22:48:15.857
79.0, -811.4629229358397, -459.56638635508716, -549.540899489075, -513.7033081636764, 0.6880000326782465, 0.7040000334382057, 0.3680000174790621, 0.0, 0.0, 0.0, 0.0, 0.0, 1.7103952958730528E9, 0.0, 2024-03-13 22:48:15.873
79.0, -820.9360895236023, -467.53611316066235, -539.312273110263, -517.989233512897, 0.6880000326782465, 0.7040000334382057, 0.3680000174790621, 0.0, 0.0, 0.0, 0.0, 0.0, 1.7103952958730528E9, 0.0, 2024-03-13 22:48:15.873
80.0, -825.1172976740636, -469.409803038463, -541.0064477901906, -519.9639006895013, 0.6880000326782465, 0.7040000334382057, 0.3680000174790621, 0.0, 0.0, 0.0, 0.0, 0.0, 1.7103952958735144E9, 0.0, 2024-03-13 22:48:15.873
80.0, -822.4544889056124, -462.68172301817685, -536.6270249420777, -508.3702108268626, 0.6880000326782465, 0.7040000334382057, 0.3680000174790621, 0.0, 0.0, 0.0, 0.0, 0.0, 1.7103952958735144E9, 0.0, 2024-03-13 22:48:15.873
81.0, -824.3356585833244, -464.9294028915465, -527.6063862489536, -509.76145361037925, 0.6880000326782465, 0.7040000334382057, 0.3680000174790621, 0.0, 0.0, 0.0, 0.0, 0.0, 1.7103952959042866E9, 0.0, 2024-03-13 22:48:15.904
81.0, -833.1319032791071, -478.6286564292386, -538.336159221828, -517.4993066187017, 0.6880000326782465, 0.7040000334382057, 0.3680000174790621, 0.0, 0.0, 0.0, 0.0, 0.0, 1.7103952959042866E9, 0.0, 2024-03-13 22:48:15.904
82.0, -834.1491560670547, -471.5191066134721, -550.2589602805674, -514.7280407515354, 0.6880000326782465, 0.7040000334382057, 0.3680000174790621, 0.0, 0.0, 0.0, 0.0, 0.0, 1.7103952959047558E9, 0.0, 2024-03-13 22:48:15.904
82.0, -827.0096870516427, -467.588471760042, -540.2921268986538, -509.90730970865116, 0.6880000326782465, 0.7040000334382057, 0.3680000174790621, 0.0, 0.0, 0.0, 0.0, 0.0, 1.7103952959047558E9, 0.0, 2024-03-13 22:48:15.904
83.0, -822.7836001017131, -465.12761758919805, -529.2706417292356, -510.415936102625, 0.6880000326782465, 0.7040000334382057, 0.3680000174790621, 0.0, 0.0, 0.0, 0.0, 0.0, 1.7103952959053607E9, 0.0, 2024-03-13 22:48:15.905
83.0, -827.7838463424705, -467.6670096591115, -532.5206147907302, -509.9559284080751, 0.6880000326782465, 0.7040000334382057, 0.3680000174790621, 0.0, 0.0, 0.0, 0.0, 0.0, 1.7103952959053607E9, 0.0, 2024-03-13 22:48:15.905
84.0, -824.3019994837232, -465.176236288622, -535.7032696530223, -505.48300806107, 0.6880000326782465, 0.7040000334382057, 0.3680000174790621, 0.0, 0.0, 0.0, 0.0, 0.0, 1.7103952959060888E9, 0.0, 2024-03-13 22:48:15.906
84.0, -827.3275785478763, -464.54045329615474, -530.9685563091189, -507.4053166382946, 0.6880000326782465, 0.7040000334382057, 0.3680000174790621, 0.0, 0.0, 0.0, 0.0, 0.0, 1.7103952959060888E9, 0.0, 2024-03-13 22:48:15.906
85.0, -825.8577978652902, -459.9328965507448, -529.4164978275076, -501.0699261133559, 0.6880000326782465, 0.7040000334382057, 0.3680000174790621, 0.0, 0.0, 0.0, 0.0, 0.0, 1.710395295916825E9, 0.0, 2024-03-13 22:48:15.916
85.0, -823.2398678963073, -458.78474726434797, -540.6885562939569, -504.97812156705186, 0.6880000326782465, 0.7040000334382057, 0.3680000174790621, 0.0, 0.0, 0.0, 0.0, 0.0, 1.710395295916825E9, 0.0, 2024-03-13 22:48:15.916
86.0, -820.3377055306919, -457.337405981496, -528.687217336148, -496.48854866763577, 0.6880000326782465, 0.7040000334382057, 0.3680000174790621, 0.0, 0.0, 0.0, 0.0, 0.0, 1.71039529593183E9, 0.0, 2024-03-13 22:48:15.931
86.0, -826.9984673517756, -463.8186526047066, -531.7801145995036, -511.24245399283245, 0.6880000326782465, 0.7040000334382057, 0.3680000174790621, 0.0, 0.0, 0.0, 0.0, 0.0, 1.71039529593183E9, 0.0, 2024-03-13 22:48:15.931
87.0, -839.8225842998363, -469.20036864094436, -537.2029695352539, -505.1875559645705, 0.6880000326782465, 0.7040000334382057, 0.3680000174790621, 0.0, 0.0, 0.0, 0.0, 0.0, 1.7103952959476156E9, 0.0, 2024-03-13 22:48:15.947
87.0, -829.3658240237273, -466.19722897652537, -527.8756590457633, -501.2120423116721, 0.6880000326782465, 0.7040000334382057, 0.3680000174790621, 0.0, 0.0, 0.0, 0.0, 0.0, 1.7103952959476156E9, 0.0, 2024-03-13 22:48:15.947
88.0, -829.3433846239932, -473.5536121893674, -535.7593681523576, -511.3060322920792, 0.6880000326782465, 0.7040000334382057, 0.3680000174790621, 0.0, 0.0, 0.0, 0.0, 0.0, 1.7103952959482627E9, 0.0, 2024-03-13 22:48:15.948
88.0, -841.6401756783016, -477.8619769383222, -553.4827540423721, -524.5976367346011, 0.6880000326782465, 0.7040000334382057, 0.3680000174790621, 0.0, 0.0, 0.0, 0.0, 0.0, 1.7103952959482627E9, 0.0, 2024-03-13 22:48:15.948
89.0, -816.7361818733625, -457.4720423799008, -538.3025001222268, -506.50400074897334, 0.6880000326782465, 0.7040000334382057, 0.3680000174790621, 0.0, 0.0, 0.0, 0.0, 0.0, 1.710395295961848E9, 0.0, 2024-03-13 22:48:15.961
89.0, -832.0174130923115, -469.80249253381044, -532.8310264870524, -514.2605532570742, 0.6880000326782465, 0.7040000334382057, 0.3680000174790621, 0.0, 0.0, 0.0, 0.0, 0.0, 1.710395295961848E9, 0.0, 2024-03-13 22:48:15.961
90.0, -841.5279786796309, -477.2000146461651, -552.0915112588555, -522.9333812543191, 0.6880000326782465, 0.7040000334382057, 0.3840000182390213, 0.0, 0.0, 0.0, 0.0, 0.0, 1.7103952959777005E9, 0.0, 2024-03-13 22:48:15.977
90.0, -833.7228074721061, -465.0378599902615, -548.4675482017919, -519.1299029993825, 0.6880000326782465, 0.7040000334382057, 0.3840000182390213, 0.0, 0.0, 0.0, 0.0, 0.0, 1.7103952959777005E9, 0.0, 2024-03-13 22:48:15.977
91.0, -827.2752199484967, -468.24669415224344, -547.3904570145532, -519.2907186974771, 0.6880000326782465, 0.7040000334382057, 0.3840000182390213, 0.0, 0.0, 0.0, 0.0, 0.0, 1.7103952959786792E9, 0.0, 2024-03-13 22:48:15.978
91.0, -821.9421226116829, -468.94605544395745, -543.0072942664847, -519.3318575969897, 0.6880000326782465, 0.7040000334382057, 0.3840000182390213, 0.0, 0.0, 0.0, 0.0, 0.0, 1.7103952959786792E9, 0.0, 2024-03-13 22:48:15.978
92.0, -834.253873265814, -471.9230158086866, -562.7053473331034, -525.1137429284863, 0.6880000326782465, 0.7040000334382057, 0.3840000182390213, 0.0, 0.0, 0.0, 0.0, 0.0, 1.710395295991827E9, 0.0, 2024-03-13 22:48:15.991
92.0, -834.5381056624465, -471.54154601320624, -549.1631695935503, -521.6431157696061, 0.6880000326782465, 0.7040000334382057, 0.3840000182390213, 0.0, 0.0, 0.0, 0.0, 0.0, 1.710395295991827E9, 0.0, 2024-03-13 22:48:15.991
93.0, -833.3899563760497, -475.68535516411066, -540.060253101401, -522.3125578616746, 0.6880000326782465, 0.7040000334382057, 0.3840000182390213, 0.0, 0.0, 0.0, 0.0, 0.0, 1.7103952960078647E9, 0.0, 2024-03-13 22:48:16.007
93.0, -832.4475015872158, -478.310764933005, -538.6877098176628, -519.0925039998256, 0.6880000326782465, 0.7040000334382057, 0.3840000182390213, 0.0, 0.0, 0.0, 0.0, 0.0, 1.7103952960078647E9, 0.0, 2024-03-13 22:48:16.007
94.0, -835.8208913472481, -462.5134275201708, -551.0405993713066, -518.4866402070038, 0.6880000326782465, 0.7040000334382057, 0.3840000182390213, 0.0, 0.0, 0.0, 0.0, 0.0, 1.710395296008408E9, 0.0, 2024-03-13 22:48:16.008
94.0, -830.4092561113648, -462.5807457193732, -532.5093950908631, -514.7130811517127, 0.6880000326782465, 0.7040000334382057, 0.3840000182390213, 0.0, 0.0, 0.0, 0.0, 0.0, 1.710395296008408E9, 0.0, 2024-03-13 22:48:16.008
95.0, -829.7360741193406, -465.5464863842353, -531.2116498062387, -509.35754441516474, 0.6880000326782465, 0.7040000334382057, 0.3840000182390213, 0.0, 0.0, 0.0, 0.0, 0.0, 1.71039529602201E9, 0.0, 2024-03-13 22:48:16.022
95.0, -846.6965204183944, -482.2713189860806, -557.4620075952262, -526.8153974083252, 0.6880000326782465, 0.7040000334382057, 0.3840000182390213, 0.0, 0.0, 0.0, 0.0, 0.0, 1.71039529602201E9, 0.0, 2024-03-13 22:48:16.022
96.0, -840.0768974968232, -471.231134316884, -542.7230618698522, -518.9877868010662, 0.6880000326782465, 0.7040000334382057, 0.3840000182390213, 0.0, 0.0, 0.0, 0.0, 0.0, 1.7103952960379195E9, 0.0, 2024-03-13 22:48:16.037
96.0, -838.6968744131736, -475.27770606894046, -544.4920345488936, -523.6364824459888, 0.6880000326782465, 0.7040000334382057, 0.3840000182390213, 0.0, 0.0, 0.0, 0.0, 0.0, 1.7103952960379195E9, 0.0, 2024-03-13 22:48:16.037
97.0, -839.3737963051535, -477.46928744297475, -557.4994065947831, -530.2748048673384, 0.6880000326782465, 0.7040000334382057, 0.3840000182390213, 0.0, 0.0, 0.0, 0.0, 0.0, 1.7103952960385375E9, 0.0, 2024-03-13 22:48:16.038
97.0, -839.5233923033811, -477.5590450419113, -554.4738275306299, -523.875836043153, 0.6880000326782465, 0.7040000334382057, 0.3840000182390213, 0.0, 0.0, 0.0, 0.0, 0.0, 1.7103952960385375E9, 0.0, 2024-03-13 22:48:16.038
98.0, -837.619783225935, -479.4402147196233, -551.324831767939, -531.8306032489054, 0.6880000326782465, 0.7040000334382057, 0.3840000182390213, 0.0, 0.0, 0.0, 0.0, 0.0, 1.7103952960521746E9, 0.0, 2024-03-13 22:48:16.052
98.0, -835.8433307469822, -467.9699415555224, -549.2192680928856, -522.7389064566232, 0.6880000326782465, 0.7040000334382057, 0.3840000182390213, 0.0, 0.0, 0.0, 0.0, 0.0, 1.7103952960521746E9, 0.0, 2024-03-13 22:48:16.052
99.0, -839.7141272011213, -472.61863720044494, -553.7445470392704, -519.2907186974771, 0.6880000326782465, 0.7040000334382057, 0.3840000182390213, 0.0, 0.0, 0.0, 0.0, 0.0, 1.7103952960839324E9, 0.0, 2024-03-13 22:48:16.083
99.0, -833.229140677955, -465.815759181045, -536.5597067428753, -508.9611150198616, 0.6880000326782465, 0.7040000334382057, 0.3840000182390213, 0.0, 0.0, 0.0, 0.0, 0.0, 1.7103952960839324E9, 0.0, 2024-03-13 22:48:16.083
100.0, -838.4238617164083, -469.5294798370451, -541.2046624878421, -517.6002839175053, 0.6880000326782465, 0.7040000334382057, 0.3680000174790621, 0.0, 0.0, 0.0, 0.0, 0.0, 1.7103952960847113E9, 0.0, 2024-03-13 22:48:16.084
100.0, -843.842976752203, -467.9175829561427, -547.7719268100336, -514.2829926568083, 0.6880000326782465, 0.7040000334382057, 0.3680000174790621, 0.0, 0.0, 0.0, 0.0, 0.0, 1.7103952960847113E9, 0.0, 2024-03-13 22:48:16.084
0.0, -833.952811319381, -468.6206841478124, -536.72052244097, -512.5439391774125, 0.6880000326782465, 0.7040000334382057, 0.3680000174790621, 0.0, 0.0, 0.0, 0.0, 0.0, 1.710395296085748E9, 0.0, 2024-03-13 22:48:16.085
1.0, -840.0338886473328, -477.7871789392084, -536.9523962382227, -513.9351819609292, 0.6880000326782465, 0.7040000334382057, 0.3680000174790621, 0.0, 0.0, 0.0, 0.0, 0.0, 1.7103952960862503E9, 0.0, 2024-03-13 22:48:16.086
1.0, -851.7360356086865, -481.25032629817724, -552.121430458501, -521.6543354694732, 0.6880000326782465, 0.7040000334382057, 0.3680000174790621, 0.0, 0.0, 0.0, 0.0, 0.0, 1.7103952960862503E9, 0.0, 2024-03-13 22:48:16.086
2.0, -837.7824688740075, -470.2325810287148, -543.0259937662631, -512.5551588772796, 0.6880000326782465, 0.7040000334382057, 0.3680000174790621, 0.0, 0.0, 0.0, 0.0, 0.0, 1.7103952960969365E9, 0.0, 2024-03-13 22:48:16.096
2.0, -843.8859856016934, -477.7385602397844, -547.5587525125593, -523.296151550021, 0.6880000326782465, 0.7040000334382057, 0.3680000174790621, 0.0, 0.0, 0.0, 0.0, 0.0, 1.7103952960969365E9, 0.0, 2024-03-13 22:48:16.096
3.0, -847.8764588544145, -479.6795683167875, -554.0437390357256, -524.8108110320754, 0.6880000326782465, 0.7040000334382057, 0.3680000174790621, 0.0, 0.0, 0.0, 0.0, 0.0, 1.7103952961125364E9, 0.0, 2024-03-13 22:48:16.112
3.0, -856.9008374474943, -483.7074405690655, -559.2347201742232, -531.3780753542669, 0.6880000326782465, 0.7040000334382057, 0.3680000174790621, 0.0, 0.0, 0.0, 0.0, 0.0, 1.7103952961125364E9, 0.0, 2024-03-13 22:48:16.112
4.0, -843.1006066109985, -478.20604773424566, -546.2423077281564, -526.5124655119143, 0.6880000326782465, 0.7040000334382057, 0.3680000174790621, 0.0, 0.0, 0.0, 0.0, 0.0, 1.7103952961132417E9, 0.0, 2024-03-13 22:48:16.113
4.0, -845.3707258841023, -482.0469249887392, -559.9153819661587, -529.893335071858, 0.6880000326782465, 0.7040000334382057, 0.3680000174790621, 0.0, 0.0, 0.0, 0.0, 0.0, 1.7103952961132417E9, 0.0, 2024-03-13 22:48:16.113
5.0, -845.4006450837478, -468.87499734479934, -558.1090102875605, -523.2026540511288, 0.6880000326782465, 0.7040000334382057, 0.3680000174790621, 0.0, 0.0, 0.0, 0.0, 0.0, 1.7103952961274743E9, 0.0, 2024-03-13 22:48:16.127
5.0, -834.9364050077274, -460.2582678468898, -548.5947048002854, -513.7855859627016, 0.6880000326782465, 0.7040000334382057, 0.3680000174790621, 0.0, 0.0, 0.0, 0.0, 0.0, 1.7103952961274743E9, 0.0, 2024-03-13 22:48:16.127
6.0, -843.7363896034658, -477.42814854346216, -565.0540045052767, -534.4485332178883, 0.6880000326782465, 0.7040000334382057, 0.3680000174790621, 0.0, 0.0, 0.0, 0.0, 0.0, 1.7103952961425016E9, 0.0, 2024-03-13 22:48:16.142
6.0, -839.3868859549984, -467.9699415555224, -562.9746201299131, -530.6674943626858, 0.6880000326782465, 0.7040000334382057, 0.3680000174790621, 0.0, 0.0, 0.0, 0.0, 0.0, 1.7103952961425016E9, 0.0, 2024-03-13 22:48:16.142
7.0, -826.704885205254, -452.4381370395422, -544.4172365497798, -512.7084947754629, 0.6880000326782465, 0.7040000334382057, 0.3680000174790621, 0.0, 0.0, 0.0, 0.0, 0.0, 1.7103952961432304E9, 0.0, 2024-03-13 22:48:16.143
7.0, -842.7116570156068, -462.3039931226522, -537.1954897353426, -514.5709649533965, 0.6880000326782465, 0.7040000334382057, 0.3680000174790621, 0.0, 0.0, 0.0, 0.0, 0.0, 1.7103952961432304E9, 0.0, 2024-03-13 22:48:16.143
8.0, -832.5952276354656, -457.7375752767548, -540.5651395954192, -515.8238314385526, 0.6880000326782465, 0.7040000334382057, 0.3680000174790621, 0.0, 0.0, 0.0, 0.0, 0.0, 1.7103952961571925E9, 0.0, 2024-03-13 22:48:16.157
8.0, -829.2891560746357, -458.53417396731675, -543.6056782593951, -511.3696105913259, 0.6880000326782465, 0.7040000334382057, 0.3680000174790621, 0.0, 0.0, 0.0, 0.0, 0.0, 1.7103952961571925E9, 0.0, 2024-03-13 22:48:16.157
9.0, -833.9191522197798, -461.60837173089385, -536.9523962382227, -513.478914166335, 0.6880000326782465, 0.7040000334382057, 0.3680000174790621, 0.0, 0.0, 0.0, 0.0, 0.0, 1.710395296172501E9, 0.0, 2024-03-13 22:48:16.172
9.0, -832.7560433335602, -469.566878836602, -537.4572827322409, -513.7818460627459, 0.6880000326782465, 0.7040000334382057, 0.3680000174790621, 0.0, 0.0, 0.0, 0.0, 0.0, 1.710395296172501E9, 0.0, 2024-03-13 22:48:16.172
10.0, -840.0600679470226, -467.09106506593525, -551.3285716678947, -517.7760592154227, 0.6880000326782465, 0.7040000334382057, 0.3840000182390213, 0.0, 0.0, 0.0, 0.0, 0.0, 1.7103952961732283E9, 0.0, 2024-03-13 22:48:16.173
10.0, -839.7870552502573, -467.5922116599977, -538.7662477167323, -516.3174982327037, 0.6880000326782465, 0.7040000334382057, 0.3840000182390213, 0.0, 0.0, 0.0, 0.0, 0.0, 1.7103952961732283E9, 0.0, 2024-03-13 22:48:16.173
11.0, -847.1247389633209, -477.188794946298, -543.9983677547425, -525.1100030285306, 0.6880000326782465, 0.7040000334382057, 0.3840000182390213, 0.0, 0.0, 0.0, 0.0, 0.0, 1.7103952961873753E9, 0.0, 2024-03-13 22:48:16.187
11.0, -849.3686789367348, -485.016405553557, -564.8595297075808, -534.2615382201038, 0.6880000326782465, 0.7040000334382057, 0.3840000182390213, 0.0, 0.0, 0.0, 0.0, 0.0, 1.7103952961873753E9, 0.0, 2024-03-13 22:48:16.187
12.0, -854.6456777742133, -482.1516421874985, -560.4240083601326, -535.7724578022026, 0.6880000326782465, 0.7040000334382057, 0.3840000182390213, 0.0, 0.0, 0.0, 0.0, 0.0, 1.7103952962025247E9, 0.0, 2024-03-13 22:48:16.202
12.0, -870.7272475836799, -501.6851396560669, -563.1840545274317, -547.0594758684747, 0.6880000326782465, 0.7040000334382057, 0.3840000182390213, 0.0, 0.0, 0.0, 0.0, 0.0, 1.7103952962025247E9, 0.0, 2024-03-13 22:48:16.202
13.0, -872.3690636642277, -501.48318505845964, -576.3298028716817, -546.3002761774696, 0.6880000326782465, 0.7040000334382057, 0.3840000182390213, 0.0, 0.0, 0.0, 0.0, 0.0, 1.710395296203498E9, 0.0, 2024-03-13 22:48:16.203
13.0, -859.7768205134198, -489.25745210330933, -570.0355512462556, -530.0391911701299, 0.6880000326782465, 0.7040000334382057, 0.3840000182390213, 0.0, 0.0, 0.0, 0.0, 0.0, 1.710395296203498E9, 0.0, 2024-03-13 22:48:16.203
14.0, -859.5711260158569, -485.5923501467332, -563.3598298253492, -532.8702954365872, 0.6880000326782465, 0.7040000334382057, 0.3840000182390213, 0.0, 0.0, 0.0, 0.0, 0.0, 1.7103952962172713E9, 0.0, 2024-03-13 22:48:16.217
14.0, -854.769094472751, -479.65338901709765, -553.3256782442331, -529.2837313790806, 0.6880000326782465, 0.7040000334382057, 0.3840000182390213, 0.0, 0.0, 0.0, 0.0, 0.0, 1.7103952962172713E9, 0.0, 2024-03-13 22:48:16.217
15.0, -852.622391898185, -478.3294644327834, -562.7502261325717, -525.5288718235679, 0.6880000326782465, 0.7040000334382057, 0.3840000182390213, 0.0, 0.0, 0.0, 0.0, 0.0, 1.7103952962325072E9, 0.0, 2024-03-13 22:48:16.232
15.0, -839.0764742586762, -466.3356052748859, -543.8225924568251, -515.6929349401034, 0.6880000326782465, 0.7040000334382057, 0.3840000182390213, 0.0, 0.0, 0.0, 0.0, 0.0, 1.7103952962325072E9, 0.0, 2024-03-13 22:48:16.232
16.0, -841.6308259284124, -466.42910277377814, -535.1310649598017, -514.3390911561437, 0.6880000326782465, 0.7040000334382057, 0.3840000182390213, 0.0, 0.0, 0.0, 0.0, 0.0, 1.710395296233207E9, 0.0, 2024-03-13 22:48:16.233
16.0, -851.1563511155546, -470.64770992379636, -554.9974135244265, -523.5878637465648, 0.6880000326782465, 0.7040000334382057, 0.3840000182390213, 0.0, 0.0, 0.0, 0.0, 0.0, 1.710395296233207E9, 0.0, 2024-03-13 22:48:16.233
17.0, -842.64807871636, -468.82637864537537, -551.6090641645715, -517.9667941131629, 0.6880000326782465, 0.7040000334382057, 0.3840000182390213, 0.0, 0.0, 0.0, 0.0, 0.0, 1.7103952962468207E9, 0.0, 2024-03-13 22:48:16.246
17.0, -842.745316115208, -467.4164363620803, -542.3191526746377, -514.6569826523773, 0.6880000326782465, 0.7040000334382057, 0.3840000182390213, 0.0, 0.0, 0.0, 0.0, 0.0, 1.7103952962468207E9, 0.0, 2024-03-13 22:48:16.246
18.0, -832.6775054344907, -458.08912587258965, -530.3664324162528, -507.7755667339079, 0.6880000326782465, 0.7040000334382057, 0.3840000182390213, 0.0, 0.0, 0.0, 0.0, 0.0, 1.710395296262566E9, 0.0, 2024-03-13 22:48:16.262
18.0, -833.8331345207989, -464.0393067020923, -542.1097182771191, -505.4156898618676, 0.6880000326782465, 0.7040000334382057, 0.3840000182390213, 0.0, 0.0, 0.0, 0.0, 0.0, 1.710395296262566E9, 0.0, 2024-03-13 22:48:16.262
19.0, -843.0557278115302, -478.8306110268459, -538.3398991217837, -517.0804378236644, 0.6880000326782465, 0.7040000334382057, 0.3840000182390213, 0.0, 0.0, 0.0, 0.0, 0.0, 1.7103952962632885E9, 0.0, 2024-03-13 22:48:16.263
19.0, -847.2518955618143, -478.58003772981465, -547.5550126126036, -518.7484332039021, 0.6880000326782465, 0.7040000334382057, 0.3840000182390213, 0.0, 0.0, 0.0, 0.0, 0.0, 1.7103952962632885E9, 0.0, 2024-03-13 22:48:16.263
20.0, -849.5743734342977, -478.4828003309667, -557.9668940892443, -521.5458783707581, 0.6880000326782465, 0.7040000334382057, 0.3840000182390213, 0.0, 0.0, 0.0, 0.0, 0.0, 1.7103952962769089E9, 0.0, 2024-03-13 22:48:16.276
20.0, -848.1756508508697, -474.6718422761187, -547.9888410074636, -526.3778291135095, 0.6880000326782465, 0.7040000334382057, 0.3840000182390213, 0.0, 0.0, 0.0, 0.0, 0.0, 1.7103952962769089E9, 0.0, 2024-03-13 22:48:16.276
21.0, -849.45095673576, -476.72504735179245, -550.7975058741868, -527.4250011011027, 0.6880000326782465, 0.7040000334382057, 0.3840000182390213, 0.0, 0.0, 0.0, 0.0, 0.0, 1.71039529629255E9, 0.0, 2024-03-13 22:48:16.292
21.0, -841.0885404348373, -468.5608457485214, -560.1696951631457, -528.6741276863031, 0.6880000326782465, 0.7040000334382057, 0.3840000182390213, 0.0, 0.0, 0.0, 0.0, 0.0, 1.71039529629255E9, 0.0, 2024-03-13 22:48:16.292
22.0, -833.3319879267365, -459.75338135287166, -551.4594681663439, -521.3775828727521, 0.6880000326782465, 0.7040000334382057, 0.3840000182390213, 0.0, 0.0, 0.0, 0.0, 0.0, 1.7103952962933052E9, 0.0, 2024-03-13 22:48:16.293
22.0, -838.7511029625311, -463.13425091281533, -541.4178367853165, -522.9857398536988, 0.6880000326782465, 0.7040000334382057, 0.3840000182390213, 0.0, 0.0, 0.0, 0.0, 0.0, 1.7103952962933052E9, 0.0, 2024-03-13 22:48:16.293
23.0, -841.0212222356349, -468.31401235144585, -550.3262784797698, -524.5452781352215, 0.6880000326782465, 0.7040000334382057, 0.3840000182390213, 0.0, 0.0, 0.0, 0.0, 0.0, 1.710395296306867E9, 0.0, 2024-03-13 22:48:16.306
23.0, -836.4510644897819, -466.83301196899265, -551.4856474660337, -520.8539968789555, 0.6880000326782465, 0.7040000334382057, 0.3840000182390213, 0.0, 0.0, 0.0, 0.0, 0.0, 1.710395296306867E9, 0.0, 2024-03-13 22:48:16.306
24.0, -838.7473630625755, -469.3798838388175, -540.0752127012238, -520.667001881171, 0.6880000326782465, 0.7040000334382057, 0.3840000182390213, 0.0, 0.0, 0.0, 0.0, 0.0, 1.7103952963228571E9, 0.0, 2024-03-13 22:48:16.322
24.0, -840.5312953414395, -471.82951830979437, -540.108871800825, -517.5516652180813, 0.6880000326782465, 0.7040000334382057, 0.3840000182390213, 0.0, 0.0, 0.0, 0.0, 0.0, 1.7103952963228571E9, 0.0, 2024-03-13 22:48:16.322
25.0, -846.7021302683279, -466.05885267816484, -549.5483792889863, -519.3804762964137, 0.6880000326782465, 0.7040000334382057, 0.3840000182390213, 0.0, 0.0, 0.0, 0.0, 0.0, 1.7103952963233447E9, 0.0, 2024-03-13 22:48:16.323
25.0, -833.8817532202229, -466.42162297386676, -534.2409687703475, -512.3008456802927, 0.6880000326782465, 0.7040000334382057, 0.3840000182390213, 0.0, 0.0, 0.0, 0.0, 0.0, 1.7103952963233447E9, 0.0, 2024-03-13 22:48:16.323
26.0, -845.3969051837921, -475.62177686486393, -545.4419691376388, -523.8421769435517, 0.6880000326782465, 0.7040000334382057, 0.3840000182390213, 0.0, 0.0, 0.0, 0.0, 0.0, 1.7103952963372324E9, 0.0, 2024-03-13 22:48:16.337
26.0, -831.8322880445048, -466.7694336697459, -549.0472326949239, -517.1514959228225, 0.6880000326782465, 0.7040000334382057, 0.3840000182390213, 0.0, 0.0, 0.0, 0.0, 0.0, 1.7103952963372324E9, 0.0, 2024-03-13 22:48:16.337
27.0, -836.0546350944787, -457.78619397617877, -541.3841776857153, -515.8761900379322, 0.6880000326782465, 0.7040000334382057, 0.3840000182390213, 0.0, 0.0, 0.0, 0.0, 0.0, 1.7103952963533912E9, 0.0, 2024-03-13 22:48:16.353
27.0, -844.0729805994779, -473.1197837945074, -554.6944816280156, -530.5403377641924, 0.6880000326782465, 0.7040000334382057, 0.3840000182390213, 0.0, 0.0, 0.0, 0.0, 0.0, 1.7103952963533912E9, 0.0, 2024-03-13 22:48:16.353
28.0, -852.6336115980521, -481.24658639822155, -563.2999914260581, -530.099029569421, 0.6880000326782465, 0.7040000334382057, 0.3840000182390213, 0.0, 0.0, 0.0, 0.0, 0.0, 1.71039529635343E9, 0.0, 2024-03-13 22:48:16.353
28.0, -843.5643542055041, -465.92421627976, -552.6936351517215, -520.5922038820572, 0.6880000326782465, 0.7040000334382057, 0.3840000182390213, 0.0, 0.0, 0.0, 0.0, 0.0, 1.71039529635343E9, 0.0, 2024-03-13 22:48:16.353
29.0, -846.1972437743098, -473.35165759176016, -548.4600684018806, -522.9333812543191, 0.6880000326782465, 0.7040000334382057, 0.3840000182390213, 0.0, 0.0, 0.0, 0.0, 0.0, 1.7103952963668556E9, 0.0, 2024-03-13 22:48:16.366
29.0, -851.706116409041, -478.80443172715604, -563.2177136270329, -534.0221846229397, 0.6880000326782465, 0.7040000334382057, 0.3840000182390213, 0.0, 0.0, 0.0, 0.0, 0.0, 1.7103952963668556E9, 0.0, 2024-03-13 22:48:16.366
30.0, -844.8695792900398, -475.8274713624269, -564.99042620603, -531.6959668505006, 0.6880000326782465, 0.7040000334382057, 0.3840000182390213, 0.0, 0.0, 0.0, 0.0, 0.0, 1.7103952963825269E9, 0.0, 2024-03-13 22:48:16.382
30.0, -840.4938963418826, -474.90745597332716, -549.0734119946137, -525.973919918295, 0.6880000326782465, 0.7040000334382057, 0.3840000182390213, 0.0, 0.0, 0.0, 0.0, 0.0, 1.7103952963825269E9, 0.0, 2024-03-13 22:48:16.382
31.0, -854.1931498795748, -486.3141508381814, -552.5589987533167, -535.7350588026457, 0.6880000326782465, 0.7040000334382057, 0.3840000182390213, 0.0, 0.0, 0.0, 0.0, 0.0, 1.7103952963832822E9, 0.0, 2024-03-13 22:48:16.383
31.0, -846.8779055662453, -475.1916883699596, -548.8452780973166, -526.1048164167441, 0.6880000326782465, 0.7040000334382057, 0.3840000182390213, 0.0, 0.0, 0.0, 0.0, 0.0, 1.7103952963832822E9, 0.0, 2024-03-13 22:48:16.383
32.0, -842.8799525136128, -473.329218192026, -552.6599760521203, -525.166101527866, 0.6880000326782465, 0.7040000334382057, 0.3840000182390213, 0.0, 0.0, 0.0, 0.0, 0.0, 1.7103952963969753E9, 0.0, 2024-03-13 22:48:16.396
32.0, -849.2377824382856, -476.20520125795156, -542.3079329747707, -527.3801223016344, 0.6880000326782465, 0.7040000334382057, 0.3840000182390213, 0.0, 0.0, 0.0, 0.0, 0.0, 1.7103952963969753E9, 0.0, 2024-03-13 22:48:16.396
33.0, -851.1039925161749, -480.39388920832425, -550.6329502761364, -526.5910034109838, 0.6880000326782465, 0.7040000334382057, 0.3840000182390213, 0.0, 0.0, 0.0, 0.0, 0.0, 1.710395296412604E9, 0.0, 2024-03-13 22:48:16.412
33.0, -849.7688482319936, -473.72938748728484, -556.6018306054175, -528.2515189913101, 0.6880000326782465, 0.7040000334382057, 0.3840000182390213, 0.0, 0.0, 0.0, 0.0, 0.0, 1.710395296412604E9, 0.0, 2024-03-13 22:48:16.412
34.0, -846.4627766711637, -479.84412391483784, -550.1991218812764, -533.1096490337513, 0.6880000326782465, 0.7040000334382057, 0.3840000182390213, 0.0, 0.0, 0.0, 0.0, 0.0, 1.7103952964136276E9, 0.0, 2024-03-13 22:48:16.413
34.0, -854.0173745816574, -485.24827935080975, -561.3028848497197, -537.1936197853647, 0.6880000326782465, 0.7040000334382057, 0.3840000182390213, 0.0, 0.0, 0.0, 0.0, 0.0, 1.7103952964136276E9, 0.0, 2024-03-13 22:48:16.413
35.0, -847.5772668579593, -474.0360592836514, -552.0054935598746, -523.4981061476283, 0.6880000326782465, 0.7040000334382057, 0.3840000182390213, 0.0, 0.0, 0.0, 0.0, 0.0, 1.710395296426829E9, 0.0, 2024-03-13 22:48:16.426
35.0, -842.7228767154738, -473.61345058865845, -547.8841238087043, -521.631896069739, 0.6880000326782465, 0.7040000334382057, 0.3840000182390213, 0.0, 0.0, 0.0, 0.0, 0.0, 1.710395296426829E9, 0.0, 2024-03-13 22:48:16.426
36.0, -847.2444157619029, -480.91747520212084, -546.8668710207567, -532.0250780466013, 0.6880000326782465, 0.7040000334382057, 0.3840000182390213, 0.0, 0.0, 0.0, 0.0, 0.0, 1.7103952964427085E9, 0.0, 2024-03-13 22:48:16.442
36.0, -849.510795135051, -483.50922587141395, -553.1536428462714, -526.9687333065085, 0.6880000326782465, 0.7040000334382057, 0.3840000182390213, 0.0, 0.0, 0.0, 0.0, 0.0, 1.7103952964427085E9, 0.0, 2024-03-13 22:48:16.442
37.0, -844.6564049925655, -474.51102657802403, -543.0484331659973, -517.072958023753, 0.6880000326782465, 0.7040000334382057, 0.3840000182390213, 0.0, 0.0, 0.0, 0.0, 0.0, 1.710395296443686E9, 0.0, 2024-03-13 22:48:16.443
37.0, -851.9080710066482, -484.65363525785506, -549.2080483930185, -526.8153974083252, 0.6880000326782465, 0.7040000334382057, 0.3840000182390213, 0.0, 0.0, 0.0, 0.0, 0.0, 1.710395296443686E9, 0.0, 2024-03-13 22:48:16.443
38.0, -852.719629297033, -481.1493489993736, -555.618236917071, -526.5573443113826, 0.6880000326782465, 0.7040000334382057, 0.3840000182390213, 0.0, 0.0, 0.0, 0.0, 0.0, 1.7103952964568703E9, 0.0, 2024-03-13 22:48:16.456
38.0, -839.1699717575684, -469.4359823381528, -562.4024154366925, -524.3508033375256, 0.6880000326782465, 0.7040000334382057, 0.3840000182390213, 0.0, 0.0, 0.0, 0.0, 0.0, 1.7103952964568703E9, 0.0, 2024-03-13 22:48:16.456
39.0, -847.2144965622574, -468.179375953041, -544.402276949957, -524.0890103406273, 0.6880000326782465, 0.7040000334382057, 0.3840000182390213, 0.0, 0.0, 0.0, 0.0, 0.0, 1.7103952964725745E9, 0.0, 2024-03-13 22:48:16.472
39.0, -844.9668166888878, -483.1165363760665, -555.244246921502, -528.1393219926395, 0.6880000326782465, 0.7040000334382057, 0.3840000182390213, 0.0, 0.0, 0.0, 0.0, 0.0, 1.7103952964725745E9, 0.0, 2024-03-13 22:48:16.472
40.0, -849.3985981363803, -472.4765210021287, -558.4269017837942, -525.0389449293725, 0.6880000326782465, 0.7040000334382057, 0.3840000182390213, 0.0, 0.0, 0.0, 0.0, 0.0, 1.7103952964732845E9, 0.0, 2024-03-13 22:48:16.473
40.0, -839.899252248928, -475.91348906140774, -549.769033386372, -523.2587525504641, 0.6880000326782465, 0.7040000334382057, 0.3840000182390213, 0.0, 0.0, 0.0, 0.0, 0.0, 1.7103952964732845E9, 0.0, 2024-03-13 22:48:16.473
41.0, -848.7702949438244, -476.54927205387503, -545.8234389331192, -524.6013766345568, 0.6880000326782465, 0.7040000334382057, 0.3840000182390213, 0.0, 0.0, 0.0, 0.0, 0.0, 1.710395296487697E9, 0.0, 2024-03-13 22:48:16.487
41.0, -851.4555431120098, -476.84098425041884, -563.7562592206523, -528.0832234933041, 0.6880000326782465, 0.7040000334382057, 0.3840000182390213, 0.0, 0.0, 0.0, 0.0, 0.0, 1.710395296487697E9, 0.0, 2024-03-13 22:48:16.487
42.0, -842.0347351236269, -473.8154051862657, -552.0578521592543, -526.1796144158579, 0.6880000326782465, 0.7040000334382057, 0.3840000182390213, 0.0, 0.0, 0.0, 0.0, 0.0, 1.7103952965026033E9, 0.0, 2024-03-13 22:48:16.502
42.0, -850.150318027474, -482.88092267885804, -550.5132734775543, -528.5507109877653, 0.6880000326782465, 0.7040000334382057, 0.3840000182390213, 0.0, 0.0, 0.0, 0.0, 0.0, 1.7103952965026033E9, 0.0, 2024-03-13 22:48:16.502
43.0, -857.1140117449686, -486.35528973769397, -561.4038621485233, -534.2054397207685, 0.6880000326782465, 0.7040000334382057, 0.3840000182390213, 0.0, 0.0, 0.0, 0.0, 0.0, 1.7103952965032897E9, 0.0, 2024-03-13 22:48:16.503
43.0, -851.4705027118325, -480.9660939015448, -556.4522346071899, -530.0354512701742, 0.6880000326782465, 0.7040000334382057, 0.3840000182390213, 0.0, 0.0, 0.0, 0.0, 0.0, 1.7103952965032897E9, 0.0, 2024-03-13 22:48:16.503
44.0, -843.2988213086501, -474.68680187594146, -557.3610302964225, -530.1364285689779, 0.6880000326782465, 0.7040000334382057, 0.3840000182390213, 0.0, 0.0, 0.0, 0.0, 0.0, 1.710395296517028E9, 0.0, 2024-03-13 22:48:16.517
44.0, -839.693557751365, -478.2546664336696, -552.3832234553993, -528.1019229930826, 0.6880000326782465, 0.7040000334382057, 0.3840000182390213, 0.0, 0.0, 0.0, 0.0, 0.0, 1.710395296517028E9, 0.0, 2024-03-13 22:48:16.517
45.0, -826.0952815124765, -464.46939519699663, -541.0101876901463, -512.4990603779443, 0.6880000326782465, 0.7040000334382057, 0.3840000182390213, 0.0, 0.0, 0.0, 0.0, 0.0, 1.7103952965326865E9, 0.0, 2024-03-13 22:48:16.532
45.0, -840.0002295477316, -466.032673378475, -533.2050164826214, -510.79366599814966, 0.6880000326782465, 0.7040000334382057, 0.3840000182390213, 0.0, 0.0, 0.0, 0.0, 0.0, 1.7103952965326865E9, 0.0, 2024-03-13 22:48:16.532
46.0, -839.0166358593851, -466.8068326693028, -535.0787063604221, -516.6615690286271, 0.6880000326782465, 0.7040000334382057, 0.3840000182390213, 0.0, 0.0, 0.0, 0.0, 0.0, 1.710395296533662E9, 0.0, 2024-03-13 22:48:16.533
46.0, -838.186378069222, -462.2142355237156, -545.5541661363095, -520.4575674836524, 0.6880000326782465, 0.7040000334382057, 0.3840000182390213, 0.0, 0.0, 0.0, 0.0, 0.0, 1.710395296533662E9, 0.0, 2024-03-13 22:48:16.533
47.0, -835.665685499087, -463.71767530590296, -548.6695027993992, -519.1747817988507, 0.6880000326782465, 0.7040000334382057, 0.3840000182390213, 0.0, 0.0, 0.0, 0.0, 0.0, 1.7103952965469513E9, 0.0, 2024-03-13 22:48:16.546
47.0, -846.5787135697901, -473.90890268515795, -558.5278790825978, -533.9286871240474, 0.6880000326782465, 0.7040000334382057, 0.3840000182390213, 0.0, 0.0, 0.0, 0.0, 0.0, 1.7103952965469513E9, 0.0, 2024-03-13 22:48:16.546
48.0, -831.1478863526136, -464.90322359185666, -553.0676251472905, -525.4054551250301, 0.6880000326782465, 0.7040000334382057, 0.3840000182390213, 0.0, 0.0, 0.0, 0.0, 0.0, 1.710395296562552E9, 0.0, 2024-03-13 22:48:16.562
48.0, -837.5917339762673, -463.8410920044407, -550.1542430818081, -522.0208456651308, 0.6880000326782465, 0.7040000334382057, 0.3840000182390213, 0.0, 0.0, 0.0, 0.0, 0.0, 1.710395296562552E9, 0.0, 2024-03-13 22:48:16.562
49.0, -830.1942118639126, -463.7812536051497, -539.0467402134091, -519.7133273924701, 0.6880000326782465, 0.7040000334382057, 0.3840000182390213, 0.0, 0.0, 0.0, 0.0, 0.0, 1.7103952965632708E9, 0.0, 2024-03-13 22:48:16.563
49.0, -837.17286518123, -473.87524358555675, -554.2718729330227, -527.2716652029194, 0.6880000326782465, 0.7040000334382057, 0.3840000182390213, 0.0, 0.0, 0.0, 0.0, 0.0, 1.7103952965632708E9, 0.0, 2024-03-13 22:48:16.563
50.0, -835.3440541028976, -462.16187692433596, -554.8216382265091, -522.5855705584399, 0.6880000326782465, 0.7040000334382057, 0.3840000182390213, 0.0, 0.0, 0.0, 0.0, 0.0, 1.710395296576972E9, 0.0, 2024-03-13 22:48:16.576
50.0, -838.994196459651, -462.67798311822116, -541.3654781859368, -517.4058091198094, 0.6880000326782465, 0.7040000334382057, 0.3840000182390213, 0.0, 0.0, 0.0, 0.0, 0.0, 1.710395296576972E9, 0.0, 2024-03-13 22:48:16.576
51.0, -839.9179517487064, -472.1810689056292, -536.3240930456668, -519.967640589457, 0.6880000326782465, 0.7040000334382057, 0.3840000182390213, 0.0, 0.0, 0.0, 0.0, 0.0, 1.71039529659254E9, 0.0, 2024-03-13 22:48:16.592
51.0, -831.5480556478724, -465.69234248250723, -545.4008302381262, -516.4259553314187, 0.6880000326782465, 0.7040000334382057, 0.3840000182390213, 0.0, 0.0, 0.0, 0.0, 0.0, 1.71039529659254E9, 0.0, 2024-03-13 22:48:16.592
52.0, -834.1323265172541, -467.16960296500474, -549.0060937954113, -519.6834081928246, 0.6880000326782465, 0.7040000334382057, 0.3840000182390213, 0.0, 0.0, 0.0, 0.0, 0.0, 1.7103952965933173E9, 0.0, 2024-03-13 22:48:16.593
52.0, -835.3328344030306, -471.074058518745, -538.2239622231573, -521.7179137687199, 0.6880000326782465, 0.7040000334382057, 0.3840000182390213, 0.0, 0.0, 0.0, 0.0, 0.0, 1.7103952965933173E9, 0.0, 2024-03-13 22:48:16.593
53.0, -832.5802680356428, -466.09625167772174, -552.386963355355, -524.9903262299486, 0.6880000326782465, 0.7040000334382057, 0.3840000182390213, 0.0, 0.0, 0.0, 0.0, 0.0, 1.7103952966069448E9, 0.0, 2024-03-13 22:48:16.606
53.0, -840.5125958416611, -468.83759834524244, -552.6487563522533, -525.7719653206877, 0.6880000326782465, 0.7040000334382057, 0.3840000182390213, 0.0, 0.0, 0.0, 0.0, 0.0, 1.7103952966069448E9, 0.0, 2024-03-13 22:48:16.606
54.0, -844.7461625915021, -475.61429706495255, -550.7638467745855, -530.6113958633505, 0.6880000326782465, 0.7040000334382057, 0.3840000182390213, 0.0, 0.0, 0.0, 0.0, 0.0, 1.7103952966224544E9, 0.0, 2024-03-13 22:48:16.622
54.0, -842.3339271200821, -473.8266248861328, -551.2949125682935, -531.1910803564824, 0.6880000326782465, 0.7040000334382057, 0.3840000182390213, 0.0, 0.0, 0.0, 0.0, 0.0, 1.7103952966224544E9, 0.0, 2024-03-13 22:48:16.622
55.0, -825.485677819699, -454.79053411167115, -542.797859868966, -511.87449708534405, 0.6880000326782465, 0.7040000334382057, 0.3840000182390213, 0.0, 0.0, 0.0, 0.0, 0.0, 1.710395296638176E9, 0.0, 2024-03-13 22:48:16.638
55.0, -824.4871245315298, -460.2844471465796, -539.2823539106175, -517.132796423044, 0.6880000326782465, 0.7040000334382057, 0.3840000182390213, 0.0, 0.0, 0.0, 0.0, 0.0, 1.710395296638176E9, 0.0, 2024-03-13 22:48:16.638
56.0, -834.2220841161907, -471.16755601763725, -534.8692719629034, -521.0372519767843, 0.6880000326782465, 0.7040000334382057, 0.3840000182390213, 0.0, 0.0, 0.0, 0.0, 0.0, 1.7103952966383927E9, 0.0, 2024-03-13 22:48:16.638
56.0, -841.7617224268615, -469.0058938432485, -540.9092103913426, -519.1747817988507, 0.6880000326782465, 0.7040000334382057, 0.3840000182390213, 0.0, 0.0, 0.0, 0.0, 0.0, 1.7103952966383927E9, 0.0, 2024-03-13 22:48:16.638
57.0, -828.2382441870868, -458.63889116607606, -532.4645162913948, -512.2185678812675, 0.6880000326782465, 0.7040000334382057, 0.3840000182390213, 0.0, 0.0, 0.0, 0.0, 0.0, 1.710395296653241E9, 0.0, 2024-03-13 22:48:16.653
57.0, -827.3144888980314, -463.3249858105555, -533.1713573830202, -517.8171981149353, 0.6880000326782465, 0.7040000334382057, 0.3840000182390213, 0.0, 0.0, 0.0, 0.0, 0.0, 1.710395296653241E9, 0.0, 2024-03-13 22:48:16.653
58.0, -840.3106412440538, -468.5159669490531, -543.1344508649781, -520.992373177316, 0.6880000326782465, 0.7040000334382057, 0.3840000182390213, 0.0, 0.0, 0.0, 0.0, 0.0, 1.710395296653508E9, 0.0, 2024-03-13 22:48:16.653
58.0, -819.9356662854552, -452.2922809412703, -536.5073481434956, -509.0396529189311, 0.6880000326782465, 0.7040000334382057, 0.3840000182390213, 0.0, 0.0, 0.0, 0.0, 0.0, 1.710395296653508E9, 0.0, 2024-03-13 22:48:16.653
59.0, -824.352488133125, -455.9162439983338, -519.1317729493603, -503.6654166826047, 0.6880000326782465, 0.7040000334382057, 0.3840000182390213, 0.0, 0.0, 0.0, 0.0, 0.0, 1.7103952966669545E9, 0.0, 2024-03-13 22:48:16.666
59.0, -831.8397678444162, -470.94316202029586, -534.585039566271, -517.6414228170179, 0.6880000326782465, 0.7040000334382057, 0.3840000182390213, 0.0, 0.0, 0.0, 0.0, 0.0, 1.7103952966669545E9, 0.0, 2024-03-13 22:48:16.666
60.0, -832.7897024331614, -473.43019549082965, -542.0573596777394, -516.8897029259242, 0.6880000326782465, 0.7040000334382057, 0.3840000182390213, 0.0, 0.0, 0.0, 0.0, 0.0, 1.7103952966825256E9, 0.0, 2024-03-13 22:48:16.682
60.0, -822.5760356541723, -453.6274252254516, -530.448710215278, -507.0799453421496, 0.6880000326782465, 0.7040000334382057, 0.3840000182390213, 0.0, 0.0, 0.0, 0.0, 0.0, 1.7103952966825256E9, 0.0, 2024-03-13 22:48:16.682
61.0, -832.987917130813, -452.404477939941, -543.4037236617878, -518.0079330126755, 0.6880000326782465, 0.7040000334382057, 0.3840000182390213, 0.0, 0.0, 0.0, 0.0, 0.0, 1.71039529668326E9, 0.0, 2024-03-13 22:48:16.683
61.0, -829.8651006678119, -452.0566672440618, -547.7607071101665, -514.4699876545928, 0.6880000326782465, 0.7040000334382057, 0.3840000182390213, 0.0, 0.0, 0.0, 0.0, 0.0, 1.71039529668326E9, 0.0, 2024-03-13 22:48:16.683
62.0, -827.729617793113, -454.6633775131777, -546.3395451270044, -507.412796438206, 0.6880000326782465, 0.7040000334382057, 0.3840000182390213, 0.0, 0.0, 0.0, 0.0, 0.0, 1.710395296696994E9, 0.0, 2024-03-13 22:48:16.696
62.0, -827.4005065970123, -457.63659797795117, -542.1770364763215, -509.20420851698145, 0.6880000326782465, 0.7040000334382057, 0.3840000182390213, 0.0, 0.0, 0.0, 0.0, 0.0, 1.710395296696994E9, 0.0, 2024-03-13 22:48:16.696
63.0, -838.2349967686459, -459.1512574600056, -547.3380984151736, -519.0251858006231, 0.6880000326782465, 0.7040000334382057, 0.3840000182390213, 0.0, 0.0, 0.0, 0.0, 0.0, 1.7103952967126563E9, 0.0, 2024-03-13 22:48:16.712
63.0, -829.9174592671916, -457.5131812794134, -542.5734658716246, -511.332211591769, 0.6880000326782465, 0.7040000334382057, 0.3840000182390213, 0.0, 0.0, 0.0, 0.0, 0.0, 1.7103952967126563E9, 0.0, 2024-03-13 22:48:16.712
64.0, -841.9113184250891, -465.6287641832605, -535.6322115538642, -519.376736396458, 0.6880000326782465, 0.7040000334382057, 0.3840000182390213, 0.0, 0.0, 0.0, 0.0, 0.0, 1.7103952967132747E9, 0.0, 2024-03-13 22:48:16.713
64.0, -855.8798447595909, -482.91458177845925, -554.8291180264205, -533.4611996295862, 0.6880000326782465, 0.7040000334382057, 0.3840000182390213, 0.0, 0.0, 0.0, 0.0, 0.0, 1.7103952967132747E9, 0.0, 2024-03-13 22:48:16.713
65.0, -844.2711952971295, -475.3338045682758, -552.1737890578806, -525.285778326448, 0.6880000326782465, 0.7040000334382057, 0.3840000182390213, 0.0, 0.0, 0.0, 0.0, 0.0, 1.7103952967272856E9, 0.0, 2024-03-13 22:48:16.727
65.0, -832.1688790405169, -467.6632697591558, -535.6733504533768, -514.4475482548587, 0.6880000326782465, 0.7040000334382057, 0.3840000182390213, 0.0, 0.0, 0.0, 0.0, 0.0, 1.7103952967272856E9, 0.0, 2024-03-13 22:48:16.727
66.0, -850.258775126189, -482.47701348364353, -543.4149433616549, -523.2774520502426, 0.6880000326782465, 0.7040000334382057, 0.3840000182390213, 0.0, 0.0, 0.0, 0.0, 0.0, 1.7103952967426167E9, 0.0, 2024-03-13 22:48:16.742
66.0, -842.3414069199935, -472.02025320753455, -553.8904031375423, -517.8134582149796, 0.6880000326782465, 0.7040000334382057, 0.3840000182390213, 0.0, 0.0, 0.0, 0.0, 0.0, 1.7103952967426167E9, 0.0, 2024-03-13 22:48:16.742
67.0, -838.6725650634617, -464.52923359628767, -547.9327425081283, -512.4467017785646, 0.6880000326782465, 0.7040000334382057, 0.3840000182390213, 0.0, 0.0, 0.0, 0.0, 0.0, 1.71039529674328E9, 0.0, 2024-03-13 22:48:16.743
67.0, -844.7611221913248, -467.4164363620803, -540.0639930013567, -517.652642516885, 0.6880000326782465, 0.7040000334382057, 0.3840000182390213, 0.0, 0.0, 0.0, 0.0, 0.0, 1.71039529674328E9, 0.0, 2024-03-13 22:48:16.743
68.0, -833.313288426958, -458.50051486771554, -542.9923346666619, -516.4857937307097, 0.6880000326782465, 0.7040000334382057, 0.3840000182390213, 0.0, 0.0, 0.0, 0.0, 0.0, 1.71039529675728E9, 0.0, 2024-03-13 22:48:16.757
68.0, -831.5779748475179, -458.01806777343154, -544.8473250446841, -513.852904161904, 0.6880000326782465, 0.7040000334382057, 0.3840000182390213, 0.0, 0.0, 0.0, 0.0, 0.0, 1.71039529675728E9, 0.0, 2024-03-13 22:48:16.757
69.0, -821.4652853673324, -449.8089873706922, -528.4553435388952, -501.32049941038713, 0.6880000326782465, 0.7040000334382057, 0.3840000182390213, 0.0, 0.0, 0.0, 0.0, 0.0, 1.7103952967728376E9, 0.0, 2024-03-13 22:48:16.772
69.0, -824.1056547360495, -466.41788307391107, -536.080999548547, -506.83685184502974, 0.6880000326782465, 0.7040000334382057, 0.3840000182390213, 0.0, 0.0, 0.0, 0.0, 0.0, 1.7103952967728376E9, 0.0, 2024-03-13 22:48:16.772
70.0, -825.5417763190344, -452.34463954064995, -543.1045316653326, -507.24076104024425, 0.6880000326782465, 0.7040000334382057, 0.3840000182390213, 0.0, 0.0, 0.0, 0.0, 0.0, 1.710395296773314E9, 0.0, 2024-03-13 22:48:16.773
70.0, -822.9986443491653, -453.0028619328514, -534.5962592661381, -504.24510117573664, 0.6880000326782465, 0.7040000334382057, 0.3840000182390213, 0.0, 0.0, 0.0, 0.0, 0.0, 1.710395296773314E9, 0.0, 2024-03-13 22:48:16.773
71.0, -839.6075400523841, -469.35370453912765, -553.7894258387387, -521.8899491666816, 0.6880000326782465, 0.7040000334382057, 0.3840000182390213, 0.0, 0.0, 0.0, 0.0, 0.0, 1.710395296803276E9, 0.0, 2024-03-13 22:48:16.803
