%OpenBCI Raw EXG Data
%Number of channels = 4
%Sample Rate = 200 Hz
%Board = OpenBCI_GUI$BoardGanglionBLE
Sample Index, EXG Channel 0, EXG Channel 1, EXG Channel 2, EXG Channel 3, Accel Channel 0, Accel Channel 1, Accel Channel 2, Other, Other, Other, Other, Other, Timestamp, Other, Timestamp (Formatted)
4.0, 7.431181211955845, 6.918814918026328, 31.175806030631065, 16.792150801047683, 0.0, 0.0, 0.0, 0.0, 0.0, 0.0, 0.0, 0.0, 1.7103957729052844E9, 0.0, 2024-03-13 22:56:12.905
4.0, 16.49669870454818, 10.194967279210687, 22.716152330860496, 21.76995764207095, 0.0, 0.0, 0.0, 0.0, 0.0, 0.0, 0.0, 0.0, 1.7103957729052844E9, 0.0, 2024-03-13 22:56:12.905
5.0, -0.11219699867069721, 8.201600602827966, 28.1988456659019, 18.306810283102095, 0.0, 0.0, 0.0, 0.0, 0.0, 0.0, 0.0, 0.0, 1.7103957729187891E9, 0.0, 2024-03-13 22:56:12.918
5.0, 1.1967679858207703, 5.778145431540906, 20.820023053325713, 6.84027701895684, 0.0, 0.0, 0.0, 0.0, 0.0, 0.0, 0.0, 0.0, 1.7103957729187891E9, 0.0, 2024-03-13 22:56:12.918
6.0, 15.958153110928833, 11.316937265917659, 22.92932662833482, 13.28412464261055, 0.0, 0.0, 0.0, 0.0, 0.0, 0.0, 0.0, 0.0, 1.7103957729345057E9, 0.0, 2024-03-13 22:56:12.934
6.0, 0.40390919521450996, 5.766925731673837, -2.3897960716858506, 4.5664178458973765, 0.0, 0.0, 0.0, 0.0, 0.0, 0.0, 0.0, 0.0, 1.7103957729345057E9, 0.0, 2024-03-13 22:56:12.934
7.0, 1.4772604824975133, -1.5370988817885518, 8.4484339999035, -0.7965986905619502, 0.0, 0.0, 0.0, 0.0, 0.0, 0.0, 0.0, 0.0, 1.7103957729352565E9, 0.0, 2024-03-13 22:56:12.935
7.0, 13.119569044560194, 6.010019228793681, 26.9758983803913, 7.375082712620497, 0.0, 0.0, 0.0, 0.0, 0.0, 0.0, 0.0, 0.0, 1.7103957729352565E9, 0.0, 2024-03-13 22:56:12.935
8.0, -3.104116963222623, -6.1371758272871375, 6.193274326622486, -1.6829549800604582, 0.0, 0.0, 0.0, 0.0, 0.0, 0.0, 0.0, 0.0, 1.7103957729488094E9, 0.0, 2024-03-13 22:56:12.948
8.0, -8.598029998131096, -10.935467470437288, -5.658468632958829, -8.261439002119005, 0.0, 0.0, 0.0, 0.0, 0.0, 0.0, 0.0, 0.0, 1.7103957729488094E9, 0.0, 2024-03-13 22:56:12.948
9.0, 0.8788764895871282, -3.3285109605640173, 5.63976913318038, -6.376529424451292, 0.0, 0.0, 0.0, 0.0, 0.0, 0.0, 0.0, 0.0, 1.7103957729645407E9, 0.0, 2024-03-13 22:56:12.964
9.0, 7.685494408942759, 5.987579829059541, 3.7212004559114575, -2.1167833749204874, 0.0, 0.0, 0.0, 0.0, 0.0, 0.0, 0.0, 0.0, 1.7103957729645407E9, 0.0, 2024-03-13 22:56:12.964
10.0, 6.885155818425119, 6.204494026489556, 2.206540973857045, 0.321631396189332, 0.0, 0.0, 0.43200002051889896, 0.0, 0.0, 0.0, 0.0, 0.0, 1.7103957729654207E9, 0.0, 2024-03-13 22:56:12.965
10.0, -7.790211607702076, -8.721446696668863, 2.221500573679805, -12.524924951605499, 0.0, 0.0, 0.43200002051889896, 0.0, 0.0, 0.0, 0.0, 0.0, 1.7103957729654207E9, 0.0, 2024-03-13 22:56:12.965
11.0, -23.72592531889677, -17.944039987400174, -14.447233528830111, -23.512751021422446, 0.0, 0.6880000326782465, 0.43200002051889896, 0.0, 0.0, 0.0, 0.0, 0.0, 1.7103957730115356E9, 0.0, 2024-03-13 22:56:13.011
11.0, 1.7614928791299462, 1.570757981389761, -8.235259702429175, -3.911935353651643, 0.0, 0.6880000326782465, 0.43200002051889896, 0.0, 0.0, 0.0, 0.0, 0.0, 1.7103957730115356E9, 0.0, 2024-03-13 22:56:13.011
12.0, -1.929788377135992, -6.7430396201089025, -0.11967679858207703, -9.963093481957912, 0.6720000319182873, 0.6880000326782465, 0.43200002051889896, 0.0, 0.0, 0.0, 0.0, 0.0, 1.7103957730124793E9, 0.0, 2024-03-13 22:56:13.012
12.0, 21.508164645172656, 9.25625239033252, 26.54954978544265, 7.8276106072589755, 0.6720000319182873, 0.6880000326782465, 0.43200002051889896, 0.0, 0.0, 0.0, 0.0, 0.0, 1.7103957730124793E9, 0.0, 2024-03-13 22:56:13.012
13.0, -2.3523970721289515, -9.914474782533944, -8.06696420442313, -11.032704869285226, 0.6720000319182873, 0.6880000326782465, 0.43200002051889896, 0.0, 0.0, 0.0, 0.0, 0.0, 1.710395773013116E9, 0.0, 2024-03-13 22:56:13.013
13.0, -17.872981888242066, -31.314182328991592, -18.90145437605679, -30.091235043480992, 0.6720000319182873, 0.6880000326782465, 0.43200002051889896, 0.0, 0.0, 0.0, 0.0, 0.0, 1.710395773013116E9, 0.0, 2024-03-13 22:56:13.013
14.0, -16.90808769967407, -24.855375105515122, -18.721939178183675, -24.61228160839528, 0.6720000319182873, 0.6880000326782465, 0.43200002051889896, 0.0, 0.0, 0.0, 0.0, 0.0, 1.710395773013759E9, 0.0, 2024-03-13 22:56:13.013
14.0, -21.908333940431476, -16.88938819989562, -5.396675636060536, -13.508518639951944, 0.6720000319182873, 0.6880000326782465, 0.43200002051889896, 0.0, 0.0, 0.0, 0.0, 0.0, 1.710395773013759E9, 0.0, 2024-03-13 22:56:13.013
15.0, -7.442400911822915, 1.5071796821430326, 13.25794534292072, 1.5109195820987225, 0.6720000319182873, 0.6880000326782465, 0.43200002051889896, 0.0, 0.0, 0.0, 0.0, 0.0, 1.7103957730245261E9, 0.0, 2024-03-13 22:56:13.024
15.0, -0.38894959539175034, -1.7614928791299462, 14.750165425240993, -0.7853789906948805, 0.6720000319182873, 0.6880000326782465, 0.43200002051889896, 0.0, 0.0, 0.0, 0.0, 0.0, 1.7103957730245261E9, 0.0, 2024-03-13 22:56:13.024
16.0, -29.616267749108374, -32.27159671764821, -42.107533601112664, -43.663331982679665, 0.6720000319182873, 0.6880000326782465, 0.43200002051889896, 0.0, 0.0, 0.0, 0.0, 0.0, 1.7103957730252993E9, 0.0, 2024-03-13 22:56:13.025
16.0, -37.993643649853766, -32.6455867132172, -36.385486668907106, -37.978684050031006, 0.6720000319182873, 0.6880000326782465, 0.43200002051889896, 0.0, 0.0, 0.0, 0.0, 0.0, 1.7103957730252993E9, 0.0, 2024-03-13 22:56:13.025
17.0, -27.78371677082032, -25.476198498159647, -12.790457848459482, -22.334682535380125, 0.6720000319182873, 0.6880000326782465, 0.43200002051889896, 0.0, 0.0, 0.0, 0.0, 0.0, 1.7103957730545511E9, 0.0, 2024-03-13 22:56:13.054
17.0, -18.12729508522898, -26.91605998110026, -16.362062306143343, -21.440846445970237, 0.6720000319182873, 0.6880000326782465, 0.43200002051889896, 0.0, 0.0, 0.0, 0.0, 0.0, 1.7103957730545511E9, 0.0, 2024-03-13 22:56:13.054
18.0, -14.301377430558205, -17.607448991388083, -14.795044224709272, -16.54905730392784, 0.6720000319182873, 0.6880000326782465, 0.43200002051889896, 0.0, 0.0, 0.0, 0.0, 0.0, 1.7103957730711412E9, 0.0, 2024-03-13 22:56:13.071
18.0, -12.07239705696702, -18.0824162857607, -4.697314344346523, -17.28581759519875, 0.6720000319182873, 0.6880000326782465, 0.43200002051889896, 0.0, 0.0, 0.0, 0.0, 0.0, 1.7103957730711412E9, 0.0, 2024-03-13 22:56:13.071
19.0, -6.316691025160253, -12.86525584757328, 19.870088464580476, -3.822177754715085, 0.6720000319182873, 0.6880000326782465, 0.43200002051889896, 0.0, 0.0, 0.0, 0.0, 0.0, 1.7103957730718014E9, 0.0, 2024-03-13 22:56:13.071
19.0, -13.841369736008346, -12.173374355770648, 2.943301265127957, -9.592843386344612, 0.6720000319182873, 0.6880000326782465, 0.43200002051889896, 0.0, 0.0, 0.0, 0.0, 0.0, 1.7103957730718014E9, 0.0, 2024-03-13 22:56:13.071
20.0, -5.306918037123978, -5.905302030034363, -4.8917891420423985, -5.692127732560039, 0.6720000319182873, 0.6880000326782465, 0.41600001975893974, 0.0, 0.0, 0.0, 0.0, 0.0, 1.710395773072389E9, 0.0, 2024-03-13 22:56:13.072
20.0, -29.563909149728715, -29.32081565260887, -11.459053464233875, -21.631581343710423, 0.6720000319182873, 0.6880000326782465, 0.41600001975893974, 0.0, 0.0, 0.0, 0.0, 0.0, 1.710395773072389E9, 0.0, 2024-03-13 22:56:13.072
21.0, -31.893866822123528, -28.5316967619583, -14.828703324310482, -23.00412462744862, 0.6720000319182873, 0.6880000326782465, 0.41600001975893974, 0.0, 0.0, 0.0, 0.0, 0.0, 1.7103957730731015E9, 0.0, 2024-03-13 22:56:13.073
21.0, -21.455806045792997, -18.47136588115245, -6.223193526268005, -12.809157348237932, 0.6720000319182873, 0.6880000326782465, 0.41600001975893974, 0.0, 0.0, 0.0, 0.0, 0.0, 1.7103957730731015E9, 0.0, 2024-03-13 22:56:13.073
22.0, -5.2134205382317305, -18.003878386691213, 1.6605155803263187, -7.509719111025333, 0.6720000319182873, 0.6880000326782465, 0.41600001975893974, 0.0, 0.0, 0.0, 0.0, 0.0, 1.7103957730839877E9, 0.0, 2024-03-13 22:56:13.083
22.0, 1.5445786816999316, -14.89976142346859, -2.9881800645962358, -15.68888031411916, 0.6720000319182873, 0.6880000326782465, 0.41600001975893974, 0.0, 0.0, 0.0, 0.0, 0.0, 1.7103957730839877E9, 0.0, 2024-03-13 22:56:13.083
23.0, -5.557491334155202, -13.340223141945899, -3.941854553297162, -9.110396292060614, 0.6720000319182873, 0.6880000326782465, 0.41600001975893974, 0.0, 0.0, 0.0, 0.0, 0.0, 1.7103957730989027E9, 0.0, 2024-03-13 22:56:13.098
23.0, 26.744024583138525, 5.837983830831945, 23.73714501876384, 13.055990745313466, 0.6720000319182873, 0.6880000326782465, 0.41600001975893974, 0.0, 0.0, 0.0, 0.0, 0.0, 1.7103957730989027E9, 0.0, 2024-03-13 22:56:13.098
24.0, 1.7839322788640857, -15.505625216290355, 16.829549800604582, -6.0586379282176495, 0.6720000319182873, 0.6880000326782465, 0.41600001975893974, 0.0, 0.0, 0.0, 0.0, 0.0, 1.7103957731148553E9, 0.0, 2024-03-13 22:56:13.114
24.0, -16.201246608048677, -21.814836441539228, -1.2154674855992198, -6.253112725913525, 0.6720000319182873, 0.6880000326782465, 0.41600001975893974, 0.0, 0.0, 0.0, 0.0, 0.0, 1.7103957731148553E9, 0.0, 2024-03-13 22:56:13.114
25.0, -12.543624451383948, -14.335036530159414, 7.7490727081894875, 0.4338283948600292, 0.6720000319182873, 0.6880000326782465, 0.41600001975893974, 0.0, 0.0, 0.0, 0.0, 0.0, 1.7103957731156528E9, 0.0, 2024-03-13 22:56:13.115
25.0, -10.85318967141211, -24.9750519040972, -1.727833779528737, -16.43312040530145, 0.6720000319182873, 0.6880000326782465, 0.41600001975893974, 0.0, 0.0, 0.0, 0.0, 0.0, 1.7103957731156528E9, 0.0, 2024-03-13 22:56:13.115
26.0, -20.17302036099136, -31.467518227174878, -12.659561350010335, -20.012204662896693, 0.6720000319182873, 0.6880000326782465, 0.41600001975893974, 0.0, 0.0, 0.0, 0.0, 0.0, 1.7103957731289392E9, 0.0, 2024-03-13 22:56:13.128
26.0, 7.943547505885363, -10.516598675400019, -1.4249018831178546, -9.607802986167371, 0.6720000319182873, 0.6880000326782465, 0.41600001975893974, 0.0, 0.0, 0.0, 0.0, 0.0, 1.7103957731289392E9, 0.0, 2024-03-13 22:56:13.128
27.0, -3.8520969543606043, -19.29788377135992, -2.5206925701349974, -19.398861070163548, 0.6720000319182873, 0.6880000326782465, 0.41600001975893974, 0.0, 0.0, 0.0, 0.0, 0.0, 1.710395773144706E9, 0.0, 2024-03-13 22:56:13.144
27.0, 1.409942283295095, -14.641708326525986, 17.790704089216888, -6.922554817982018, 0.6720000319182873, 0.6880000326782465, 0.41600001975893974, 0.0, 0.0, 0.0, 0.0, 0.0, 1.710395773144706E9, 0.0, 2024-03-13 22:56:13.144
28.0, -14.90724122337997, -19.66439396701753, -9.432027688249946, -16.182547108270228, 0.6720000319182873, 0.6880000326782465, 0.41600001975893974, 0.0, 0.0, 0.0, 0.0, 0.0, 1.7103957731452167E9, 0.0, 2024-03-13 22:56:13.145
28.0, -19.33902267087251, -29.298376252874732, -24.16723351366818, -31.231904529966414, 0.6720000319182873, 0.6880000326782465, 0.41600001975893974, 0.0, 0.0, 0.0, 0.0, 0.0, 1.7103957731452167E9, 0.0, 2024-03-13 22:56:13.145
29.0, -7.577037310227752, -24.354228511452675, -8.306317801587284, -27.00207768008113, 0.6720000319182873, 0.6880000326782465, 0.41600001975893974, 0.0, 0.0, 0.0, 0.0, 0.0, 1.710395773158845E9, 0.0, 2024-03-13 22:56:13.158
29.0, -20.95091955177486, -29.623747549019754, -25.210665601305664, -30.281969941221178, 0.6720000319182873, 0.6880000326782465, 0.41600001975893974, 0.0, 0.0, 0.0, 0.0, 0.0, 1.710395773158845E9, 0.0, 2024-03-13 22:56:13.158
30.0, -23.32949592359364, -26.377514387480915, -16.747272001579404, -23.101362026296556, 0.6720000319182873, 0.6880000326782465, 0.41600001975893974, 0.0, 0.0, 0.0, 0.0, 0.0, 1.7103957731751144E9, 0.0, 2024-03-13 22:56:13.175
30.0, -11.186040767468512, -21.945732939988375, -10.325863777659833, -24.21211231313646, 0.6720000319182873, 0.6880000326782465, 0.41600001975893974, 0.0, 0.0, 0.0, 0.0, 0.0, 1.7103957731751144E9, 0.0, 2024-03-13 22:56:13.175
31.0, -8.998199293389916, -19.226825672201812, -1.5370988817885518, -18.97999227512628, 0.6720000319182873, 0.6880000326782465, 0.41600001975893974, 0.0, 0.0, 0.0, 0.0, 0.0, 1.7103957731754537E9, 0.0, 2024-03-13 22:56:13.175
31.0, -26.17929968982935, -34.61277408991009, -20.18797996081412, -28.10160826705396, 0.6720000319182873, 0.6880000326782465, 0.41600001975893974, 0.0, 0.0, 0.0, 0.0, 0.0, 1.7103957731754537E9, 0.0, 2024-03-13 22:56:13.175
32.0, -21.508164645172656, -32.791442811489105, -19.35398227069527, -30.027656744234264, 0.6720000319182873, 0.6880000326782465, 0.41600001975893974, 0.0, 0.0, 0.0, 0.0, 0.0, 1.710395773189228E9, 0.0, 2024-03-13 22:56:13.189
32.0, -15.079276621341705, -30.775636735372245, -4.83195074275136, -21.36604844685644, 0.6720000319182873, 0.6880000326782465, 0.41600001975893974, 0.0, 0.0, 0.0, 0.0, 0.0, 1.710395773189228E9, 0.0, 2024-03-13 22:56:13.189
33.0, -19.391381270252168, -27.35736817587167, -26.867441281676292, -22.98168522771448, 0.6720000319182873, 0.6880000326782465, 0.41600001975893974, 0.0, 0.0, 0.0, 0.0, 0.0, 1.7103957732045877E9, 0.0, 2024-03-13 22:56:13.204
33.0, -18.50128508079797, -26.261577488854527, -10.08651018049568, -22.716152330860496, 0.6720000319182873, 0.6880000326782465, 0.41600001975893974, 0.0, 0.0, 0.0, 0.0, 0.0, 1.7103957732045877E9, 0.0, 2024-03-13 22:56:13.204
34.0, -4.394382447935641, -19.78407076559961, 6.387749124318361, -13.198106943629682, 0.6720000319182873, 0.6880000326782465, 0.41600001975893974, 0.0, 0.0, 0.0, 0.0, 0.0, 1.710395773219473E9, 0.0, 2024-03-13 22:56:13.219
34.0, -23.209819125011563, -31.73305112402886, -20.027164262719452, -24.803016506135464, 0.6720000319182873, 0.6880000326782465, 0.41600001975893974, 0.0, 0.0, 0.0, 0.0, 0.0, 1.710395773219473E9, 0.0, 2024-03-13 22:56:13.219
35.0, 2.890942665748298, -13.119569044560194, -2.1429626746103168, -12.517445151694119, 0.6720000319182873, 0.6880000326782465, 0.41600001975893974, 0.0, 0.0, 0.0, 0.0, 0.0, 1.7103957732201924E9, 0.0, 2024-03-13 22:56:13.220
35.0, 16.47799920476973, -9.832196983508766, 2.849803766235709, -7.412481712177396, 0.6720000319182873, 0.6880000326782465, 0.41600001975893974, 0.0, 0.0, 0.0, 0.0, 0.0, 1.7103957732201924E9, 0.0, 2024-03-13 22:56:13.220
36.0, -23.624948020093143, -29.866841046139598, -10.804570971988142, -17.431673693470657, 0.6720000319182873, 0.6880000326782465, 0.41600001975893974, 0.0, 0.0, 0.0, 0.0, 0.0, 1.7103957732344964E9, 0.0, 2024-03-13 22:56:13.234
36.0, -11.122462468221784, -11.387995365075767, -7.038491716608405, -9.858376283198595, 0.6720000319182873, 0.6880000326782465, 0.41600001975893974, 0.0, 0.0, 0.0, 0.0, 0.0, 1.7103957732344964E9, 0.0, 2024-03-13 22:56:13.234
37.0, 5.426594835706055, -0.5348056936636567, 8.799984595738351, -2.9993997644633055, 0.6720000319182873, 0.6880000326782465, 0.41600001975893974, 0.0, 0.0, 0.0, 0.0, 0.0, 1.7103957732351933E9, 0.0, 2024-03-13 22:56:13.235
37.0, -5.950180829502642, -15.423347417265177, -3.736160055734217, -16.09652940928936, 0.6720000319182873, 0.6880000326782465, 0.41600001975893974, 0.0, 0.0, 0.0, 0.0, 0.0, 1.7103957732351933E9, 0.0, 2024-03-13 22:56:13.235
38.0, -1.3426240840926766, -9.731219684705138, -15.539284315891564, -12.412727952934802, 0.6720000319182873, 0.6880000326782465, 0.41600001975893974, 0.0, 0.0, 0.0, 0.0, 0.0, 1.7103957732489195E9, 0.0, 2024-03-13 22:56:13.248
38.0, 6.114736427552998, -8.526971898972988, -2.4346748711541295, -8.336237001232803, 0.6720000319182873, 0.6880000326782465, 0.41600001975893974, 0.0, 0.0, 0.0, 0.0, 0.0, 1.7103957732489195E9, 0.0, 2024-03-13 22:56:13.248
39.0, 21.953212739899755, -3.0442785639315844, 4.312104648910463, -6.612143121659756, 0.6720000319182873, 0.6880000326782465, 0.41600001975893974, 0.0, 0.0, 0.0, 0.0, 0.0, 1.7103957732646227E9, 0.0, 2024-03-13 22:56:13.264
39.0, 10.972866469994187, -6.197014226578176, 2.4645940707996488, -4.252266249619424, 0.6720000319182873, 0.6880000326782465, 0.41600001975893974, 0.0, 0.0, 0.0, 0.0, 0.0, 1.7103957732646227E9, 0.0, 2024-03-13 22:56:13.264
40.0, -16.1189688090235, -20.722785654477775, -10.247325878590345, -19.095929173752666, 0.6720000319182873, 0.6880000326782465, 0.41600001975893974, 0.0, 0.0, 0.0, 0.0, 0.0, 1.710395773265256E9, 0.0, 2024-03-13 22:56:13.265
40.0, 2.1167833749204874, -17.027764498256147, 4.716013844124973, -9.402108488604426, 0.6720000319182873, 0.6880000326782465, 0.41600001975893974, 0.0, 0.0, 0.0, 0.0, 0.0, 1.710395773265256E9, 0.0, 2024-03-13 22:56:13.265
41.0, 7.3040246134623885, -6.226933426223695, 6.159615227021277, -5.826764130964875, 0.6720000319182873, 0.6880000326782465, 0.41600001975893974, 0.0, 0.0, 0.0, 0.0, 0.0, 1.710395773278973E9, 0.0, 2024-03-13 22:56:13.278
41.0, -6.600923421792686, -16.50791840441525, -11.156121567822993, -19.189426672644913, 0.6720000319182873, 0.6880000326782465, 0.41600001975893974, 0.0, 0.0, 0.0, 0.0, 0.0, 1.710395773278973E9, 0.0, 2024-03-13 22:56:13.278
42.0, -2.4384147711098194, -25.629534396342933, -9.948133882135153, -20.08700266201049, 0.6880000326782465, 0.6880000326782465, 0.41600001975893974, 0.0, 0.0, 0.0, 0.0, 0.0, 1.710395773310888E9, 0.0, 2024-03-13 22:56:13.310
42.0, 4.143809150904417, -12.85029624775052, 9.117876091971993, -3.2798922611400485, 0.6880000326782465, 0.6880000326782465, 0.41600001975893974, 0.0, 0.0, 0.0, 0.0, 0.0, 1.710395773310888E9, 0.0, 2024-03-13 22:56:13.310
43.0, -14.245278931222856, -17.024024598300457, -12.334190053865314, -13.946086934767663, 0.6880000326782465, 0.6880000326782465, 0.41600001975893974, 0.0, 0.0, 0.0, 0.0, 0.0, 1.7103957733115819E9, 0.0, 2024-03-13 22:56:13.311
43.0, -11.64978836197406, -29.223578253760934, -13.519738339819014, -17.558830291964114, 0.6880000326782465, 0.6880000326782465, 0.41600001975893974, 0.0, 0.0, 0.0, 0.0, 0.0, 1.7103957733115819E9, 0.0, 2024-03-13 22:56:13.311
44.0, -9.147795291617513, -25.528557097539306, -12.225732955150306, -23.969018816016614, 0.6880000326782465, 0.6880000326782465, 0.41600001975893974, 0.0, 0.0, 0.0, 0.0, 0.0, 1.710395773312415E9, 0.0, 2024-03-13 22:56:13.312
44.0, 12.958753346465528, 5.22090033814311, 12.143455156125128, 8.295098101720214, 0.6880000326782465, 0.6880000326782465, 0.41600001975893974, 0.0, 0.0, 0.0, 0.0, 0.0, 1.710395773312415E9, 0.0, 2024-03-13 22:56:13.312
45.0, 5.609849933534861, -1.21172758564353, 2.2289803735911846, 0.24309349711984396, 0.6880000326782465, 0.6880000326782465, 0.41600001975893974, 0.0, 0.0, 0.0, 0.0, 0.0, 1.7103957733131127E9, 0.0, 2024-03-13 22:56:13.313
45.0, 1.1369295865297318, -15.038137721829116, 20.15058096125722, -3.6015236573293805, 0.6880000326782465, 0.6880000326782465, 0.41600001975893974, 0.0, 0.0, 0.0, 0.0, 0.0, 1.7103957733131127E9, 0.0, 2024-03-13 22:56:13.313
46.0, 12.229472855105996, -3.302331660874188, 14.398614829406142, 2.3561369720846415, 0.6880000326782465, 0.6880000326782465, 0.41600001975893974, 0.0, 0.0, 0.0, 0.0, 0.0, 1.710395773324071E9, 0.0, 2024-03-13 22:56:13.324
46.0, -13.818930336274207, -27.544363173656166, -14.589349727146327, -15.094236221164465, 0.6880000326782465, 0.6880000326782465, 0.41600001975893974, 0.0, 0.0, 0.0, 0.0, 0.0, 1.710395773324071E9, 0.0, 2024-03-13 22:56:13.324
47.0, -6.477506723254919, -20.18797996081412, 0.684401691891253, -13.085909944958985, 0.6880000326782465, 0.6880000326782465, 0.41600001975893974, 0.0, 0.0, 0.0, 0.0, 0.0, 1.7103957733391907E9, 0.0, 2024-03-13 22:56:13.339
47.0, -11.967679858207703, -29.156260054558516, -2.8273643665015697, -20.378714858554304, 0.6880000326782465, 0.6880000326782465, 0.41600001975893974, 0.0, 0.0, 0.0, 0.0, 0.0, 1.7103957733391907E9, 0.0, 2024-03-13 22:56:13.339
48.0, -2.5655713696032763, -11.634828762151301, -3.657622156664729, -9.981792981736362, 0.6880000326782465, 0.6880000326782465, 0.41600001975893974, 0.0, 0.0, 0.0, 0.0, 0.0, 1.7103957733549156E9, 0.0, 2024-03-13 22:56:13.354
48.0, -24.88903420511633, -31.172066130675375, -12.07613695692271, -23.987718315795064, 0.6880000326782465, 0.6880000326782465, 0.41600001975893974, 0.0, 0.0, 0.0, 0.0, 0.0, 1.7103957733549156E9, 0.0, 2024-03-13 22:56:13.354
49.0, -21.571742944419384, -36.93899186234921, -9.6713812854141, -29.305856052786112, 0.6880000326782465, 0.6880000326782465, 0.41600001975893974, 0.0, 0.0, 0.0, 0.0, 0.0, 1.7103957733551676E9, 0.0, 2024-03-13 22:56:13.355
49.0, -15.71505961380899, -34.59407459013164, -13.456160040572286, -21.489465145394206, 0.6880000326782465, 0.6880000326782465, 0.41600001975893974, 0.0, 0.0, 0.0, 0.0, 0.0, 1.7103957733551676E9, 0.0, 2024-03-13 22:56:13.355
50.0, -23.456652522087097, -34.48561749141663, -11.948980358429253, -25.917506692931056, 0.6880000326782465, 0.6880000326782465, 0.41600001975893974, 0.0, 0.0, 0.0, 0.0, 0.0, 1.7103957733688495E9, 0.0, 2024-03-13 22:56:13.368
50.0, -19.454959569498897, -29.72846474777907, -2.5954905692487955, -20.849942252971232, 0.6880000326782465, 0.6880000326782465, 0.41600001975893974, 0.0, 0.0, 0.0, 0.0, 0.0, 1.7103957733688495E9, 0.0, 2024-03-13 22:56:13.368
51.0, -29.122600954957306, -39.54944203142077, -24.99749130383134, -31.160846430808306, 0.6880000326782465, 0.6880000326782465, 0.41600001975893974, 0.0, 0.0, 0.0, 0.0, 0.0, 1.7103957733842866E9, 0.0, 2024-03-13 22:56:13.384
51.0, -8.167941503226757, -19.481138869188726, -15.950673311017454, -13.527218139730394, 0.6880000326782465, 0.6880000326782465, 0.41600001975893974, 0.0, 0.0, 0.0, 0.0, 0.0, 1.7103957733842866E9, 0.0, 2024-03-13 22:56:13.384
52.0, -9.495605987496674, -19.76537126582116, 0.9873335883021355, -6.705640620552003, 0.6880000326782465, 0.6880000326782465, 0.41600001975893974, 0.0, 0.0, 0.0, 0.0, 0.0, 1.7103957734159422E9, 0.0, 2024-03-13 22:56:13.415
52.0, -20.401154258288443, -32.25663711782545, 2.861023466102779, -11.137422068044543, 0.6880000326782465, 0.6880000326782465, 0.41600001975893974, 0.0, 0.0, 0.0, 0.0, 0.0, 1.7103957734159422E9, 0.0, 2024-03-13 22:56:13.415
53.0, -12.90639474708587, -11.343116565607488, 9.963093481957912, 2.1616621743887663, 0.6880000326782465, 0.6880000326782465, 0.41600001975893974, 0.0, 0.0, 0.0, 0.0, 0.0, 1.7103957734165995E9, 0.0, 2024-03-13 22:56:13.416
53.0, -33.78625619970262, -36.09751437231898, -3.586564057506621, -17.77200458943844, 0.6880000326782465, 0.6880000326782465, 0.41600001975893974, 0.0, 0.0, 0.0, 0.0, 0.0, 1.7103957734165995E9, 0.0, 2024-03-13 22:56:13.416
54.0, -38.887479739263654, -44.22057707607746, -15.505625216290355, -27.215251977555454, 0.6880000326782465, 0.6880000326782465, 0.41600001975893974, 0.0, 0.0, 0.0, 0.0, 0.0, 1.7103957734173048E9, 0.0, 2024-03-13 22:56:13.417
54.0, -24.91147360485047, -30.349288140423596, -14.45471332874149, -15.31115041859448, 0.6880000326782465, 0.6880000326782465, 0.41600001975893974, 0.0, 0.0, 0.0, 0.0, 0.0, 1.7103957734173048E9, 0.0, 2024-03-13 22:56:13.417
55.0, -9.6339822858572, -14.148041532374918, 5.164801838807762, -0.9536744887009263, 0.6880000326782465, 0.6880000326782465, 0.41600001975893974, 0.0, 0.0, 0.0, 0.0, 0.0, 1.710395773418111E9, 0.0, 2024-03-13 22:56:13.418
55.0, -2.7937052669003606, -19.918707164004445, 12.132235456258059, -8.43721430003643, 0.6880000326782465, 0.6880000326782465, 0.41600001975893974, 0.0, 0.0, 0.0, 0.0, 0.0, 1.710395773418111E9, 0.0, 2024-03-13 22:56:13.418
56.0, -6.933774517849088, -20.434813357889652, -4.966587141156197, -15.090496321208775, 0.6880000326782465, 0.6880000326782465, 0.41600001975893974, 0.0, 0.0, 0.0, 0.0, 0.0, 1.7103957734288797E9, 0.0, 2024-03-13 22:56:13.428
56.0, 5.796844931319356, -0.5909041929990053, 22.416960334405303, 7.846310107037425, 0.6880000326782465, 0.6880000326782465, 0.41600001975893974, 0.0, 0.0, 0.0, 0.0, 0.0, 1.7103957734288797E9, 0.0, 2024-03-13 22:56:13.428
57.0, -25.984824892133474, -31.138407031074166, -4.2859253492206335, -22.1589072374627, 0.6880000326782465, 0.6880000326782465, 0.41600001975893974, 0.0, 0.0, 0.0, 0.0, 0.0, 1.7103957734442668E9, 0.0, 2024-03-13 22:56:13.444
57.0, -24.1971527133137, -28.355921464040875, -1.368803383782506, -16.227425907738507, 0.6880000326782465, 0.6880000326782465, 0.41600001975893974, 0.0, 0.0, 0.0, 0.0, 0.0, 1.7103957734442668E9, 0.0, 2024-03-13 22:56:13.444
58.0, -6.8552366187796, -4.876829542219639, 8.010865705087781, 1.8063716785982251, 0.6880000326782465, 0.6880000326782465, 0.41600001975893974, 0.0, 0.0, 0.0, 0.0, 0.0, 1.710395773475914E9, 0.0, 2024-03-13 22:56:13.475
58.0, -8.108103103935719, -9.132835691794753, 11.926540958695114, 5.22838013805449, 0.6880000326782465, 0.6880000326782465, 0.41600001975893974, 0.0, 0.0, 0.0, 0.0, 0.0, 1.710395773475914E9, 0.0, 2024-03-13 22:56:13.475
59.0, -15.864655612036586, -17.510211592540145, 13.474859540350735, -1.5931973811239004, 0.6880000326782465, 0.6880000326782465, 0.41600001975893974, 0.0, 0.0, 0.0, 0.0, 0.0, 1.7103957734768543E9, 0.0, 2024-03-13 22:56:13.476
59.0, -19.27544437162578, -18.635921479202807, -7.7453328082337976, -8.167941503226757, 0.6880000326782465, 0.6880000326782465, 0.41600001975893974, 0.0, 0.0, 0.0, 0.0, 0.0, 1.7103957734768543E9, 0.0, 2024-03-13 22:56:13.476
60.0, -4.84317044261843, -2.659068868495524, 14.290157730691135, 11.997599057853222, 0.6880000326782465, 0.6880000326782465, 0.41600001975893974, 0.0, 0.0, 0.0, 0.0, 0.0, 1.7103957734775023E9, 0.0, 2024-03-13 22:56:13.477
60.0, 1.9036090774461627, 3.7660792553797364, 27.506964174099267, 14.619268926791847, 0.6880000326782465, 0.6880000326782465, 0.41600001975893974, 0.0, 0.0, 0.0, 0.0, 0.0, 1.7103957734775023E9, 0.0, 2024-03-13 22:56:13.477
61.0, -2.8385840663686395, -7.285325113683939, 6.986133117228746, -0.03739899955689907, 0.6880000326782465, 0.6880000326782465, 0.41600001975893974, 0.0, 0.0, 0.0, 0.0, 0.0, 1.7103957734781263E9, 0.0, 2024-03-13 22:56:13.478
61.0, -10.46050017606467, -14.260238531045616, -13.863809135742486, -10.632535574026406, 0.6880000326782465, 0.6880000326782465, 0.41600001975893974, 0.0, 0.0, 0.0, 0.0, 0.0, 1.7103957734781263E9, 0.0, 2024-03-13 22:56:13.478
62.0, -8.755105796270072, -16.87442860007286, -0.022439399734139442, -12.517445151694119, 0.6880000326782465, 0.6880000326782465, 0.41600001975893974, 0.0, 0.0, 0.0, 0.0, 0.0, 1.7103957734888344E9, 0.0, 2024-03-13 22:56:13.488
62.0, -11.833043459802866, -25.595875296741724, -15.29245091881603, -23.909180416725576, 0.6880000326782465, 0.6880000326782465, 0.41600001975893974, 0.0, 0.0, 0.0, 0.0, 0.0, 1.7103957734888344E9, 0.0, 2024-03-13 22:56:13.488
63.0, 2.288818772882223, -8.781285095959902, 3.6912812562659383, -4.226086949929595, 0.6880000326782465, 0.6880000326782465, 0.41600001975893974, 0.0, 0.0, 0.0, 0.0, 0.0, 1.7103957735048704E9, 0.0, 2024-03-13 22:56:13.504
63.0, 18.673320478759706, 7.722893408499658, 32.791442811489105, 18.49754518084228, 0.6880000326782465, 0.6880000326782465, 0.41600001975893974, 0.0, 0.0, 0.0, 0.0, 0.0, 1.7103957735048704E9, 0.0, 2024-03-13 22:56:13.504
64.0, -13.325263542123139, -22.446879534050822, -1.002293188124895, -13.463639840483665, 0.6880000326782465, 0.6880000326782465, 0.41600001975893974, 0.0, 0.0, 0.0, 0.0, 0.0, 1.7103957735054579E9, 0.0, 2024-03-13 22:56:13.505
64.0, -29.201138854026794, -33.72267790045589, -19.67935356684029, -21.960692539811134, 0.6880000326782465, 0.6880000326782465, 0.41600001975893974, 0.0, 0.0, 0.0, 0.0, 0.0, 1.7103957735054579E9, 0.0, 2024-03-13 22:56:13.505
65.0, -26.51215078588575, -33.29632930550724, -20.629288155585527, -23.501531321555376, 0.6880000326782465, 0.6880000326782465, 0.41600001975893974, 0.0, 0.0, 0.0, 0.0, 0.0, 1.7103957735188768E9, 0.0, 2024-03-13 22:56:13.518
65.0, -17.70094649028033, -22.94802612811327, 2.535652169957757, -12.390288553200662, 0.6880000326782465, 0.6880000326782465, 0.41600001975893974, 0.0, 0.0, 0.0, 0.0, 0.0, 1.7103957735188768E9, 0.0, 2024-03-13 22:56:13.518
66.0, -10.288464778102934, -13.209326643496752, -6.125956127420068, -6.772958819754422, 0.6880000326782465, 0.6880000326782465, 0.41600001975893974, 0.0, 0.0, 0.0, 0.0, 0.0, 1.7103957735345337E9, 0.0, 2024-03-13 22:56:13.534
66.0, 3.141515962779522, 6.182054626755416, 13.837629836052656, 12.341669853776693, 0.6880000326782465, 0.6880000326782465, 0.41600001975893974, 0.0, 0.0, 0.0, 0.0, 0.0, 1.7103957735345337E9, 0.0, 2024-03-13 22:56:13.534
67.0, -12.8951750472188, -7.692974208854139, 7.846310107037425, 0.2543131969869137, 0.6880000326782465, 0.6880000326782465, 0.41600001975893974, 0.0, 0.0, 0.0, 0.0, 0.0, 1.7103957735352428E9, 0.0, 2024-03-13 22:56:13.535
67.0, -5.112443239428103, 1.2566063851118088, 11.380515565164387, 4.873089642263949, 0.6880000326782465, 0.6880000326782465, 0.41600001975893974, 0.0, 0.0, 0.0, 0.0, 0.0, 1.7103957735352428E9, 0.0, 2024-03-13 22:56:13.535
68.0, 1.7764524789527059, 4.581377445720136, 2.890942665748298, 6.795398219488561, 0.6880000326782465, 0.6880000326782465, 0.41600001975893974, 0.0, 0.0, 0.0, 0.0, 0.0, 1.7103957735489197E9, 0.0, 2024-03-13 22:56:13.548
68.0, 15.748718713410199, 14.47715272847563, 22.353382035158575, 22.91062712855637, 0.6880000326782465, 0.6880000326782465, 0.41600001975893974, 0.0, 0.0, 0.0, 0.0, 0.0, 1.7103957735489197E9, 0.0, 2024-03-13 22:56:13.548
69.0, 30.106194643303752, 27.73883797135204, 40.58913421910256, 31.32914192881435, 0.6880000326782465, 0.6880000326782465, 0.41600001975893974, 0.0, 0.0, 0.0, 0.0, 0.0, 1.7103957735647335E9, 0.0, 2024-03-13 22:56:13.564
69.0, 20.93222005199641, 23.138761025853455, 23.81194301787764, 22.716152330860496, 0.6880000326782465, 0.6880000326782465, 0.41600001975893974, 0.0, 0.0, 0.0, 0.0, 0.0, 1.7103957735647335E9, 0.0, 2024-03-13 22:56:13.564
70.0, 16.743532101623714, 16.006771810352802, 15.393428217619658, 18.258191583678126, 0.6880000326782465, 0.6880000326782465, 0.4000000189989805, 0.0, 0.0, 0.0, 0.0, 0.0, 1.7103957735652847E9, 0.0, 2024-03-13 22:56:13.565
70.0, 11.537591363303363, 5.075044239871204, 23.883001117035747, 12.147195056080818, 0.6880000326782465, 0.6880000326782465, 0.4000000189989805, 0.0, 0.0, 0.0, 0.0, 0.0, 1.7103957735652847E9, 0.0, 2024-03-13 22:56:13.565
71.0, 1.529619081877172, -6.993612917140126, 2.4683339707553387, -1.4249018831178546, 0.6880000326782465, 0.6880000326782465, 0.4000000189989805, 0.0, 0.0, 0.0, 0.0, 0.0, 1.7103957735788672E9, 0.0, 2024-03-13 22:56:13.578
71.0, 11.014005369506776, -0.7517198910936713, 6.125956127420068, 1.888649477623403, 0.6880000326782465, 0.6880000326782465, 0.4000000189989805, 0.0, 0.0, 0.0, 0.0, 0.0, 1.7103957735788672E9, 0.0, 2024-03-13 22:56:13.578
72.0, -1.61189688090235, -7.965986905619502, 20.812543253414333, 2.8348441664129496, 0.6880000326782465, 0.6880000326782465, 0.4000000189989805, 0.0, 0.0, 0.0, 0.0, 0.0, 1.7103957735945199E9, 0.0, 2024-03-13 22:56:13.594
72.0, -1.768972679041326, -12.581023450940847, 9.820977283641696, -3.5529049579054117, 0.6880000326782465, 0.6880000326782465, 0.4000000189989805, 0.0, 0.0, 0.0, 0.0, 0.0, 1.7103957735945199E9, 0.0, 2024-03-13 22:56:13.594
73.0, -3.859576754271984, -12.812897248193622, 3.096637163311243, 3.4332281593233347, 0.6880000326782465, 0.6880000326782465, 0.4000000189989805, 0.0, 0.0, 0.0, 0.0, 0.0, 1.710395773595278E9, 0.0, 2024-03-13 22:56:13.595
73.0, -13.66185453813523, -21.71011924277991, 1.1780684860423207, -4.82073104288429, 0.6880000326782465, 0.6880000326782465, 0.4000000189989805, 0.0, 0.0, 0.0, 0.0, 0.0, 1.710395773595278E9, 0.0, 2024-03-13 22:56:13.595
74.0, -3.504286258481443, -13.190627143718302, 6.649542121216655, -1.9559676768258214, 0.6880000326782465, 0.6880000326782465, 0.4000000189989805, 0.0, 0.0, 0.0, 0.0, 0.0, 1.7103957736254368E9, 0.0, 2024-03-13 22:56:13.625
74.0, -8.03330510482192, -11.178560967557132, -0.8601769898086786, -1.5370988817885518, 0.6880000326782465, 0.6880000326782465, 0.4000000189989805, 0.0, 0.0, 0.0, 0.0, 0.0, 1.7103957736254368E9, 0.0, 2024-03-13 22:56:13.625
75.0, -1.2977452846243978, -4.3682031482458115, 4.656175444833934, 6.088557127863169, 0.6880000326782465, 0.6880000326782465, 0.4000000189989805, 0.0, 0.0, 0.0, 0.0, 0.0, 1.710395773625966E9, 0.0, 2024-03-13 22:56:13.625
75.0, 18.684540178626776, 11.541331263259053, 21.534343944862485, 16.43312040530145, 0.6880000326782465, 0.6880000326782465, 0.4000000189989805, 0.0, 0.0, 0.0, 0.0, 0.0, 1.710395773625966E9, 0.0, 2024-03-13 22:56:13.625
76.0, 22.813389729708433, 13.512258539907634, 16.47051940485835, 13.579576739110053, 0.6880000326782465, 0.6880000326782465, 0.4000000189989805, 0.0, 0.0, 0.0, 0.0, 0.0, 1.7103957736266916E9, 0.0, 2024-03-13 22:56:13.626
76.0, 4.465440547093749, 0.9761138884350657, 0.7218006914481521, 3.010619464330375, 0.6880000326782465, 0.6880000326782465, 0.4000000189989805, 0.0, 0.0, 0.0, 0.0, 0.0, 1.7103957736266916E9, 0.0, 2024-03-13 22:56:13.626
77.0, -2.9171219654381275, -9.768618684262037, 6.406448624096811, 1.1182300867512822, 0.6880000326782465, 0.6880000326782465, 0.4000000189989805, 0.0, 0.0, 0.0, 0.0, 0.0, 1.710395773639341E9, 0.0, 2024-03-13 22:56:13.639
77.0, -4.880569442175329, -10.714813373051584, -5.520092334598303, -9.22259329073131, 0.6880000326782465, 0.6880000326782465, 0.4000000189989805, 0.0, 0.0, 0.0, 0.0, 0.0, 1.710395773639341E9, 0.0, 2024-03-13 22:56:13.639
78.0, 3.7324201557785273, -0.7891188906505704, -2.7637860672548413, 3.855836854316294, 0.6880000326782465, 0.6880000326782465, 0.4000000189989805, 0.0, 0.0, 0.0, 0.0, 0.0, 1.7103957736548429E9, 0.0, 2024-03-13 22:56:13.654
78.0, -6.7392997201532125, -7.330203913152218, -2.973220464773476, -2.01954597607255, 0.6880000326782465, 0.6880000326782465, 0.4000000189989805, 0.0, 0.0, 0.0, 0.0, 0.0, 1.7103957736548429E9, 0.0, 2024-03-13 22:56:13.654
79.0, 10.789611372165382, -2.00458637624979, 16.294744106940925, 7.188087714836001, 0.6880000326782465, 0.6880000326782465, 0.4000000189989805, 0.0, 0.0, 0.0, 0.0, 0.0, 1.7103957736553807E9, 0.0, 2024-03-13 22:56:13.655
79.0, -4.4056021478027105, -12.936313946731389, -10.654974973760545, -8.811204295605421, 0.6880000326782465, 0.6880000326782465, 0.4000000189989805, 0.0, 0.0, 0.0, 0.0, 0.0, 1.7103957736553807E9, 0.0, 2024-03-13 22:56:13.655
80.0, -19.892527864314616, -25.943685992620885, -22.798430129885674, -20.55075025651604, 0.6880000326782465, 0.6880000326782465, 0.4000000189989805, 0.0, 0.0, 0.0, 0.0, 0.0, 1.710395773669021E9, 0.0, 2024-03-13 22:56:13.669
80.0, -0.9611542886123061, -9.933174282312393, -10.284724878147244, -6.5822239220142365, 0.6880000326782465, 0.6880000326782465, 0.4000000189989805, 0.0, 0.0, 0.0, 0.0, 0.0, 1.710395773669021E9, 0.0, 2024-03-13 22:56:13.669
81.0, 10.262285478413105, -4.371943048201501, -1.2640861850231886, 0.9723739884793758, 0.6880000326782465, 0.6880000326782465, 0.4000000189989805, 0.0, 0.0, 0.0, 0.0, 0.0, 1.7103957736845634E9, 0.0, 2024-03-13 22:56:13.684
81.0, 4.342023848555982, -7.176868014968932, -2.210280873812735, 4.772112343460321, 0.6880000326782465, 0.6880000326782465, 0.4000000189989805, 0.0, 0.0, 0.0, 0.0, 0.0, 1.7103957736845634E9, 0.0, 2024-03-13 22:56:13.684
82.0, 33.146733307279646, 12.786717948503792, 32.017283520661294, 21.560523244552314, 0.6880000326782465, 0.6880000326782465, 0.4000000189989805, 0.0, 0.0, 0.0, 0.0, 0.0, 1.7103957736852365E9, 0.0, 2024-03-13 22:56:13.685
82.0, 5.2919584373012185, -6.42514812387526, 11.24213926680386, 6.470026923343539, 0.6880000326782465, 0.6880000326782465, 0.4000000189989805, 0.0, 0.0, 0.0, 0.0, 0.0, 1.7103957736852365E9, 0.0, 2024-03-13 22:56:13.685
83.0, 0.2056944975629449, -0.11593689862638712, 2.902162365615368, 8.631689097732306, 0.6880000326782465, 0.6880000326782465, 0.4000000189989805, 0.0, 0.0, 0.0, 0.0, 0.0, 1.7103957736988816E9, 0.0, 2024-03-13 22:56:13.698
83.0, -7.965986905619502, -11.28701806627214, 0.9574143886566162, 3.3621700601652265, 0.6880000326782465, 0.6880000326782465, 0.4000000189989805, 0.0, 0.0, 0.0, 0.0, 0.0, 1.7103957736988816E9, 0.0, 2024-03-13 22:56:13.698
84.0, -7.199307414703071, -19.630734867416322, -11.182300867512822, -14.024624833837152, 0.6880000326782465, 0.6880000326782465, 0.4000000189989805, 0.0, 0.0, 0.0, 0.0, 0.0, 1.7103957737145348E9, 0.0, 2024-03-13 22:56:13.714
84.0, 0.7816390907391906, -11.545071163214743, -3.014359364286065, -4.805771443061531, 0.6880000326782465, 0.6880000326782465, 0.4000000189989805, 0.0, 0.0, 0.0, 0.0, 0.0, 1.7103957737145348E9, 0.0, 2024-03-13 22:56:13.714
85.0, 18.213312784209847, 0.19073489774018526, 15.737499013543129, 11.320677165873349, 0.6880000326782465, 0.6880000326782465, 0.4000000189989805, 0.0, 0.0, 0.0, 0.0, 0.0, 1.7103957737152505E9, 0.0, 2024-03-13 22:56:13.715
85.0, 2.6067102691158652, -5.995059628970921, 22.402000734582543, 12.786717948503792, 0.6880000326782465, 0.6880000326782465, 0.4000000189989805, 0.0, 0.0, 0.0, 0.0, 0.0, 1.7103957737152505E9, 0.0, 2024-03-13 22:56:13.715
86.0, -16.90434779971838, -26.12694109044969, -12.46134665235877, -12.4875259520486, 0.6880000326782465, 0.6880000326782465, 0.4000000189989805, 0.0, 0.0, 0.0, 0.0, 0.0, 1.7103957737288773E9, 0.0, 2024-03-13 22:56:13.728
86.0, 3.107856863178313, -6.963693717494607, -1.484740282408893, -2.9283416653051972, 0.6880000326782465, 0.6880000326782465, 0.4000000189989805, 0.0, 0.0, 0.0, 0.0, 0.0, 1.7103957737288773E9, 0.0, 2024-03-13 22:56:13.728
87.0, 7.363863012753427, -6.413928424008191, 15.550504015758634, 1.4211619831621647, 0.6880000326782465, 0.6880000326782465, 0.4000000189989805, 0.0, 0.0, 0.0, 0.0, 0.0, 1.710395773744536E9, 0.0, 2024-03-13 22:56:13.744
87.0, 4.401862247847021, -8.253959202207625, -1.4548210827633739, -11.230919566936791, 0.6880000326782465, 0.6880000326782465, 0.4000000189989805, 0.0, 0.0, 0.0, 0.0, 0.0, 1.710395773744536E9, 0.0, 2024-03-13 22:56:13.744
88.0, 13.482339340262115, -2.0307656759396195, -9.69008078519255, -4.873089642263949, 0.6880000326782465, 0.6880000326782465, 0.4000000189989805, 0.0, 0.0, 0.0, 0.0, 0.0, 1.7103957737455285E9, 0.0, 2024-03-13 22:56:13.745
88.0, 10.733512872830033, 0.28423239663243294, 5.303178137168288, -1.170588686130941, 0.6880000326782465, 0.6880000326782465, 0.4000000189989805, 0.0, 0.0, 0.0, 0.0, 0.0, 1.7103957737455285E9, 0.0, 2024-03-13 22:56:13.745
89.0, 11.354336265474558, -0.13463639840483665, 6.312951125204563, -3.1265563629567623, 0.6880000326782465, 0.6880000326782465, 0.4000000189989805, 0.0, 0.0, 0.0, 0.0, 0.0, 1.7103957737589962E9, 0.0, 2024-03-13 22:56:13.758
89.0, 17.932820287533104, 5.396675636060536, 7.22922661434859, 5.673428232781589, 0.6880000326782465, 0.6880000326782465, 0.4000000189989805, 0.0, 0.0, 0.0, 0.0, 0.0, 1.7103957737589962E9, 0.0, 2024-03-13 22:56:13.758
90.0, 7.412481712177396, -0.3702500956133008, 5.800584831275046, 8.388595600612462, 0.6880000326782465, 0.6880000326782465, 0.4000000189989805, 0.0, 0.0, 0.0, 0.0, 0.0, 1.71039577377477E9, 0.0, 2024-03-13 22:56:13.774
90.0, -1.7427933793514967, -17.902901087887585, -7.962247005663812, -8.246479402296245, 0.6880000326782465, 0.6880000326782465, 0.4000000189989805, 0.0, 0.0, 0.0, 0.0, 0.0, 1.71039577377477E9, 0.0, 2024-03-13 22:56:13.774
91.0, -9.592843386344612, -28.18388606607914, -23.580069220624864, -21.79987684171647, 0.6880000326782465, 0.6880000326782465, 0.4000000189989805, 0.0, 0.0, 0.0, 0.0, 0.0, 1.7103957737752874E9, 0.0, 2024-03-13 22:56:13.775
91.0, -4.390642547979951, -19.963585963472724, -12.745579048991203, -8.661608297377825, 0.6880000326782465, 0.6880000326782465, 0.4000000189989805, 0.0, 0.0, 0.0, 0.0, 0.0, 1.7103957737752874E9, 0.0, 2024-03-13 22:56:13.775
92.0, -8.979499793611467, -24.028857215307653, -0.7367602912709117, -9.64894188567996, 0.6880000326782465, 0.6880000326782465, 0.4000000189989805, 0.0, 0.0, 0.0, 0.0, 0.0, 1.7103957737891953E9, 0.0, 2024-03-13 22:56:13.789
92.0, 4.484140046872199, -10.206186979077756, 7.341423613019288, -0.3739899955689907, 0.6880000326782465, 0.6880000326782465, 0.4000000189989805, 0.0, 0.0, 0.0, 0.0, 0.0, 1.7103957737891953E9, 0.0, 2024-03-13 22:56:13.789
93.0, 3.5267256582155824, -12.633382050320506, -8.912181594409049, -7.898668706417084, 0.6880000326782465, 0.6880000326782465, 0.4000000189989805, 0.0, 0.0, 0.0, 0.0, 0.0, 1.7103957738045545E9, 0.0, 2024-03-13 22:56:13.804
93.0, 11.043924569152296, -7.154428615234792, -6.597183521836996, -8.489572899416089, 0.6880000326782465, 0.6880000326782465, 0.4000000189989805, 0.0, 0.0, 0.0, 0.0, 0.0, 1.7103957738045545E9, 0.0, 2024-03-13 22:56:13.804
94.0, 9.723739884793758, -8.182901103049517, 15.733759113587439, 1.5782377813011408, 0.6880000326782465, 0.6880000326782465, 0.4000000189989805, 0.0, 0.0, 0.0, 0.0, 0.0, 1.710395773805231E9, 0.0, 2024-03-13 22:56:13.805
94.0, 12.614682550542057, -8.130542503669858, -8.957060393877327, -8.347456701099873, 0.6880000326782465, 0.6880000326782465, 0.4000000189989805, 0.0, 0.0, 0.0, 0.0, 0.0, 1.710395773805231E9, 0.0, 2024-03-13 22:56:13.805
95.0, 4.704794144257903, -18.49754518084228, -10.654974973760545, -16.395721405744553, 0.6880000326782465, 0.6880000326782465, 0.4000000189989805, 0.0, 0.0, 0.0, 0.0, 0.0, 1.7103957738188708E9, 0.0, 2024-03-13 22:56:13.818
95.0, -4.342023848555982, -25.259284300729632, 1.4398614829406142, -15.000738722272217, 0.6880000326782465, 0.6880000326782465, 0.4000000189989805, 0.0, 0.0, 0.0, 0.0, 0.0, 1.7103957738188708E9, 0.0, 2024-03-13 22:56:13.818
96.0, -14.682847226038575, -31.710611724294722, -17.966479387134314, -25.36774139944464, 0.6880000326782465, 0.6880000326782465, 0.4000000189989805, 0.0, 0.0, 0.0, 0.0, 0.0, 1.7103957738345883E9, 0.0, 2024-03-13 22:56:13.834
96.0, 1.6605155803263187, -18.377868382260203, -10.516598675400019, -12.741839149035513, 0.6880000326782465, 0.6880000326782465, 0.4000000189989805, 0.0, 0.0, 0.0, 0.0, 0.0, 1.7103957738345883E9, 0.0, 2024-03-13 22:56:13.834
97.0, 3.508026158437133, -20.229118860326707, 2.576791069470346, -5.284478637389839, 0.6880000326782465, 0.6880000326782465, 0.4000000189989805, 0.0, 0.0, 0.0, 0.0, 0.0, 1.7103957738352337E9, 0.0, 2024-03-13 22:56:13.835
97.0, 8.612989597953856, -19.35024237073958, -0.06731819920241833, -15.034397821873426, 0.6880000326782465, 0.6880000326782465, 0.4000000189989805, 0.0, 0.0, 0.0, 0.0, 0.0, 1.7103957738352337E9, 0.0, 2024-03-13 22:56:13.835
98.0, 0.7816390907391906, -20.96587915159762, -14.982039222493768, -17.581269691698253, 0.6880000326782465, 0.6880000326782465, 0.4000000189989805, 0.0, 0.0, 0.0, 0.0, 0.0, 1.7103957738489008E9, 0.0, 2024-03-13 22:56:13.848
98.0, 5.879122730344534, -17.23719889577478, 2.255159673281014, -0.44878799468278885, 0.6880000326782465, 0.6880000326782465, 0.4000000189989805, 0.0, 0.0, 0.0, 0.0, 0.0, 1.7103957738489008E9, 0.0, 2024-03-13 22:56:13.848
99.0, 2.610450169071555, -18.665840678848326, -0.49740669410675764, -5.916521729901433, 0.6880000326782465, 0.6880000326782465, 0.4000000189989805, 0.0, 0.0, 0.0, 0.0, 0.0, 1.71039577388065E9, 0.0, 2024-03-13 22:56:13.880
99.0, -5.890342430211604, -20.247818360105157, -10.86814927123487, -7.823870707303286, 0.6880000326782465, 0.6880000326782465, 0.4000000189989805, 0.0, 0.0, 0.0, 0.0, 0.0, 1.71039577388065E9, 0.0, 2024-03-13 22:56:13.880
100.0, -1.043432087637484, -20.11692186165601, -11.990119257941842, -8.182901103049517, 0.6880000326782465, 0.6880000326782465, 0.4000000189989805, 0.0, 0.0, 0.0, 0.0, 0.0, 1.7103957738814335E9, 0.0, 2024-03-13 22:56:13.881
100.0, -2.3860561717301607, -21.033197350800037, -6.010019228793681, -15.116675620898604, 0.6880000326782465, 0.6880000326782465, 0.4000000189989805, 0.0, 0.0, 0.0, 0.0, 0.0, 1.7103957738814335E9, 0.0, 2024-03-13 22:56:13.881
0.0, -917.3264010315761, -617.8090332802385, -598.5504184584133, -609.3175904308446, 0.6880000326782465, 0.6880000326782465, 0.4000000189989805, 0.0, 0.0, 0.0, 0.0, 0.0, 1.7103957738822424E9, 0.0, 2024-03-13 22:56:13.882
1.0, -892.9983518198133, -599.8275942932814, -586.9941275953315, -593.0976443230174, 0.6880000326782465, 0.6880000326782465, 0.4000000189989805, 0.0, 0.0, 0.0, 0.0, 0.0, 1.7103957738965545E9, 0.0, 2024-03-13 22:56:13.896
1.0, -908.294542638585, -610.7443622639403, -592.9181291251443, -604.5940967868082, 0.6880000326782465, 0.6880000326782465, 0.4000000189989805, 0.0, 0.0, 0.0, 0.0, 0.0, 1.7103957738965545E9, 0.0, 2024-03-13 22:56:13.896
2.0, -902.5911952061579, -602.0827539665624, -579.933196478989, -594.8217382025905, 0.6880000326782465, 0.6880000326782465, 0.4000000189989805, 0.0, 0.0, 0.0, 0.0, 0.0, 1.7103957738973107E9, 0.0, 2024-03-13 22:56:13.897
2.0, -908.4665780365467, -611.8364130510017, -591.4259090428241, -594.586124505382, 0.6880000326782465, 0.6880000326782465, 0.4000000189989805, 0.0, 0.0, 0.0, 0.0, 0.0, 1.7103957738973107E9, 0.0, 2024-03-13 22:56:13.897
3.0, -919.4132652068511, -617.7604145808145, -588.4452087781392, -602.7690256084315, 0.6880000326782465, 0.6880000326782465, 0.4000000189989805, 0.0, 0.0, 0.0, 0.0, 0.0, 1.7103957738980768E9, 0.0, 2024-03-13 22:56:13.898
3.0, -895.3582286918536, -605.0821537310258, -573.769841352012, -593.7970056147315, 0.6880000326782465, 0.6880000326782465, 0.4000000189989805, 0.0, 0.0, 0.0, 0.0, 0.0, 1.7103957738980768E9, 0.0, 2024-03-13 22:56:13.898
4.0, -902.456558807753, -603.4889563499019, -590.2740198564716, -598.8533503548242, 0.6880000326782465, 0.6880000326782465, 0.4000000189989805, 0.0, 0.0, 0.0, 0.0, 0.0, 1.7103957739088783E9, 0.0, 2024-03-13 22:56:13.908
4.0, -904.01235718932, -598.0249625146389, -587.0464861947112, -590.4684946541674, 0.6880000326782465, 0.6880000326782465, 0.4000000189989805, 0.0, 0.0, 0.0, 0.0, 0.0, 1.7103957739088783E9, 0.0, 2024-03-13 22:56:13.908
5.0, -903.0699024004862, -598.8627001047134, -572.0158282727934, -588.8640775731765, 0.6880000326782465, 0.6880000326782465, 0.4000000189989805, 0.0, 0.0, 0.0, 0.0, 0.0, 1.7103957739239402E9, 0.0, 2024-03-13 22:56:13.923
5.0, -908.5451159356162, -608.6051394892856, -585.0119806188159, -591.9756743363105, 0.6880000326782465, 0.6880000326782465, 0.4000000189989805, 0.0, 0.0, 0.0, 0.0, 0.0, 1.7103957739239402E9, 0.0, 2024-03-13 22:56:13.923
6.0, -909.910179419443, -612.9135042382404, -597.2190140741877, -601.4039621246047, 0.6880000326782465, 0.6880000326782465, 0.4000000189989805, 0.0, 0.0, 0.0, 0.0, 0.0, 1.7103957739395845E9, 0.0, 2024-03-13 22:56:13.939
6.0, -913.2760893795639, -614.185070223175, -582.2631541513838, -593.6735889161937, 0.6880000326782465, 0.6880000326782465, 0.4000000189989805, 0.0, 0.0, 0.0, 0.0, 0.0, 1.7103957739395845E9, 0.0, 2024-03-13 22:56:13.939
7.0, -919.0729343108833, -619.5406069597229, -590.5358128533699, -607.5972364512272, 0.6880000326782465, 0.6880000326782465, 0.4000000189989805, 0.0, 0.0, 0.0, 0.0, 0.0, 1.710395773940276E9, 0.0, 2024-03-13 22:56:13.940
7.0, -899.9321263376623, -602.0079559674487, -576.9076174148358, -592.0803915350698, 0.6880000326782465, 0.6880000326782465, 0.4000000189989805, 0.0, 0.0, 0.0, 0.0, 0.0, 1.710395773940276E9, 0.0, 2024-03-13 22:56:13.940
8.0, -916.398905842565, -617.6594372820109, -595.4575211950578, -604.2088870913722, 0.6880000326782465, 0.6880000326782465, 0.4000000189989805, 0.0, 0.0, 0.0, 0.0, 0.0, 1.7103957739538753E9, 0.0, 2024-03-13 22:56:13.953
8.0, -922.7118569677696, -630.5770517289639, -596.6991679803468, -615.8960744529031, 0.6880000326782465, 0.6880000326782465, 0.4000000189989805, 0.0, 0.0, 0.0, 0.0, 0.0, 1.7103957739538753E9, 0.0, 2024-03-13 22:56:13.953
9.0, -925.1315722391009, -630.4835542300716, -611.1950202086009, -618.4878251221962, 0.6880000326782465, 0.6880000326782465, 0.4000000189989805, 0.0, 0.0, 0.0, 0.0, 0.0, 1.7103957739695518E9, 0.0, 2024-03-13 22:56:13.969
9.0, -925.8496330305934, -628.5799451526254, -602.3090179138817, -608.3265169425867, 0.6880000326782465, 0.6880000326782465, 0.4000000189989805, 0.0, 0.0, 0.0, 0.0, 0.0, 1.7103957739695518E9, 0.0, 2024-03-13 22:56:13.969
10.0, -905.8299485677853, -612.1056858478114, -574.6412380416878, -593.3295181202702, 0.6880000326782465, 0.6880000326782465, 0.4000000189989805, 0.0, 0.0, 0.0, 0.0, 0.0, 1.7103957739703135E9, 0.0, 2024-03-13 22:56:13.970
10.0, -925.6551582328975, -629.1671094456688, -604.3098643901758, -611.1613611089997, 0.6880000326782465, 0.6880000326782465, 0.4000000189989805, 0.0, 0.0, 0.0, 0.0, 0.0, 1.7103957739703135E9, 0.0, 2024-03-13 22:56:13.970
11.0, -907.6026611467823, -613.3660321328789, -602.5595912109129, -608.6294488389976, 0.6880000326782465, 0.6880000326782465, 0.4000000189989805, 0.0, 0.0, 0.0, 0.0, 0.0, 1.7103957739838011E9, 0.0, 2024-03-13 22:56:13.983
11.0, -914.5513952644542, -616.1073788003996, -586.7061552987434, -599.9304415420629, 0.6880000326782465, 0.6880000326782465, 0.4000000189989805, 0.0, 0.0, 0.0, 0.0, 0.0, 1.7103957739838011E9, 0.0, 2024-03-13 22:56:13.983
12.0, -922.9848696645349, -621.3843776378781, -588.8004992739297, -610.6639544148929, 0.6880000326782465, 0.6880000326782465, 0.4000000189989805, 0.0, 0.0, 0.0, 0.0, 0.0, 1.710395773999602E9, 0.0, 2024-03-13 22:56:13.999
12.0, -906.8584210556, -611.8999913502485, -594.0587986116298, -599.0328655526973, 0.6880000326782465, 0.6880000326782465, 0.4000000189989805, 0.0, 0.0, 0.0, 0.0, 0.0, 1.710395773999602E9, 0.0, 2024-03-13 22:56:13.999
13.0, -907.378267149441, -603.2383830528706, -580.5465400717221, -591.7325808391906, 0.6880000326782465, 0.6880000326782465, 0.4000000189989805, 0.0, 0.0, 0.0, 0.0, 0.0, 1.7103957740003147E9, 0.0, 2024-03-13 22:56:14.000
13.0, -909.8840001197532, -611.1146123595536, -580.2249086755328, -597.6715419688262, 0.6880000326782465, 0.6880000326782465, 0.4000000189989805, 0.0, 0.0, 0.0, 0.0, 0.0, 1.7103957740003147E9, 0.0, 2024-03-13 22:56:14.000
14.0, -893.5107181137428, -595.7361437417567, -580.1426308765076, -587.603731288109, 0.6880000326782465, 0.6880000326782465, 0.4000000189989805, 0.0, 0.0, 0.0, 0.0, 0.0, 1.7103957740138347E9, 0.0, 2024-03-13 22:56:14.013
14.0, -884.3741425219923, -587.9347124341875, -569.2445624056272, -577.0946124126203, 0.6880000326782465, 0.6880000326782465, 0.4000000189989805, 0.0, 0.0, 0.0, 0.0, 0.0, 1.7103957740138347E9, 0.0, 2024-03-13 22:56:14.013
15.0, -898.8737346502021, -607.8272402985021, -590.5881714527495, -602.4399144123308, 0.6880000326782465, 0.6880000326782465, 0.4000000189989805, 0.0, 0.0, 0.0, 0.0, 0.0, 1.7103957740295904E9, 0.0, 2024-03-13 22:56:14.029
15.0, -916.50736294128, -620.625177946873, -592.1851087338291, -601.2618459262885, 0.6880000326782465, 0.6880000326782465, 0.4000000189989805, 0.0, 0.0, 0.0, 0.0, 0.0, 1.7103957740295904E9, 0.0, 2024-03-13 22:56:14.029
16.0, -930.0345810810104, -620.7186754457653, -604.3472633897327, -609.5606839279644, 0.6880000326782465, 0.6880000326782465, 0.4000000189989805, 0.0, 0.0, 0.0, 0.0, 0.0, 1.7103957740303073E9, 0.0, 2024-03-13 22:56:14.030
16.0, -911.357520702295, -607.5991064012051, -570.1720575946383, -588.4452087781392, 0.6880000326782465, 0.6880000326782465, 0.4000000189989805, 0.0, 0.0, 0.0, 0.0, 0.0, 1.7103957740303073E9, 0.0, 2024-03-13 22:56:14.030
17.0, -923.3999985596165, -624.7278481982648, -593.2734196209349, -607.3541429541074, 0.6880000326782465, 0.6880000326782465, 0.4000000189989805, 0.0, 0.0, 0.0, 0.0, 0.0, 1.7103957740438523E9, 0.0, 2024-03-13 22:56:14.043
17.0, -907.714858145453, -610.385331868194, -598.1652087629773, -606.0451779696159, 0.6880000326782465, 0.6880000326782465, 0.4000000189989805, 0.0, 0.0, 0.0, 0.0, 0.0, 1.7103957740438523E9, 0.0, 2024-03-13 22:56:14.043
18.0, -912.0980208935216, -609.3232002807781, -577.2928271102719, -593.0677251233719, 0.6880000326782465, 0.6880000326782465, 0.4000000189989805, 0.0, 0.0, 0.0, 0.0, 0.0, 1.7103957740597353E9, 0.0, 2024-03-13 22:56:14.059
18.0, -906.473211360164, -604.7829617345706, -576.3279329217039, -594.9189756014384, 0.6880000326782465, 0.6880000326782465, 0.4000000189989805, 0.0, 0.0, 0.0, 0.0, 0.0, 1.7103957740597353E9, 0.0, 2024-03-13 22:56:14.059
19.0, -894.0492637073621, -601.2749355761334, -583.8787909322418, -588.0039005833678, 0.6880000326782465, 0.6880000326782465, 0.4000000189989805, 0.0, 0.0, 0.0, 0.0, 0.0, 1.710395774060363E9, 0.0, 2024-03-13 22:56:14.060
19.0, -897.4413529671729, -595.3920729458332, -572.1317651714198, -581.7208686578088, 0.6880000326782465, 0.6880000326782465, 0.4000000189989805, 0.0, 0.0, 0.0, 0.0, 0.0, 1.710395774060363E9, 0.0, 2024-03-13 22:56:14.060
20.0, -896.5175976781175, -605.0148355318233, -583.2467478397302, -595.865170290228, 0.6880000326782465, 0.6880000326782465, 0.41600001975893974, 0.0, 0.0, 0.0, 0.0, 0.0, 1.710395774074464E9, 0.0, 2024-03-13 22:56:14.074
20.0, -890.6683941474184, -590.7321576010436, -576.9263169146143, -584.3013996272348, 0.6880000326782465, 0.6880000326782465, 0.41600001975893974, 0.0, 0.0, 0.0, 0.0, 0.0, 1.710395774074464E9, 0.0, 2024-03-13 22:56:14.074
21.0, -921.440290982835, -616.3691717972979, -599.8107647434808, -609.1268555331044, 0.6880000326782465, 0.6880000326782465, 0.41600001975893974, 0.0, 0.0, 0.0, 0.0, 0.0, 1.7103957740895863E9, 0.0, 2024-03-13 22:56:14.089
21.0, -921.8180208783597, -613.9644161257893, -587.338198391255, -603.7077404973097, 0.6880000326782465, 0.6880000326782465, 0.41600001975893974, 0.0, 0.0, 0.0, 0.0, 0.0, 1.7103957740895863E9, 0.0, 2024-03-13 22:56:14.089
22.0, -904.9959508776665, -602.3632464632392, -580.3932041735388, -592.2187678334303, 0.6880000326782465, 0.6880000326782465, 0.41600001975893974, 0.0, 0.0, 0.0, 0.0, 0.0, 1.710395774090515E9, 0.0, 2024-03-13 22:56:14.090
22.0, -902.0900486120954, -594.0718882614747, -593.0864246231504, -596.6842083805241, 0.6880000326782465, 0.6880000326782465, 0.41600001975893974, 0.0, 0.0, 0.0, 0.0, 0.0, 1.710395774090515E9, 0.0, 2024-03-13 22:56:14.090
23.0, -898.5446234541014, -598.0137428147718, -578.9982214900665, -593.3033388205804, 0.6880000326782465, 0.6880000326782465, 0.41600001975893974, 0.0, 0.0, 0.0, 0.0, 0.0, 1.7103957741039023E9, 0.0, 2024-03-13 22:56:14.103
23.0, -904.8426149794832, -601.2263168767095, -580.7335350695066, -592.5216997298412, 0.6880000326782465, 0.6880000326782465, 0.41600001975893974, 0.0, 0.0, 0.0, 0.0, 0.0, 1.7103957741039023E9, 0.0, 2024-03-13 22:56:14.103
24.0, -889.4604064617306, -588.0730887325481, -574.5103415432386, -576.5822461186908, 0.6880000326782465, 0.6880000326782465, 0.41600001975893974, 0.0, 0.0, 0.0, 0.0, 0.0, 1.7103957741195507E9, 0.0, 2024-03-13 22:56:14.119
24.0, -884.9276477154344, -578.147394250147, -567.8832388217561, -568.4853627146222, 0.6880000326782465, 0.6880000326782465, 0.41600001975893974, 0.0, 0.0, 0.0, 0.0, 0.0, 1.7103957741195507E9, 0.0, 2024-03-13 22:56:14.119
25.0, -902.6884326050058, -598.2007378125563, -584.7875866214745, -590.3749971552752, 0.6880000326782465, 0.6880000326782465, 0.41600001975893974, 0.0, 0.0, 0.0, 0.0, 0.0, 1.7103957741202557E9, 0.0, 2024-03-13 22:56:14.120
25.0, -902.4939578073099, -600.1454857895151, -591.6166439405642, -594.8105185027234, 0.6880000326782465, 0.6880000326782465, 0.41600001975893974, 0.0, 0.0, 0.0, 0.0, 0.0, 1.7103957741202557E9, 0.0, 2024-03-13 22:56:14.120
26.0, -886.633042095229, -584.9914111690596, -576.3167132218368, -576.3578521213494, 0.6880000326782465, 0.6880000326782465, 0.41600001975893974, 0.0, 0.0, 0.0, 0.0, 0.0, 1.710395774133885E9, 0.0, 2024-03-13 22:56:14.133
26.0, -884.3217839226127, -580.1594604263082, -554.4195989812724, -570.4712495910935, 0.6880000326782465, 0.6880000326782465, 0.41600001975893974, 0.0, 0.0, 0.0, 0.0, 0.0, 1.710395774133885E9, 0.0, 2024-03-13 22:56:14.133
27.0, -897.4263933673501, -604.0013226438314, -590.4647547542118, -595.3490640963428, 0.6880000326782465, 0.6880000326782465, 0.41600001975893974, 0.0, 0.0, 0.0, 0.0, 0.0, 1.7103957741495073E9, 0.0, 2024-03-13 22:56:14.149
27.0, -906.8696407554671, -599.5583214964718, -602.5633311108686, -595.7193141919561, 0.6880000326782465, 0.6880000326782465, 0.41600001975893974, 0.0, 0.0, 0.0, 0.0, 0.0, 1.7103957741495073E9, 0.0, 2024-03-13 22:56:14.149
28.0, -907.96917134244, -600.1716650892049, -582.020060654264, -585.7038621106185, 0.6880000326782465, 0.6880000326782465, 0.41600001975893974, 0.0, 0.0, 0.0, 0.0, 0.0, 1.7103957741504676E9, 0.0, 2024-03-13 22:56:14.150
28.0, -909.3304949263111, -610.3628924684599, -587.3007993916981, -599.3470171489753, 0.6880000326782465, 0.6880000326782465, 0.41600001975893974, 0.0, 0.0, 0.0, 0.0, 0.0, 1.7103957741504676E9, 0.0, 2024-03-13 22:56:14.150
29.0, -910.1869320161641, -601.6115265721455, -589.593358064536, -594.5524654057808, 0.6880000326782465, 0.6880000326782465, 0.41600001975893974, 0.0, 0.0, 0.0, 0.0, 0.0, 1.7103957741802883E9, 0.0, 2024-03-13 22:56:14.180
29.0, -894.2250390052795, -593.3089486705139, -578.1866631996818, -585.03442001855, 0.6880000326782465, 0.6880000326782465, 0.41600001975893974, 0.0, 0.0, 0.0, 0.0, 0.0, 1.7103957741802883E9, 0.0, 2024-03-13 22:56:14.180
30.0, -901.8357354151085, -597.987563515082, -566.4059783392586, -581.6535504586063, 0.6880000326782465, 0.6880000326782465, 0.41600001975893974, 0.0, 0.0, 0.0, 0.0, 0.0, 1.7103957741809583E9, 0.0, 2024-03-13 22:56:14.180
30.0, -914.1961047686636, -613.3361129332334, -603.9134349948727, -602.2603992144577, 0.6880000326782465, 0.6880000326782465, 0.41600001975893974, 0.0, 0.0, 0.0, 0.0, 0.0, 1.7103957741809583E9, 0.0, 2024-03-13 22:56:14.180
31.0, -892.0035384315997, -591.7905492885038, -575.4079175326042, -582.3229925506748, 0.6880000326782465, 0.6880000326782465, 0.41600001975893974, 0.0, 0.0, 0.0, 0.0, 0.0, 1.710395774181866E9, 0.0, 2024-03-13 22:56:14.181
31.0, -896.5512567777187, -589.8532811114565, -563.4327578744851, -579.4844084843062, 0.6880000326782465, 0.6880000326782465, 0.41600001975893974, 0.0, 0.0, 0.0, 0.0, 0.0, 1.710395774181866E9, 0.0, 2024-03-13 22:56:14.181
32.0, -915.0413221586496, -607.6851241001859, -590.6031310525723, -597.9707339652814, 0.6880000326782465, 0.6880000326782465, 0.41600001975893974, 0.0, 0.0, 0.0, 0.0, 0.0, 1.710395774194062E9, 0.0, 2024-03-13 22:56:14.194
32.0, -890.43278045021, -582.971865192987, -577.7416151049547, -578.9870017901994, 0.6880000326782465, 0.6880000326782465, 0.41600001975893974, 0.0, 0.0, 0.0, 0.0, 0.0, 1.710395774194062E9, 0.0, 2024-03-13 22:56:14.194
33.0, -897.246878169477, -588.4732580278069, -577.5957590066828, -584.0919652297162, 0.6880000326782465, 0.6880000326782465, 0.41600001975893974, 0.0, 0.0, 0.0, 0.0, 0.0, 1.710395774209502E9, 0.0, 2024-03-13 22:56:14.209
33.0, -910.6431998107582, -604.1097797425464, -579.7424615812488, -598.1614688630216, 0.6880000326782465, 0.6880000326782465, 0.41600001975893974, 0.0, 0.0, 0.0, 0.0, 0.0, 1.710395774209502E9, 0.0, 2024-03-13 22:56:14.209
34.0, -904.8538346793503, -596.5776212317869, -584.3574981265701, -590.1169440583326, 0.6880000326782465, 0.6880000326782465, 0.41600001975893974, 0.0, 0.0, 0.0, 0.0, 0.0, 1.710395774210224E9, 0.0, 2024-03-13 22:56:14.210
34.0, -877.8854160988703, -579.8303492302075, -561.6525654955767, -572.214042970445, 0.6880000326782465, 0.6880000326782465, 0.41600001975893974, 0.0, 0.0, 0.0, 0.0, 0.0, 1.710395774210224E9, 0.0, 2024-03-13 22:56:14.210
35.0, -876.647509213537, -572.6422615153715, -560.1715651131235, -576.4401299203746, 0.6880000326782465, 0.6880000326782465, 0.41600001975893974, 0.0, 0.0, 0.0, 0.0, 0.0, 1.7103957742402377E9, 0.0, 2024-03-13 22:56:14.240
35.0, -908.776989732869, -597.1012072255835, -595.9063091897406, -594.5375058059581, 0.6880000326782465, 0.6880000326782465, 0.41600001975893974, 0.0, 0.0, 0.0, 0.0, 0.0, 1.7103957742402377E9, 0.0, 2024-03-13 22:56:14.240
36.0, -903.8814606908709, -588.1067478321493, -581.7956666569225, -579.716282281559, 0.6880000326782465, 0.6880000326782465, 0.41600001975893974, 0.0, 0.0, 0.0, 0.0, 0.0, 1.710395774240972E9, 0.0, 2024-03-13 22:56:14.240
36.0, -890.5337577490136, -580.8513419181108, -568.3021076167934, -577.6144585064612, 0.6880000326782465, 0.6880000326782465, 0.41600001975893974, 0.0, 0.0, 0.0, 0.0, 0.0, 1.710395774240972E9, 0.0, 2024-03-13 22:56:14.240
37.0, -896.3380824802443, -582.7138120960444, -569.1099260072224, -572.8834850625135, 0.6880000326782465, 0.6880000326782465, 0.41600001975893974, 0.0, 0.0, 0.0, 0.0, 0.0, 1.7103957742417028E9, 0.0, 2024-03-13 22:56:14.241
37.0, -875.3273245291784, -561.8937890427187, -561.0654012025334, -554.2251241835766, 0.6880000326782465, 0.6880000326782465, 0.41600001975893974, 0.0, 0.0, 0.0, 0.0, 0.0, 1.7103957742417028E9, 0.0, 2024-03-13 22:56:14.241
38.0, -856.7699409490451, -540.6361976945773, -523.7411996447481, -533.4948587291874, 0.6880000326782465, 0.6880000326782465, 0.41600001975893974, 0.0, 0.0, 0.0, 0.0, 0.0, 1.7103957742538457E9, 0.0, 2024-03-13 22:56:14.253
38.0, -887.3473629867658, -574.7328655906022, -568.8144739107229, -569.319360404741, 0.6880000326782465, 0.6880000326782465, 0.41600001975893974, 0.0, 0.0, 0.0, 0.0, 0.0, 1.7103957742538457E9, 0.0, 2024-03-13 22:56:14.253
39.0, -900.1602602349594, -584.3855473762378, -573.1714573591016, -575.0264477371238, 0.6880000326782465, 0.6880000326782465, 0.41600001975893974, 0.0, 0.0, 0.0, 0.0, 0.0, 1.7103957742696145E9, 0.0, 2024-03-13 22:56:14.269
39.0, -883.5139655321836, -579.2132657375187, -564.6257859603502, -575.5687332306989, 0.6880000326782465, 0.6880000326782465, 0.41600001975893974, 0.0, 0.0, 0.0, 0.0, 0.0, 1.7103957742696145E9, 0.0, 2024-03-13 22:56:14.269
40.0, -886.6068627955392, -579.7368517313153, -562.5950202844106, -576.1409379239194, 0.6880000326782465, 0.6880000326782465, 0.41600001975893974, 0.0, 0.0, 0.0, 0.0, 0.0, 1.71039577427031E9, 0.0, 2024-03-13 22:56:14.270
40.0, -896.5699562774971, -580.2230387255549, -577.1320114121772, -573.7997605516575, 0.6880000326782465, 0.6880000326782465, 0.41600001975893974, 0.0, 0.0, 0.0, 0.0, 0.0, 1.71039577427031E9, 0.0, 2024-03-13 22:56:14.270
41.0, -884.0263318261132, -572.3168902192265, -568.5302415140904, -563.8628463693894, 0.6880000326782465, 0.6720000319182873, 0.41600001975893974, 0.0, 0.0, 0.0, 0.0, 0.0, 1.7103957742838223E9, 0.0, 2024-03-13 22:56:14.283
41.0, -896.184746582061, -581.0271172160283, -572.4646162674762, -570.4974288907833, 0.6880000326782465, 0.6720000319182873, 0.41600001975893974, 0.0, 0.0, 0.0, 0.0, 0.0, 1.7103957742838223E9, 0.0, 2024-03-13 22:56:14.283
42.0, -903.2494175983593, -590.7209379011765, -579.6115650827996, -578.6952895936556, 0.6880000326782465, 0.6720000319182873, 0.41600001975893974, 0.0, 0.0, 0.0, 0.0, 0.0, 1.7103957742995992E9, 0.0, 2024-03-13 22:56:14.299
42.0, -889.1462548654526, -575.9146739766002, -568.9865093086846, -565.1306724543683, 0.6880000326782465, 0.6720000319182873, 0.41600001975893974, 0.0, 0.0, 0.0, 0.0, 0.0, 1.7103957742995992E9, 0.0, 2024-03-13 22:56:14.299
43.0, -908.9228458311409, -596.2111110361293, -571.0284946844913, -576.9936351138167, 0.6880000326782465, 0.6720000319182873, 0.41600001975893974, 0.0, 0.0, 0.0, 0.0, 0.0, 1.7103957743002696E9, 0.0, 2024-03-13 22:56:14.300
43.0, -913.3434075787663, -604.2144969413057, -580.681176470127, -591.5493257413618, 0.6880000326782465, 0.6720000319182873, 0.41600001975893974, 0.0, 0.0, 0.0, 0.0, 0.0, 1.7103957743002696E9, 0.0, 2024-03-13 22:56:14.300
44.0, -897.6021686652675, -588.4657782278955, -577.8837313032709, -579.7499413811602, 0.6880000326782465, 0.6720000319182873, 0.41600001975893974, 0.0, 0.0, 0.0, 0.0, 0.0, 1.710395774313862E9, 0.0, 2024-03-13 22:56:14.313
44.0, -912.2700562914833, -600.6840313831344, -581.3730579619296, -581.1486639645882, 0.6880000326782465, 0.6720000319182873, 0.41600001975893974, 0.0, 0.0, 0.0, 0.0, 0.0, 1.710395774313862E9, 0.0, 2024-03-13 22:56:14.313
45.0, -902.987624601461, -599.012296102941, -569.1922038062476, -582.4912880486809, 0.6880000326782465, 0.6720000319182873, 0.41600001975893974, 0.0, 0.0, 0.0, 0.0, 0.0, 1.7103957743296576E9, 0.0, 2024-03-13 22:56:14.329
45.0, -897.6021686652675, -588.4059398286045, -572.913404262159, -577.8612919035368, 0.6880000326782465, 0.6720000319182873, 0.41600001975893974, 0.0, 0.0, 0.0, 0.0, 0.0, 1.7103957743296576E9, 0.0, 2024-03-13 22:56:14.329
46.0, -902.4490790078416, -587.2016920428723, -579.1440775883384, -579.5479867835529, 0.6880000326782465, 0.6720000319182873, 0.41600001975893974, 0.0, 0.0, 0.0, 0.0, 0.0, 1.710395774330542E9, 0.0, 2024-03-13 22:56:14.330
46.0, -913.1975514804944, -603.3991987509653, -581.4254165613092, -590.4310956546105, 0.6880000326782465, 0.6720000319182873, 0.41600001975893974, 0.0, 0.0, 0.0, 0.0, 0.0, 1.710395774330542E9, 0.0, 2024-03-13 22:56:14.330
47.0, -921.1036999868229, -611.3165669571608, -597.9370748656802, -604.6165361865424, 0.6880000326782465, 0.6720000319182873, 0.41600001975893974, 0.0, 0.0, 0.0, 0.0, 0.0, 1.7103957743439023E9, 0.0, 2024-03-13 22:56:14.343
47.0, -908.9041463313624, -603.1000067545101, -602.8625231073238, -596.6168901813217, 0.6880000326782465, 0.6720000319182873, 0.41600001975893974, 0.0, 0.0, 0.0, 0.0, 0.0, 1.7103957743439023E9, 0.0, 2024-03-13 22:56:14.343
48.0, -900.3210759330541, -596.1699721366167, -584.0657859300263, -588.3404915793799, 0.6880000326782465, 0.6720000319182873, 0.41600001975893974, 0.0, 0.0, 0.0, 0.0, 0.0, 1.7103957743597803E9, 0.0, 2024-03-13 22:56:14.359
48.0, -921.0550812873989, -616.2943737981841, -592.0504723354243, -600.6185831339099, 0.6880000326782465, 0.6720000319182873, 0.41600001975893974, 0.0, 0.0, 0.0, 0.0, 0.0, 1.7103957743597803E9, 0.0, 2024-03-13 22:56:14.359
49.0, -909.2033383278176, -609.4503568792716, -595.8502106904052, -595.8202914907597, 0.6880000326782465, 0.6720000319182873, 0.41600001975893974, 0.0, 0.0, 0.0, 0.0, 0.0, 1.7103957743604631E9, 0.0, 2024-03-13 22:56:14.360
49.0, -907.7522571450099, -601.5629078727216, -587.6635696874, -592.4618613305502, 0.6880000326782465, 0.6720000319182873, 0.41600001975893974, 0.0, 0.0, 0.0, 0.0, 0.0, 1.7103957743604631E9, 0.0, 2024-03-13 22:56:14.360
50.0, -910.018636518158, -609.6560513768345, -583.9760283310898, -602.0098259174265, 0.6880000326782465, 0.6720000319182873, 0.41600001975893974, 0.0, 0.0, 0.0, 0.0, 0.0, 1.7103957743742454E9, 0.0, 2024-03-13 22:56:14.374
50.0, -913.1713721808046, -614.8694719150662, -595.2293872977607, -603.113096404355, 0.6880000326782465, 0.6720000319182873, 0.41600001975893974, 0.0, 0.0, 0.0, 0.0, 0.0, 1.7103957743742454E9, 0.0, 2024-03-13 22:56:14.374
51.0, -915.5985672520474, -608.9230309855193, -587.0801452943124, -594.2046547099017, 0.6880000326782465, 0.6720000319182873, 0.41600001975893974, 0.0, 0.0, 0.0, 0.0, 0.0, 1.7103957744060037E9, 0.0, 2024-03-13 22:56:14.406
51.0, -901.6188212176785, -599.0833542020991, -571.1032926836051, -585.6515035112388, 0.6880000326782465, 0.6720000319182873, 0.41600001975893974, 0.0, 0.0, 0.0, 0.0, 0.0, 1.7103957744060037E9, 0.0, 2024-03-13 22:56:14.406
52.0, -915.8641001489013, -612.7227693405002, -592.8545508258976, -605.3794757775031, 0.6880000326782465, 0.6720000319182873, 0.41600001975893974, 0.0, 0.0, 0.0, 0.0, 0.0, 1.7103957744067204E9, 0.0, 2024-03-13 22:56:14.406
52.0, -907.2885095505044, -610.0038620727137, -591.4034696430899, -595.9399682893418, 0.6880000326782465, 0.6720000319182873, 0.41600001975893974, 0.0, 0.0, 0.0, 0.0, 0.0, 1.7103957744067204E9, 0.0, 2024-03-13 22:56:14.406
53.0, -908.5301563357934, -606.9745431086048, -585.6515035112388, -593.3108186204918, 0.6880000326782465, 0.6720000319182873, 0.41600001975893974, 0.0, 0.0, 0.0, 0.0, 0.0, 1.7103957744076328E9, 0.0, 2024-03-13 22:56:14.407
53.0, -902.2920032097027, -607.5018690023571, -579.570426183287, -597.6117035695352, 0.6880000326782465, 0.6720000319182873, 0.41600001975893974, 0.0, 0.0, 0.0, 0.0, 0.0, 1.7103957744076328E9, 0.0, 2024-03-13 22:56:14.407
54.0, -906.9182594548911, -605.175651229918, -593.501553518232, -598.8907493543811, 0.6880000326782465, 0.6720000319182873, 0.41600001975893974, 0.0, 0.0, 0.0, 0.0, 0.0, 1.7103957744081688E9, 0.0, 2024-03-13 22:56:14.408
54.0, -897.5198908662423, -597.4078790219501, -580.909310367424, -588.1235773819499, 0.6880000326782465, 0.6720000319182873, 0.41600001975893974, 0.0, 0.0, 0.0, 0.0, 0.0, 1.7103957744081688E9, 0.0, 2024-03-13 22:56:14.408
55.0, -908.8405680321157, -611.2978674573824, -584.3874173262157, -600.966393829789, 0.6880000326782465, 0.6720000319182873, 0.41600001975893974, 0.0, 0.0, 0.0, 0.0, 0.0, 1.710395774418877E9, 0.0, 2024-03-13 22:56:14.418
55.0, -907.0416761534289, -610.0150817725807, -588.8491179733537, -601.3441237253137, 0.6880000326782465, 0.6720000319182873, 0.41600001975893974, 0.0, 0.0, 0.0, 0.0, 0.0, 1.710395774418877E9, 0.0, 2024-03-13 22:56:14.418
56.0, -919.9966895999387, -614.667517317459, -587.7533272863366, -601.1982676270418, 0.6880000326782465, 0.6720000319182873, 0.41600001975893974, 0.0, 0.0, 0.0, 0.0, 0.0, 1.710395774433844E9, 0.0, 2024-03-13 22:56:14.433
56.0, -909.4838308244944, -609.1137658832595, -587.8879636847414, -602.5595912109129, 0.6880000326782465, 0.6720000319182873, 0.41600001975893974, 0.0, 0.0, 0.0, 0.0, 0.0, 1.710395774433844E9, 0.0, 2024-03-13 22:56:14.433
57.0, -902.3668012088165, -610.0150817725807, -588.4003299786709, -602.9522807062604, 0.6880000326782465, 0.6720000319182873, 0.41600001975893974, 0.0, 0.0, 0.0, 0.0, 0.0, 1.7103957744497094E9, 0.0, 2024-03-13 22:56:14.449
57.0, -884.703253718093, -587.9421922340989, -569.0987063073553, -578.388617797289, 0.6880000326782465, 0.6720000319182873, 0.41600001975893974, 0.0, 0.0, 0.0, 0.0, 0.0, 1.7103957744497094E9, 0.0, 2024-03-13 22:56:14.449
58.0, -910.8526342082769, -605.3850856274366, -590.0832849587314, -595.5884176935069, 0.6880000326782465, 0.6720000319182873, 0.41600001975893974, 0.0, 0.0, 0.0, 0.0, 0.0, 1.710395774450275E9, 0.0, 2024-03-13 22:56:14.450
58.0, -907.9542117426172, -610.8976981621236, -588.9575750720687, -599.6387293455191, 0.6880000326782465, 0.6720000319182873, 0.41600001975893974, 0.0, 0.0, 0.0, 0.0, 0.0, 1.710395774450275E9, 0.0, 2024-03-13 22:56:14.450
59.0, -907.1688327519223, -610.2319959700108, -598.1801683628, -599.9080021423288, 0.6880000326782465, 0.6720000319182873, 0.41600001975893974, 0.0, 0.0, 0.0, 0.0, 0.0, 1.7103957744638896E9, 0.0, 2024-03-13 22:56:14.463
59.0, -916.6906180391088, -615.2958205100149, -588.845378073398, -598.1278097634204, 0.6880000326782465, 0.6720000319182873, 0.41600001975893974, 0.0, 0.0, 0.0, 0.0, 0.0, 1.7103957744638896E9, 0.0, 2024-03-13 22:56:14.463
60.0, -901.2485711220652, -599.6630386952311, -569.6185524011962, -588.6733426754363, 0.6880000326782465, 0.6720000319182873, 0.41600001975893974, 0.0, 0.0, 0.0, 0.0, 0.0, 1.7103957744795437E9, 0.0, 2024-03-13 22:56:14.479
60.0, -903.6682863933966, -603.77692864649, -582.3155127507634, -591.8597374376841, 0.6880000326782465, 0.6720000319182873, 0.41600001975893974, 0.0, 0.0, 0.0, 0.0, 0.0, 1.7103957744795437E9, 0.0, 2024-03-13 22:56:14.479
61.0, -913.8333344729617, -616.0101414015517, -603.6142429984175, -606.9689332586713, 0.6880000326782465, 0.6720000319182873, 0.41600001975893974, 0.0, 0.0, 0.0, 0.0, 0.0, 1.7103957744802392E9, 0.0, 2024-03-13 22:56:14.480
61.0, -933.1947965435684, -623.5946585116908, -599.1824615509249, -611.7560052019544, 0.6880000326782465, 0.6720000319182873, 0.41600001975893974, 0.0, 0.0, 0.0, 0.0, 0.0, 1.7103957744802392E9, 0.0, 2024-03-13 22:56:14.480
62.0, -924.0881401514634, -622.3156127268448, -587.5588524886407, -605.9629001705907, 0.6880000326782465, 0.6720000319182873, 0.41600001975893974, 0.0, 0.0, 0.0, 0.0, 0.0, 1.7103957744941585E9, 0.0, 2024-03-13 22:56:14.494
62.0, -908.9565049307421, -619.4658089606091, -601.5198990232311, -607.8403299483471, 0.6880000326782465, 0.6720000319182873, 0.41600001975893974, 0.0, 0.0, 0.0, 0.0, 0.0, 1.7103957744941585E9, 0.0, 2024-03-13 22:56:14.494
63.0, -908.6573129342869, -619.8136196564883, -594.743200303521, -610.2376058199443, 0.6880000326782465, 0.6720000319182873, 0.41600001975893974, 0.0, 0.0, 0.0, 0.0, 0.0, 1.7103957745096347E9, 0.0, 2024-03-13 22:56:14.509
63.0, -904.8052159799263, -620.9318497432396, -588.9800144718029, -614.474912469741, 0.6880000326782465, 0.6720000319182873, 0.41600001975893974, 0.0, 0.0, 0.0, 0.0, 0.0, 1.7103957745096347E9, 0.0, 2024-03-13 22:56:14.509
64.0, -928.9163509942591, -630.4947739299387, -608.3452164423652, -623.7536042598076, 0.6880000326782465, 0.6720000319182873, 0.41600001975893974, 0.0, 0.0, 0.0, 0.0, 0.0, 1.7103957745102408E9, 0.0, 2024-03-13 22:56:14.510
64.0, -937.6078784912825, -638.9319882299751, -613.3492025830783, -627.1157743199728, 0.6880000326782465, 0.6720000319182873, 0.41600001975893974, 0.0, 0.0, 0.0, 0.0, 0.0, 1.7103957745102408E9, 0.0, 2024-03-13 22:56:14.510
65.0, -921.9002986773849, -636.5010532587767, -601.1122499280609, -619.7481714072637, 0.6880000326782465, 0.6720000319182873, 0.41600001975893974, 0.0, 0.0, 0.0, 0.0, 0.0, 1.7103957745241103E9, 0.0, 2024-03-13 22:56:14.524
65.0, -917.0197292352095, -619.7650009570643, -593.4417151189409, -608.8463630364276, 0.6880000326782465, 0.6720000319182873, 0.41600001975893974, 0.0, 0.0, 0.0, 0.0, 0.0, 1.7103957745241103E9, 0.0, 2024-03-13 22:56:14.524
66.0, -927.2221763143316, -628.5350663531572, -605.140122180339, -617.7884638304822, 0.6880000326782465, 0.6720000319182873, 0.41600001975893974, 0.0, 0.0, 0.0, 0.0, 0.0, 1.7103957745396452E9, 0.0, 2024-03-13 22:56:14.539
66.0, -923.8899254538119, -625.8011994855478, -592.9854473243468, -615.8399759535678, 0.6880000326782465, 0.6720000319182873, 0.41600001975893974, 0.0, 0.0, 0.0, 0.0, 0.0, 1.7103957745396452E9, 0.0, 2024-03-13 22:56:14.539
67.0, -905.3213221738115, -613.3922114325687, -586.8856704966165, -609.867355724331, 0.6880000326782465, 0.6720000319182873, 0.41600001975893974, 0.0, 0.0, 0.0, 0.0, 0.0, 1.7103957745405324E9, 0.0, 2024-03-13 22:56:14.540
67.0, -916.7205372387543, -618.9347431669012, -611.9990986990742, -618.6486408202909, 0.6880000326782465, 0.6720000319182873, 0.41600001975893974, 0.0, 0.0, 0.0, 0.0, 0.0, 1.7103957745405324E9, 0.0, 2024-03-13 22:56:14.540
68.0, -934.1222917325795, -635.6146969692782, -616.8796681412496, -627.6281406139024, 0.6880000326782465, 0.6720000319182873, 0.41600001975893974, 0.0, 0.0, 0.0, 0.0, 0.0, 1.7103957745539572E9, 0.0, 2024-03-13 22:56:14.553
68.0, -940.7419146541506, -642.7429462848231, -619.3405223120935, -632.5274095558561, 0.6880000326782465, 0.6720000319182873, 0.41600001975893974, 0.0, 0.0, 0.0, 0.0, 0.0, 1.7103957745539572E9, 0.0, 2024-03-13 22:56:14.553
69.0, -933.4565895404667, -624.2416612040251, -605.7085869736038, -617.4668324342929, 0.6880000326782465, 0.6720000319182873, 0.41600001975893974, 0.0, 0.0, 0.0, 0.0, 0.0, 1.7103957745705357E9, 0.0, 2024-03-13 22:56:14.570
69.0, -910.6245003109798, -604.3154742401093, -586.6163976998068, -590.4909340539016, 0.6880000326782465, 0.6720000319182873, 0.41600001975893974, 0.0, 0.0, 0.0, 0.0, 0.0, 1.7103957745705357E9, 0.0, 2024-03-13 22:56:14.570
70.0, -914.5065164649859, -611.5858397539705, -581.0140275661834, -599.4367747479118, 0.6880000326782465, 0.6720000319182873, 0.41600001975893974, 0.0, 0.0, 0.0, 0.0, 0.0, 1.7103957745711968E9, 0.0, 2024-03-13 22:56:14.571
70.0, -933.0377207454294, -624.0995450057089, -610.0917497216724, -616.4794988459907, 0.6880000326782465, 0.6720000319182873, 0.41600001975893974, 0.0, 0.0, 0.0, 0.0, 0.0, 1.7103957745711968E9, 0.0, 2024-03-13 22:56:14.571
71.0, -915.385392954573, -604.4351510386914, -593.561391917523, -596.8824230781756, 0.6880000326782465, 0.6720000319182873, 0.41600001975893974, 0.0, 0.0, 0.0, 0.0, 0.0, 1.7103957745838544E9, 0.0, 2024-03-13 22:56:14.583
71.0, -910.5384826119989, -602.2921883640811, -585.4308494138531, -597.204054474365, 0.6880000326782465, 0.6720000319182873, 0.41600001975893974, 0.0, 0.0, 0.0, 0.0, 0.0, 1.7103957745838544E9, 0.0, 2024-03-13 22:56:14.583
72.0, -921.8404602780938, -618.212942475453, -597.686501568649, -613.1023691860028, 0.6880000326782465, 0.6720000319182873, 0.41600001975893974, 0.0, 0.0, 0.0, 0.0, 0.0, 1.71039577459966E9, 0.0, 2024-03-13 22:56:14.599
72.0, -889.9540732558817, -585.3504415648058, -565.5345816495828, -576.4326501204632, 0.6880000326782465, 0.6720000319182873, 0.41600001975893974, 0.0, 0.0, 0.0, 0.0, 0.0, 1.71039577459966E9, 0.0, 2024-03-13 22:56:14.599
73.0, -893.6416146121919, -588.3423615293577, -559.6068402198143, -573.1714573591016, 0.6880000326782465, 0.6720000319182873, 0.41600001975893974, 0.0, 0.0, 0.0, 0.0, 0.0, 1.7103957746004672E9, 0.0, 2024-03-13 22:56:14.600
73.0, -931.0630535688251, -629.5037004416808, -609.5494642280973, -618.4915650221519, 0.6880000326782465, 0.6720000319182873, 0.41600001975893974, 0.0, 0.0, 0.0, 0.0, 0.0, 1.7103957746004672E9, 0.0, 2024-03-13 22:56:14.600
74.0, -901.7347581163049, -605.8450933219865, -600.3231310374103, -603.3674096013419, 0.6880000326782465, 0.6720000319182873, 0.41600001975893974, 0.0, 0.0, 0.0, 0.0, 0.0, 1.7103957746141546E9, 0.0, 2024-03-13 22:56:14.614
74.0, -912.8983594840392, -609.5251548783854, -592.0878713349812, -597.9108955659904, 0.6880000326782465, 0.6720000319182873, 0.41600001975893974, 0.0, 0.0, 0.0, 0.0, 0.0, 1.7103957746141546E9, 0.0, 2024-03-13 22:56:14.614
75.0, -905.3288019737229, -601.3385138753802, -571.8886716743, -591.3847701433115, 0.6880000326782465, 0.6720000319182873, 0.41600001975893974, 0.0, 0.0, 0.0, 0.0, 0.0, 1.710395774629495E9, 0.0, 2024-03-13 22:56:14.629
75.0, -907.0715953530744, -608.6948970882222, -586.964208395686, -595.648256092798, 0.6880000326782465, 0.6720000319182873, 0.41600001975893974, 0.0, 0.0, 0.0, 0.0, 0.0, 1.710395774629495E9, 0.0, 2024-03-13 22:56:14.629
76.0, -901.9254930140451, -603.9975827438757, -583.4449625373818, -595.2555665974505, 0.6880000326782465, 0.6720000319182873, 0.41600001975893974, 0.0, 0.0, 0.0, 0.0, 0.0, 1.7103957746302135E9, 0.0, 2024-03-13 22:56:14.630
76.0, -913.4892636770383, -612.7003299407661, -589.8027924620546, -603.6292025982402, 0.6880000326782465, 0.6720000319182873, 0.41600001975893974, 0.0, 0.0, 0.0, 0.0, 0.0, 1.7103957746302135E9, 0.0, 2024-03-13 22:56:14.630
77.0, -904.6593598816544, -603.6460321480408, -575.2321422346868, -592.1589294341393, 0.6880000326782465, 0.6720000319182873, 0.41600001975893974, 0.0, 0.0, 0.0, 0.0, 0.0, 1.7103957746438456E9, 0.0, 2024-03-13 22:56:14.643
77.0, -913.0142963826656, -609.8654857743531, -588.9725346718915, -597.8173980670981, 0.6880000326782465, 0.6720000319182873, 0.41600001975893974, 0.0, 0.0, 0.0, 0.0, 0.0, 1.7103957746438456E9, 0.0, 2024-03-13 22:56:14.643
78.0, -889.8568358570337, -590.2983292061836, -569.5774135016836, -581.7320883576758, 0.6880000326782465, 0.6720000319182873, 0.41600001975893974, 0.0, 0.0, 0.0, 0.0, 0.0, 1.710395774659968E9, 0.0, 2024-03-13 22:56:14.659
78.0, -919.0392752112821, -607.7636619992554, -564.6931041595526, -581.8854242558591, 0.6880000326782465, 0.6720000319182873, 0.41600001975893974, 0.0, 0.0, 0.0, 0.0, 0.0, 1.710395774659968E9, 0.0, 2024-03-13 22:56:14.659
79.0, -922.3528265720233, -611.5484407544136, -604.6988139855675, -599.2796989497729, 0.6880000326782465, 0.6720000319182873, 0.41600001975893974, 0.0, 0.0, 0.0, 0.0, 0.0, 1.710395774660483E9, 0.0, 2024-03-13 22:56:14.660
79.0, -914.8505872609094, -604.584747036919, -582.356651650276, -595.7380136917345, 0.6880000326782465, 0.6720000319182873, 0.41600001975893974, 0.0, 0.0, 0.0, 0.0, 0.0, 1.710395774660483E9, 0.0, 2024-03-13 22:56:14.660
80.0, -926.0889866277575, -616.4589293962345, -579.2113957875408, -597.0133195766248, 0.6880000326782465, 0.6720000319182873, 0.41600001975893974, 0.0, 0.0, 0.0, 0.0, 0.0, 1.7103957746741593E9, 0.0, 2024-03-13 22:56:14.674
80.0, -918.1267396220937, -606.7875481108204, -591.6353434403427, -597.0394988763146, 0.6880000326782465, 0.6720000319182873, 0.41600001975893974, 0.0, 0.0, 0.0, 0.0, 0.0, 1.7103957746741593E9, 0.0, 2024-03-13 22:56:14.674
81.0, -907.1351736523211, -594.1728655602783, -578.859845191706, -583.0485331420787, 0.6880000326782465, 0.6720000319182873, 0.41600001975893974, 0.0, 0.0, 0.0, 0.0, 0.0, 1.7103957747063808E9, 0.0, 2024-03-13 22:56:14.706
81.0, -905.291402974166, -599.6929578948766, -572.5207147668116, -585.4271095138974, 0.6880000326782465, 0.6720000319182873, 0.41600001975893974, 0.0, 0.0, 0.0, 0.0, 0.0, 1.7103957747063808E9, 0.0, 2024-03-13 22:56:14.706
82.0, -903.3466549972072, -598.0773211140186, -576.1371980239637, -588.471388077829, 0.6880000326782465, 0.6720000319182873, 0.41600001975893974, 0.0, 0.0, 0.0, 0.0, 0.0, 1.710395774707008E9, 0.0, 2024-03-13 22:56:14.707
82.0, -897.3515953682363, -585.5075173629448, -570.2431156937964, -577.2890872103162, 0.6880000326782465, 0.6720000319182873, 0.41600001975893974, 0.0, 0.0, 0.0, 0.0, 0.0, 1.710395774707008E9, 0.0, 2024-03-13 22:56:14.707
83.0, -901.7048389166594, -594.12798676081, -585.5841853120364, -591.4221691428684, 0.6880000326782465, 0.6720000319182873, 0.41600001975893974, 0.0, 0.0, 0.0, 0.0, 0.0, 1.7103957747074993E9, 0.0, 2024-03-13 22:56:14.707
83.0, -894.4269936028868, -590.0701953088865, -569.9289640975185, -581.5338736600243, 0.6880000326782465, 0.6720000319182873, 0.41600001975893974, 0.0, 0.0, 0.0, 0.0, 0.0, 1.7103957747074993E9, 0.0, 2024-03-13 22:56:14.707
84.0, -883.2334730355069, -578.6111418446526, -570.1234388952143, -575.7071095290594, 0.6880000326782465, 0.6720000319182873, 0.41600001975893974, 0.0, 0.0, 0.0, 0.0, 0.0, 1.710395774708218E9, 0.0, 2024-03-13 22:56:14.708
84.0, -902.0788289122283, -597.1086870254949, -586.6163976998068, -588.0525192827918, 0.6880000326782465, 0.6720000319182873, 0.41600001975893974, 0.0, 0.0, 0.0, 0.0, 0.0, 1.710395774708218E9, 0.0, 2024-03-13 22:56:14.708
85.0, -906.6714260578156, -600.882246080786, -582.7082022461109, -590.6854088515975, 0.6880000326782465, 0.6720000319182873, 0.41600001975893974, 0.0, 0.0, 0.0, 0.0, 0.0, 1.7103957747189097E9, 0.0, 2024-03-13 22:56:14.718
85.0, -901.9666319135576, -596.4990833327174, -580.9541891668923, -583.1382907410152, 0.6880000326782465, 0.6720000319182873, 0.41600001975893974, 0.0, 0.0, 0.0, 0.0, 0.0, 1.7103957747189097E9, 0.0, 2024-03-13 22:56:14.718
86.0, -899.9096869379282, -587.1044546440244, -562.2584292883985, -571.1369517832063, 0.6880000326782465, 0.6720000319182873, 0.41600001975893974, 0.0, 0.0, 0.0, 0.0, 0.0, 1.71039577473388E9, 0.0, 2024-03-13 22:56:14.733
86.0, -922.7754352670163, -617.3303260859102, -592.9031695253216, -604.4893795880489, 0.6880000326782465, 0.6720000319182873, 0.41600001975893974, 0.0, 0.0, 0.0, 0.0, 0.0, 1.71039577473388E9, 0.0, 2024-03-13 22:56:14.733
87.0, -924.5144887464121, -610.2993141692132, -593.7259475155734, -599.5564515464939, 0.6880000326782465, 0.6720000319182873, 0.41600001975893974, 0.0, 0.0, 0.0, 0.0, 0.0, 1.7103957747496111E9, 0.0, 2024-03-13 22:56:14.749
87.0, -902.2097254106775, -588.6340737259015, -575.2471018345095, -577.8837313032709, 0.6880000326782465, 0.6720000319182873, 0.41600001975893974, 0.0, 0.0, 0.0, 0.0, 0.0, 1.7103957747496111E9, 0.0, 2024-03-13 22:56:14.749
88.0, -896.6297946767882, -584.2845700774342, -553.495843692217, -568.8593527101912, 0.6880000326782465, 0.6720000319182873, 0.41600001975893974, 0.0, 0.0, 0.0, 0.0, 0.0, 1.7103957747502675E9, 0.0, 2024-03-13 22:56:14.750
88.0, -912.4196522897109, -601.9406377682462, -582.7044623461552, -589.4437620663084, 0.6880000326782465, 0.6720000319182873, 0.41600001975893974, 0.0, 0.0, 0.0, 0.0, 0.0, 1.7103957747502675E9, 0.0, 2024-03-13 22:56:14.750
89.0, -912.2176976921037, -593.7465169653296, -589.1258705700748, -582.6932426462881, 0.6880000326782465, 0.6720000319182873, 0.41600001975893974, 0.0, 0.0, 0.0, 0.0, 0.0, 1.7103957747638648E9, 0.0, 2024-03-13 22:56:14.763
89.0, -890.107409154065, -584.2209917781875, -571.0995527836494, -568.8593527101912, 0.6880000326782465, 0.6720000319182873, 0.41600001975893974, 0.0, 0.0, 0.0, 0.0, 0.0, 1.7103957747638648E9, 0.0, 2024-03-13 22:56:14.763
90.0, -886.621822395362, -574.5795296924189, -549.636266937945, -563.0812072786503, 0.6880000326782465, 0.6720000319182873, 0.41600001975893974, 0.0, 0.0, 0.0, 0.0, 0.0, 1.7103957747796433E9, 0.0, 2024-03-13 22:56:14.779
90.0, -884.7817916171625, -574.7964438898489, -551.2332042190246, -562.553881384898, 0.6880000326782465, 0.6720000319182873, 0.41600001975893974, 0.0, 0.0, 0.0, 0.0, 0.0, 1.7103957747796433E9, 0.0, 2024-03-13 22:56:14.779
91.0, -906.2525572627783, -596.4168055336922, -581.3842776617967, -585.3111726152711, 0.6880000326782465, 0.6720000319182873, 0.41600001975893974, 0.0, 0.0, 0.0, 0.0, 0.0, 1.7103957747802885E9, 0.0, 2024-03-13 22:56:14.780
91.0, -898.2903102571145, -589.4942507157102, -570.018721696455, -582.9138967436738, 0.6880000326782465, 0.6720000319182873, 0.41600001975893974, 0.0, 0.0, 0.0, 0.0, 0.0, 1.7103957747802885E9, 0.0, 2024-03-13 22:56:14.780
92.0, -873.427455351688, -567.1296489806846, -539.699352755677, -559.4123654221185, 0.6880000326782465, 0.6720000319182873, 0.41600001975893974, 0.0, 0.0, 0.0, 0.0, 0.0, 1.71039577479399E9, 0.0, 2024-03-13 22:56:14.793
92.0, -907.7185980454087, -597.119906725362, -575.6884100292809, -580.849471968133, 0.6880000326782465, 0.6720000319182873, 0.41600001975893974, 0.0, 0.0, 0.0, 0.0, 0.0, 1.71039577479399E9, 0.0, 2024-03-13 22:56:14.793
93.0, -918.5867473166436, -615.8680252032354, -594.2383138095029, -599.7284869444557, 0.6880000326782465, 0.6720000319182873, 0.41600001975893974, 0.0, 0.0, 0.0, 0.0, 0.0, 1.7103957748100464E9, 0.0, 2024-03-13 22:56:14.810
93.0, -911.0658085057512, -601.7312033707276, -576.8851780151017, -588.8266785736196, 0.6880000326782465, 0.6720000319182873, 0.41600001975893974, 0.0, 0.0, 0.0, 0.0, 0.0, 1.7103957748100464E9, 0.0, 2024-03-13 22:56:14.810
94.0, -906.3834537612274, -587.8112957356498, -581.163623564411, -575.0152280372567, 0.6880000326782465, 0.6720000319182873, 0.41600001975893974, 0.0, 0.0, 0.0, 0.0, 0.0, 1.7103957748249073E9, 0.0, 2024-03-13 22:56:14.824
94.0, -903.3803140968084, -586.6182676497847, -569.9850625968538, -567.3970518275164, 0.6880000326782465, 0.6720000319182873, 0.41600001975893974, 0.0, 0.0, 0.0, 0.0, 0.0, 1.7103957748249073E9, 0.0, 2024-03-13 22:56:14.824
95.0, -909.753103621304, -603.4590371502563, -582.2781137512065, -592.1290102344938, 0.6880000326782465, 0.6720000319182873, 0.41600001975893974, 0.0, 0.0, 0.0, 0.0, 0.0, 1.7103957748252597E9, 0.0, 2024-03-13 22:56:14.825
95.0, -908.2272244393826, -596.0989140374586, -575.9539429261349, -589.3914034669288, 0.6880000326782465, 0.6720000319182873, 0.41600001975893974, 0.0, 0.0, 0.0, 0.0, 0.0, 1.7103957748252597E9, 0.0, 2024-03-13 22:56:14.825
96.0, -912.6664856867865, -598.2306570122018, -583.8825308321975, -586.4181830021553, 0.6880000326782465, 0.6720000319182873, 0.41600001975893974, 0.0, 0.0, 0.0, 0.0, 0.0, 1.710395774839576E9, 0.0, 2024-03-13 22:56:14.839
96.0, -908.6947119338438, -596.1288332371041, -566.798667834606, -580.7971133687533, 0.6880000326782465, 0.6720000319182873, 0.41600001975893974, 0.0, 0.0, 0.0, 0.0, 0.0, 1.710395774839576E9, 0.0, 2024-03-13 22:56:14.839
97.0, -897.777943963185, -587.0745354443789, -550.1448933319189, -564.8501799576916, 0.6880000326782465, 0.6720000319182873, 0.41600001975893974, 0.0, 0.0, 0.0, 0.0, 0.0, 1.7103957748402648E9, 0.0, 2024-03-13 22:56:14.840
97.0, -883.9141348274425, -575.6528809797019, -568.5900799133815, -567.5690872254781, 0.6880000326782465, 0.6720000319182873, 0.41600001975893974, 0.0, 0.0, 0.0, 0.0, 0.0, 1.7103957748402648E9, 0.0, 2024-03-13 22:56:14.840
98.0, -893.4920186139643, -586.6182676497847, -574.1700106472708, -578.3699182975106, 0.6880000326782465, 0.6720000319182873, 0.41600001975893974, 0.0, 0.0, 0.0, 0.0, 0.0, 1.7103957748539488E9, 0.0, 2024-03-13 22:56:14.853
98.0, -910.7778362091631, -601.2038774769753, -583.3028463390656, -598.011872864794, 0.6880000326782465, 0.6720000319182873, 0.41600001975893974, 0.0, 0.0, 0.0, 0.0, 0.0, 1.7103957748539488E9, 0.0, 2024-03-13 22:56:14.853
99.0, -864.5938116563484, -554.5673250295222, -535.8696952010505, -547.2576905661263, 0.6880000326782465, 0.6720000319182873, 0.41600001975893974, 0.0, 0.0, 0.0, 0.0, 0.0, 1.710395774869823E9, 0.0, 2024-03-13 22:56:14.869
99.0, -899.718952040188, -587.4148663403466, -571.1780906827189, -575.2994604338892, 0.6880000326782465, 0.6720000319182873, 0.41600001975893974, 0.0, 0.0, 0.0, 0.0, 0.0, 1.710395774869823E9, 0.0, 2024-03-13 22:56:14.869
100.0, -907.7185980454087, -600.7214303826913, -588.9276558724232, -596.5121729825623, 0.6880000326782465, 0.6720000319182873, 0.41600001975893974, 0.0, 0.0, 0.0, 0.0, 0.0, 1.7103957748704123E9, 0.0, 2024-03-13 22:56:14.870
100.0, -907.0977746527642, -598.3540737107396, -577.9099106029607, -590.618090652395, 0.6880000326782465, 0.6720000319182873, 0.41600001975893974, 0.0, 0.0, 0.0, 0.0, 0.0, 1.7103957748704123E9, 0.0, 2024-03-13 22:56:14.870
0.0, -905.1679862756282, -594.0718882614747, -574.6487178415991, -579.028140689712, 0.6880000326782465, 0.6720000319182873, 0.41600001975893974, 0.0, 0.0, 0.0, 0.0, 0.0, 1.710395774884518E9, 0.0, 2024-03-13 22:56:14.884
1.0, -884.0861702254042, -581.6853396082297, -565.4971826500259, -578.2278020991944, 0.6880000326782465, 0.6720000319182873, 0.41600001975893974, 0.0, 0.0, 0.0, 0.0, 0.0, 1.7103957748852286E9, 0.0, 2024-03-13 22:56:14.885
1.0, -922.947470664978, -612.1393449474126, -587.169902893249, -602.1257628160529, 0.6880000326782465, 0.6720000319182873, 0.41600001975893974, 0.0, 0.0, 0.0, 0.0, 0.0, 1.7103957748852286E9, 0.0, 2024-03-13 22:56:14.885
2.0, -866.7031152313575, -571.7970441253856, -549.2398375426419, -559.0009764269926, 0.6880000326782465, 0.6720000319182873, 0.41600001975893974, 0.0, 0.0, 0.0, 0.0, 0.0, 1.710395774898862E9, 0.0, 2024-03-13 22:56:14.898
2.0, -923.3252005605027, -619.2451548632234, -599.1525423512794, -605.3532964778133, 0.6880000326782465, 0.6720000319182873, 0.41600001975893974, 0.0, 0.0, 0.0, 0.0, 0.0, 1.710395774898862E9, 0.0, 2024-03-13 22:56:14.898
3.0, -918.111780022271, -620.7037158459425, -588.736920974683, -601.1384292277507, 0.6880000326782465, 0.6720000319182873, 0.41600001975893974, 0.0, 0.0, 0.0, 0.0, 0.0, 1.7103957749145205E9, 0.0, 2024-03-13 22:56:14.914
3.0, -902.613634605892, -605.3663861276582, -592.6488563283347, -596.6206300812773, 0.6880000326782465, 0.6720000319182873, 0.41600001975893974, 0.0, 0.0, 0.0, 0.0, 0.0, 1.7103957749145205E9, 0.0, 2024-03-13 22:56:14.914
4.0, -937.9182901876047, -627.1213841699064, -596.1381829869933, -610.2787447194569, 0.6880000326782465, 0.6720000319182873, 0.41600001975893974, 0.0, 0.0, 0.0, 0.0, 0.0, 1.7103957749152431E9, 0.0, 2024-03-13 22:56:14.915
4.0, -932.7011297494173, -632.5105800060555, -597.6266631693579, -610.735012514051, 0.6880000326782465, 0.6720000319182873, 0.41600001975893974, 0.0, 0.0, 0.0, 0.0, 0.0, 1.7103957749152431E9, 0.0, 2024-03-13 22:56:14.915
5.0, -906.8659008555114, -614.4917420195416, -593.1350433225743, -600.3717497368343, 0.6880000326782465, 0.6720000319182873, 0.41600001975893974, 0.0, 0.0, 0.0, 0.0, 0.0, 1.7103957749288363E9, 0.0, 2024-03-13 22:56:14.928
5.0, -901.3420686209574, -603.305701252073, -583.153250340838, -595.0947508993559, 0.6880000326782465, 0.6720000319182873, 0.41600001975893974, 0.0, 0.0, 0.0, 0.0, 0.0, 1.7103957749288363E9, 0.0, 2024-03-13 22:56:14.928
6.0, -923.1195060629398, -625.4459089897573, -603.22155350307, -614.9386600642465, 0.6880000326782465, 0.6720000319182873, 0.41600001975893974, 0.0, 0.0, 0.0, 0.0, 0.0, 1.710395774944565E9, 0.0, 2024-03-13 22:56:14.944
6.0, -930.8947580708191, -625.8610378848389, -604.2537658908404, -618.9553126166575, 0.6880000326782465, 0.6720000319182873, 0.41600001975893974, 0.0, 0.0, 0.0, 0.0, 0.0, 1.710395774944565E9, 0.0, 2024-03-13 22:56:14.944
7.0, -906.1852390635759, -603.9302645446733, -584.5108340247534, -596.5458320821635, 0.6880000326782465, 0.6720000319182873, 0.41600001975893974, 0.0, 0.0, 0.0, 0.0, 0.0, 1.7103957749452467E9, 0.0, 2024-03-13 22:56:14.945
7.0, -925.2961278371513, -631.5195065177977, -625.36550114071, -632.9425384509377, 0.6880000326782465, 0.6720000319182873, 0.41600001975893974, 0.0, 0.0, 0.0, 0.0, 0.0, 1.7103957749452467E9, 0.0, 2024-03-13 22:56:14.945
8.0, -933.6024456387386, -633.3034387966618, -604.8596296836622, -628.3312418055721, 0.6880000326782465, 0.6720000319182873, 0.41600001975893974, 0.0, 0.0, 0.0, 0.0, 0.0, 1.7103957749590652E9, 0.0, 2024-03-13 22:56:14.959
8.0, -927.9551967056468, -619.0282406657934, -611.4867324051447, -614.7815842661075, 0.6880000326782465, 0.6720000319182873, 0.41600001975893974, 0.0, 0.0, 0.0, 0.0, 0.0, 1.7103957749590652E9, 0.0, 2024-03-13 22:56:14.959
9.0, -926.0665472280234, -618.8562052678317, -594.8703569020145, -612.9415534879081, 0.6880000326782465, 0.6720000319182873, 0.41600001975893974, 0.0, 0.0, 0.0, 0.0, 0.0, 1.7103957749745755E9, 0.0, 2024-03-13 22:56:14.974
9.0, -931.1640308676288, -635.6296565691009, -623.809702759143, -632.0674018613063, 0.6880000326782465, 0.6720000319182873, 0.41600001975893974, 0.0, 0.0, 0.0, 0.0, 0.0, 1.7103957749745755E9, 0.0, 2024-03-13 22:56:14.974
10.0, -921.9414375768974, -620.9243699433282, -597.1255165752955, -610.0057320226915, 0.6880000326782465, 0.6720000319182873, 0.41600001975893974, 0.0, 0.0, 0.0, 0.0, 0.0, 1.7103957749755228E9, 0.0, 2024-03-13 22:56:14.975
10.0, -925.9206911297515, -624.2902799034491, -603.2065939032473, -609.7850779253058, 0.6880000326782465, 0.6720000319182873, 0.41600001975893974, 0.0, 0.0, 0.0, 0.0, 0.0, 1.7103957749755228E9, 0.0, 2024-03-13 22:56:14.975
11.0, -944.0891251144931, -628.6809224514291, -591.5605454412289, -609.4634465291165, 0.6880000326782465, 0.6880000326782465, 0.41600001975893974, 0.0, 0.0, 0.0, 0.0, 0.0, 1.7103957749889698E9, 0.0, 2024-03-13 22:56:14.988
11.0, -922.4164048712701, -617.4986215839162, -590.6928886515088, -607.081130257342, 0.6880000326782465, 0.6880000326782465, 0.41600001975893974, 0.0, 0.0, 0.0, 0.0, 0.0, 1.7103957749889698E9, 0.0, 2024-03-13 22:56:14.988
12.0, -897.7106257639825, -596.2185908360407, -582.4239698494785, -593.669849016238, 0.6880000326782465, 0.6880000326782465, 0.41600001975893974, 0.0, 0.0, 0.0, 0.0, 0.0, 1.710395775004557E9, 0.0, 2024-03-13 22:56:15.004
12.0, -926.6686711208895, -622.5100875245407, -599.2796989497729, -613.5623768805526, 0.6880000326782465, 0.6880000326782465, 0.41600001975893974, 0.0, 0.0, 0.0, 0.0, 0.0, 1.710395775004557E9, 0.0, 2024-03-13 22:56:15.004
13.0, -925.950610329397, -620.3933041496202, -590.9060629489832, -614.594589268323, 0.6880000326782465, 0.6880000326782465, 0.41600001975893974, 0.0, 0.0, 0.0, 0.0, 0.0, 1.7103957750054195E9, 0.0, 2024-03-13 22:56:15.005
13.0, -929.7241693846881, -622.4801683248952, -618.5775827211328, -618.4279867229052, 0.6880000326782465, 0.6880000326782465, 0.41600001975893974, 0.0, 0.0, 0.0, 0.0, 0.0, 1.7103957750054195E9, 0.0, 2024-03-13 22:56:15.005
14.0, -919.0317954113707, -613.8896181266755, -597.2377135739662, -602.4997528116219, 0.6880000326782465, 0.6880000326782465, 0.41600001975893974, 0.0, 0.0, 0.0, 0.0, 0.0, 1.7103957750188491E9, 0.0, 2024-03-13 22:56:15.018
14.0, -926.9753429172561, -625.2888331916183, -596.87868317822, -616.6739736436866, 0.6880000326782465, 0.6880000326782465, 0.41600001975893974, 0.0, 0.0, 0.0, 0.0, 0.0, 1.7103957750188491E9, 0.0, 2024-03-13 22:56:15.018
15.0, -914.4130189660937, -618.6392910704017, -607.9450471471064, -611.2398990080692, 0.6880000326782465, 0.6880000326782465, 0.41600001975893974, 0.0, 0.0, 0.0, 0.0, 0.0, 1.710395775034517E9, 0.0, 2024-03-13 22:56:15.034
15.0, -921.0887403870001, -618.7963668685406, -604.777351884637, -609.710279926192, 0.6880000326782465, 0.6880000326782465, 0.41600001975893974, 0.0, 0.0, 0.0, 0.0, 0.0, 1.710395775034517E9, 0.0, 2024-03-13 22:56:15.034
16.0, -891.5360509371385, -594.0531887616962, -574.4617228438146, -594.3467709082179, 0.6880000326782465, 0.6880000326782465, 0.41600001975893974, 0.0, 0.0, 0.0, 0.0, 0.0, 1.7103957750352373E9, 0.0, 2024-03-13 22:56:15.035
16.0, -918.7326034149155, -619.275074062869, -596.3663168842904, -617.0105646396987, 0.6880000326782465, 0.6880000326782465, 0.41600001975893974, 0.0, 0.0, 0.0, 0.0, 0.0, 1.7103957750352373E9, 0.0, 2024-03-13 22:56:15.035
17.0, -906.375973961316, -611.0697335600853, -608.4237543414347, -611.0603838101961, 0.6880000326782465, 0.6880000326782465, 0.41600001975893974, 0.0, 0.0, 0.0, 0.0, 0.0, 1.7103957750488536E9, 0.0, 2024-03-13 22:56:15.048
17.0, -917.4423379302025, -619.7163822576404, -599.7883253437467, -611.8607224007137, 0.6880000326782465, 0.6880000326782465, 0.41600001975893974, 0.0, 0.0, 0.0, 0.0, 0.0, 1.7103957750488536E9, 0.0, 2024-03-13 22:56:15.048
18.0, -902.4004603084177, -608.010495396331, -589.4288024664856, -605.0840236810036, 0.6880000326782465, 0.6880000326782465, 0.41600001975893974, 0.0, 0.0, 0.0, 0.0, 0.0, 1.710395775080886E9, 0.0, 2024-03-13 22:56:15.080
18.0, -872.5448389621451, -572.0999760217965, -557.6658321428113, -570.6358051891439, 0.6880000326782465, 0.6880000326782465, 0.41600001975893974, 0.0, 0.0, 0.0, 0.0, 0.0, 1.710395775080886E9, 0.0, 2024-03-13 22:56:15.080
19.0, -896.3081632805988, -596.637459631078, -567.9430772210471, -580.7858936688863, 0.6880000326782465, 0.6880000326782465, 0.41600001975893974, 0.0, 0.0, 0.0, 0.0, 0.0, 1.7103957750816169E9, 0.0, 2024-03-13 22:56:15.081
19.0, -917.5769743286073, -618.2428616750985, -593.9466016129591, -610.3311033188365, 0.6880000326782465, 0.6880000326782465, 0.41600001975893974, 0.0, 0.0, 0.0, 0.0, 0.0, 1.7103957750816169E9, 0.0, 2024-03-13 22:56:15.081
20.0, -889.9129343563691, -593.2977289706469, -580.0341737777926, -589.42506256653, 0.6880000326782465, 0.6880000326782465, 0.41600001975893974, 0.0, 0.0, 0.0, 0.0, 0.0, 1.71039577508237E9, 0.0, 2024-03-13 22:56:15.082
20.0, -878.6221763901412, -590.6461399020627, -585.0007609189488, -588.9912341716699, 0.6880000326782465, 0.6880000326782465, 0.41600001975893974, 0.0, 0.0, 0.0, 0.0, 0.0, 1.71039577508237E9, 0.0, 2024-03-13 22:56:15.082
21.0, -900.6314876293764, -601.2038774769753, -568.7508956114762, -586.324685503263, 0.6880000326782465, 0.6720000319182873, 0.41600001975893974, 0.0, 0.0, 0.0, 0.0, 0.0, 1.7103957750831168E9, 0.0, 2024-03-13 22:56:15.083
21.0, -887.4259008858353, -586.4611918516457, -573.0330810607411, -580.090272277128, 0.6880000326782465, 0.6720000319182873, 0.41600001975893974, 0.0, 0.0, 0.0, 0.0, 0.0, 1.7103957750831168E9, 0.0, 2024-03-13 22:56:15.083
22.0, -905.5756353707984, -606.5294950138777, -603.4347278005444, -599.1301029515453, 0.6880000326782465, 0.6720000319182873, 0.41600001975893974, 0.0, 0.0, 0.0, 0.0, 0.0, 1.7103957750942245E9, 0.0, 2024-03-13 22:56:15.094
22.0, -888.8844618685544, -588.6677328255028, -574.9366901381873, -580.1052318769507, 0.6880000326782465, 0.6720000319182873, 0.41600001975893974, 0.0, 0.0, 0.0, 0.0, 0.0, 1.7103957750942245E9, 0.0, 2024-03-13 22:56:15.094
23.0, -882.8520032400265, -586.408833252266, -568.0964131192304, -577.1993296113797, 0.6880000326782465, 0.6720000319182873, 0.41600001975893974, 0.0, 0.0, 0.0, 0.0, 0.0, 1.710395775108834E9, 0.0, 2024-03-13 22:56:15.108
23.0, -890.0550505546853, -584.3219690769911, -575.1648240354843, -578.919683590997, 0.6880000326782465, 0.6720000319182873, 0.41600001975893974, 0.0, 0.0, 0.0, 0.0, 0.0, 1.710395775108834E9, 0.0, 2024-03-13 22:56:15.108
24.0, -880.9596138624474, -578.8729348415509, -553.9221922871657, -562.6660783835687, 0.6880000326782465, 0.6720000319182873, 0.41600001975893974, 0.0, 0.0, 0.0, 0.0, 0.0, 1.710395775141342E9, 0.0, 2024-03-13 22:56:15.141
24.0, -916.7055776389316, -621.1151048410684, -602.6269094101153, -608.1657012444921, 0.6880000326782465, 0.6720000319182873, 0.41600001975893974, 0.0, 0.0, 0.0, 0.0, 0.0, 1.710395775141342E9, 0.0, 2024-03-13 22:56:15.141
25.0, -911.9671243950725, -613.9045777264982, -606.4790063644759, -605.2223999793641, 0.6880000326782465, 0.6720000319182873, 0.41600001975893974, 0.0, 0.0, 0.0, 0.0, 0.0, 1.7103957751418328E9, 0.0, 2024-03-13 22:56:15.141
25.0, -906.6340270582587, -604.4800298381597, -586.7734734979458, -585.6776828109287, 0.6880000326782465, 0.6720000319182873, 0.41600001975893974, 0.0, 0.0, 0.0, 0.0, 0.0, 1.7103957751418328E9, 0.0, 2024-03-13 22:56:15.141
26.0, -897.4413529671729, -595.7959821410477, -573.4332503559999, -579.1216381886043, 0.6880000326782465, 0.6720000319182873, 0.41600001975893974, 0.0, 0.0, 0.0, 0.0, 0.0, 1.710395775142506E9, 0.0, 2024-03-13 22:56:15.142
26.0, -891.0199447432533, -595.2686562472954, -567.8196605225094, -582.128517752979, 0.6880000326782465, 0.6720000319182873, 0.41600001975893974, 0.0, 0.0, 0.0, 0.0, 0.0, 1.710395775142506E9, 0.0, 2024-03-13 22:56:15.142
27.0, -897.2431382695213, -601.6825846713036, -587.240960992407, -581.9789217547514, 0.6880000326782465, 0.6720000319182873, 0.41600001975893974, 0.0, 0.0, 0.0, 0.0, 0.0, 1.7103957751431756E9, 0.0, 2024-03-13 22:56:15.143
27.0, -892.5832229247317, -607.8235003985465, -583.418783237692, -587.4578751898371, 0.6880000326782465, 0.6720000319182873, 0.41600001975893974, 0.0, 0.0, 0.0, 0.0, 0.0, 1.7103957751431756E9, 0.0, 2024-03-13 22:56:15.143
28.0, -888.0018454790115, -598.5111495088786, -570.1683176946826, -582.9737351429649, 0.6880000326782465, 0.6720000319182873, 0.41600001975893974, 0.0, 0.0, 0.0, 0.0, 0.0, 1.7103957751538403E9, 0.0, 2024-03-13 22:56:15.153
28.0, -913.6650389749557, -620.2100490517914, -590.8424846497364, -595.7641929914244, 0.6880000326782465, 0.6720000319182873, 0.41600001975893974, 0.0, 0.0, 0.0, 0.0, 0.0, 1.7103957751538403E9, 0.0, 2024-03-13 22:56:15.153
29.0, -909.3155353264883, -611.3951048562303, -582.0088409543969, -588.7631002743728, 0.6880000326782465, 0.6720000319182873, 0.41600001975893974, 0.0, 0.0, 0.0, 0.0, 0.0, 1.710395775168855E9, 0.0, 2024-03-13 22:56:15.168
29.0, -905.3063625739887, -613.751241828315, -595.4837004947476, -604.7810917845927, 0.6880000326782465, 0.6720000319182873, 0.41600001975893974, 0.0, 0.0, 0.0, 0.0, 0.0, 1.710395775168855E9, 0.0, 2024-03-13 22:56:15.168
30.0, -871.0862779794261, -580.6344277206808, -569.861645898316, -577.7490949048661, 0.6880000326782465, 0.6720000319182873, 0.41600001975893974, 0.0, 0.0, 0.0, 0.0, 0.0, 1.7103957751845272E9, 0.0, 2024-03-13 22:56:15.184
30.0, -897.7106257639825, -592.6507262783125, -571.4847624790855, -574.7160360408016, 0.6880000326782465, 0.6720000319182873, 0.41600001975893974, 0.0, 0.0, 0.0, 0.0, 0.0, 1.7103957751845272E9, 0.0, 2024-03-13 22:56:15.184
31.0, -900.7997831273824, -602.0116958674043, -580.1052318769507, -589.376443867106, 0.6880000326782465, 0.6720000319182873, 0.41600001975893974, 0.0, 0.0, 0.0, 0.0, 0.0, 1.710395775185222E9, 0.0, 2024-03-13 22:56:15.185
31.0, -917.8088481258601, -619.7163822576404, -612.0477173984982, -609.5045854286291, 0.6880000326782465, 0.6720000319182873, 0.41600001975893974, 0.0, 0.0, 0.0, 0.0, 0.0, 1.710395775185222E9, 0.0, 2024-03-13 22:56:15.185
32.0, -912.6141270874068, -603.5637543490157, -596.8225846788846, -591.1528963460587, 0.6880000326782465, 0.6720000319182873, 0.41600001975893974, 0.0, 0.0, 0.0, 0.0, 0.0, 1.710395775198856E9, 0.0, 2024-03-13 22:56:15.198
32.0, -867.1257239263505, -559.9228617660701, -544.7706570955925, -553.5818613911979, 0.6880000326782465, 0.6720000319182873, 0.41600001975893974, 0.0, 0.0, 0.0, 0.0, 0.0, 1.710395775198856E9, 0.0, 2024-03-13 22:56:15.198
33.0, -891.5622302368283, -588.2114650309086, -562.4491641861387, -574.3196066454984, 0.6880000326782465, 0.6720000319182873, 0.41600001975893974, 0.0, 0.0, 0.0, 0.0, 0.0, 1.710395775214559E9, 0.0, 2024-03-13 22:56:15.214
33.0, -919.8283941019326, -617.4799220841378, -603.1205762042664, -600.7681791321374, 0.6880000326782465, 0.6720000319182873, 0.41600001975893974, 0.0, 0.0, 0.0, 0.0, 0.0, 1.710395775214559E9, 0.0, 2024-03-13 22:56:15.214
34.0, -896.4166203793138, -599.1805916009471, -579.4694488844834, -586.0703723062761, 0.6880000326782465, 0.6720000319182873, 0.41600001975893974, 0.0, 0.0, 0.0, 0.0, 0.0, 1.7103957752152176E9, 0.0, 2024-03-13 22:56:15.215
34.0, -888.5104718729854, -585.1410071672872, -567.8907186216675, -578.4671556963585, 0.6880000326782465, 0.6720000319182873, 0.41600001975893974, 0.0, 0.0, 0.0, 0.0, 0.0, 1.7103957752152176E9, 0.0, 2024-03-13 22:56:15.215
35.0, -894.4718724023551, -589.2361976187676, -572.3374596689828, -577.038513913285, 0.6880000326782465, 0.6720000319182873, 0.41600001975893974, 0.0, 0.0, 0.0, 0.0, 0.0, 1.71039577522906E9, 0.0, 2024-03-13 22:56:15.229
35.0, -906.256297162734, -595.9343584394082, -588.6696027754806, -586.2723269038834, 0.6880000326782465, 0.6720000319182873, 0.41600001975893974, 0.0, 0.0, 0.0, 0.0, 0.0, 1.71039577522906E9, 0.0, 2024-03-13 22:56:15.229
36.0, -911.1256469050422, -608.1937504941598, -583.9909879309125, -594.3168517085724, 0.6880000326782465, 0.6720000319182873, 0.41600001975893974, 0.0, 0.0, 0.0, 0.0, 0.0, 1.7103957752445703E9, 0.0, 2024-03-13 22:56:15.244
36.0, -910.2430305154994, -603.4590371502563, -589.9785677599721, -591.6016843407415, 0.6880000326782465, 0.6720000319182873, 0.41600001975893974, 0.0, 0.0, 0.0, 0.0, 0.0, 1.7103957752445703E9, 0.0, 2024-03-13 22:56:15.244
37.0, -895.8892944855615, -591.8952664872631, -574.3046470456757, -579.0842391890474, 0.6880000326782465, 0.6720000319182873, 0.41600001975893974, 0.0, 0.0, 0.0, 0.0, 0.0, 1.710395775245293E9, 0.0, 2024-03-13 22:56:15.245
37.0, -896.9514260729775, -591.4015996931121, -563.4925962737761, -578.7401683931239, 0.6880000326782465, 0.6720000319182873, 0.41600001975893974, 0.0, 0.0, 0.0, 0.0, 0.0, 1.710395775245293E9, 0.0, 2024-03-13 22:56:15.245
38.0, -874.2764126416296, -571.8942815242335, -553.5332426917739, -563.5898336726241, 0.6880000326782465, 0.6720000319182873, 0.41600001975893974, 0.0, 0.0, 0.0, 0.0, 0.0, 1.710395775258808E9, 0.0, 2024-03-13 22:56:15.258
38.0, -895.631241388619, -589.4643315160647, -575.6248317300342, -578.3586985976435, 0.6880000326782465, 0.6720000319182873, 0.41600001975893974, 0.0, 0.0, 0.0, 0.0, 0.0, 1.710395775258808E9, 0.0, 2024-03-13 22:56:15.258
39.0, -886.090756601654, -588.821068723686, -582.3828309499659, -584.5183138246648, 0.6880000326782465, 0.6720000319182873, 0.41600001975893974, 0.0, 0.0, 0.0, 0.0, 0.0, 1.7103957752748535E9, 0.0, 2024-03-13 22:56:15.274
39.0, -903.892680390738, -600.7550894822925, -577.1544508119114, -589.5821383646689, 0.6880000326782465, 0.6720000319182873, 0.41600001975893974, 0.0, 0.0, 0.0, 0.0, 0.0, 1.7103957752748535E9, 0.0, 2024-03-13 22:56:15.274
40.0, -922.2294098734856, -611.1520113591105, -596.7702260795049, -597.3611302725039, 0.6880000326782465, 0.6720000319182873, 0.4000000189989805, 0.0, 0.0, 0.0, 0.0, 0.0, 1.7103957752753863E9, 0.0, 2024-03-13 22:56:15.275
40.0, -913.9717107713223, -598.2082176124677, -579.5405069836415, -579.0917189889587, 0.6880000326782465, 0.6720000319182873, 0.4000000189989805, 0.0, 0.0, 0.0, 0.0, 0.0, 1.7103957752753863E9, 0.0, 2024-03-13 22:56:15.275
41.0, -899.4085403438658, -598.1072403136641, -569.7382291997783, -578.3512187977321, 0.6880000326782465, 0.6880000326782465, 0.4000000189989805, 0.0, 0.0, 0.0, 0.0, 0.0, 1.71039577528889E9, 0.0, 2024-03-13 22:56:15.288
41.0, -902.5276169069111, -603.9003453450277, -566.3797990395688, -582.7530810455792, 0.6880000326782465, 0.6880000326782465, 0.4000000189989805, 0.0, 0.0, 0.0, 0.0, 0.0, 1.71039577528889E9, 0.0, 2024-03-13 22:56:15.288
42.0, -898.9522725492716, -603.6909109475091, -588.893996772822, -595.1508493986912, 0.6880000326782465, 0.6880000326782465, 0.4000000189989805, 0.0, 0.0, 0.0, 0.0, 0.0, 1.7103957753049383E9, 0.0, 2024-03-13 22:56:15.304
42.0, -921.4066318832338, -611.5185215547681, -590.9883407480083, -596.3887562840246, 0.6880000326782465, 0.6880000326782465, 0.4000000189989805, 0.0, 0.0, 0.0, 0.0, 0.0, 1.7103957753049383E9, 0.0, 2024-03-13 22:56:15.304
43.0, -924.39481194783, -616.2307954989374, -585.9020768082701, -602.6343892100267, 0.6880000326782465, 0.6880000326782465, 0.4000000189989805, 0.0, 0.0, 0.0, 0.0, 0.0, 1.7103957753054016E9, 0.0, 2024-03-13 22:56:15.305
43.0, -911.2228843038902, -605.0597143312916, -595.0872710994445, -598.6663553570397, 0.6880000326782465, 0.6880000326782465, 0.4000000189989805, 0.0, 0.0, 0.0, 0.0, 0.0, 1.7103957753054016E9, 0.0, 2024-03-13 22:56:15.305
44.0, -924.8622994422913, -618.4074172731489, -592.9368286249228, -601.2506262264214, 0.6880000326782465, 0.6880000326782465, 0.4000000189989805, 0.0, 0.0, 0.0, 0.0, 0.0, 1.710395775318896E9, 0.0, 2024-03-13 22:56:15.318
44.0, -948.6555429603904, -632.7312341034412, -607.672034450341, -618.8244161182083, 0.6880000326782465, 0.6880000326782465, 0.4000000189989805, 0.0, 0.0, 0.0, 0.0, 0.0, 1.710395775318896E9, 0.0, 2024-03-13 22:56:15.318
45.0, -913.769756173715, -609.8056473750621, -590.1693026577123, -598.445701259654, 0.6880000326782465, 0.6880000326782465, 0.4000000189989805, 0.0, 0.0, 0.0, 0.0, 0.0, 1.7103957753346431E9, 0.0, 2024-03-13 22:56:15.334
45.0, -891.9923187317327, -586.5584292504936, -558.9560976275243, -567.49802912632, 0.6880000326782465, 0.6880000326782465, 0.4000000189989805, 0.0, 0.0, 0.0, 0.0, 0.0, 1.7103957753346431E9, 0.0, 2024-03-13 22:56:15.334
46.0, -902.0601294124499, -599.3638466987759, -565.1755512538366, -580.1650702762417, 0.6880000326782465, 0.6880000326782465, 0.4000000189989805, 0.0, 0.0, 0.0, 0.0, 0.0, 1.7103957753355556E9, 0.0, 2024-03-13 22:56:15.335
46.0, -919.087893910706, -618.6018920708448, -606.4378674649633, -611.6475481032394, 0.6880000326782465, 0.6880000326782465, 0.4000000189989805, 0.0, 0.0, 0.0, 0.0, 0.0, 1.7103957753355556E9, 0.0, 2024-03-13 22:56:15.335
47.0, -911.1256469050422, -602.2585292644799, -583.8114727330394, -586.4892411013134, 0.6880000326782465, 0.6880000326782465, 0.4000000189989805, 0.0, 0.0, 0.0, 0.0, 0.0, 1.7103957753488164E9, 0.0, 2024-03-13 22:56:15.348
47.0, -931.9307103585452, -624.8849239964038, -595.1919882982038, -606.9801529585384, 0.6880000326782465, 0.6880000326782465, 0.4000000189989805, 0.0, 0.0, 0.0, 0.0, 0.0, 1.7103957753488164E9, 0.0, 2024-03-13 22:56:15.348
48.0, -911.308902002871, -610.9911956610158, -582.5099875484593, -596.8973826779984, 0.6880000326782465, 0.6880000326782465, 0.4000000189989805, 0.0, 0.0, 0.0, 0.0, 0.0, 1.710395775364561E9, 0.0, 2024-03-13 22:56:15.364
48.0, -906.3310951618478, -608.455543491058, -594.4440083070658, -595.3715034960769, 0.6880000326782465, 0.6880000326782465, 0.4000000189989805, 0.0, 0.0, 0.0, 0.0, 0.0, 1.710395775364561E9, 0.0, 2024-03-13 22:56:15.364
49.0, -906.955658454448, -599.8462937930599, -571.6081791776232, -585.8459783089347, 0.6880000326782465, 0.6880000326782465, 0.4000000189989805, 0.0, 0.0, 0.0, 0.0, 0.0, 1.7103957753652496E9, 0.0, 2024-03-13 22:56:15.365
49.0, -913.6799985747784, -608.8557127863169, -584.4696951252408, -598.1315496633761, 0.6880000326782465, 0.6880000326782465, 0.4000000189989805, 0.0, 0.0, 0.0, 0.0, 0.0, 1.7103957753652496E9, 0.0, 2024-03-13 22:56:15.365
50.0, -931.9606295581907, -630.4723345302045, -618.8805146175437, -623.6713264607824, 0.6880000326782465, 0.6880000326782465, 0.41600001975893974, 0.0, 0.0, 0.0, 0.0, 0.0, 1.7103957753788962E9, 0.0, 2024-03-13 22:56:15.378
50.0, -932.390718053095, -629.3840236430988, -621.9846315807663, -624.146293755155, 0.6880000326782465, 0.6880000326782465, 0.41600001975893974, 0.0, 0.0, 0.0, 0.0, 0.0, 1.7103957753788962E9, 0.0, 2024-03-13 22:56:15.378
51.0, -902.3518416089937, -599.7827154938132, -575.3293796335347, -596.3550971844234, 0.6880000326782465, 0.6880000326782465, 0.41600001975893974, 0.0, 0.0, 0.0, 0.0, 0.0, 1.7103957753946E9, 0.0, 2024-03-13 22:56:15.394
51.0, -922.790394866839, -616.6384445941076, -593.8456243141554, -608.8875019359402, 0.6880000326782465, 0.6880000326782465, 0.41600001975893974, 0.0, 0.0, 0.0, 0.0, 0.0, 1.7103957753946E9, 0.0, 2024-03-13 22:56:15.394
52.0, -911.3762202020735, -598.5111495088786, -590.2665400565602, -592.0990910348482, 0.6880000326782465, 0.6880000326782465, 0.41600001975893974, 0.0, 0.0, 0.0, 0.0, 0.0, 1.7103957753952615E9, 0.0, 2024-03-13 22:56:15.395
52.0, -932.5627534510568, -614.1027924241498, -584.4846547250636, -600.0201991409995, 0.6880000326782465, 0.6880000326782465, 0.41600001975893974, 0.0, 0.0, 0.0, 0.0, 0.0, 1.7103957753952615E9, 0.0, 2024-03-13 22:56:15.395
53.0, -952.4739808151498, -640.8056781077757, -612.3768285945989, -624.4380059516989, 0.6880000326782465, 0.6880000326782465, 0.41600001975893974, 0.0, 0.0, 0.0, 0.0, 0.0, 1.7103957754091623E9, 0.0, 2024-03-13 22:56:15.409
53.0, -940.8989904522896, -634.410449183546, -617.0741429389454, -620.1558205024339, 0.6880000326782465, 0.6880000326782465, 0.41600001975893974, 0.0, 0.0, 0.0, 0.0, 0.0, 1.7103957754091623E9, 0.0, 2024-03-13 22:56:15.409
54.0, -931.6464779619128, -626.896990172565, -587.4840544895269, -602.4810533118434, 0.6880000326782465, 0.6880000326782465, 0.41600001975893974, 0.0, 0.0, 0.0, 0.0, 0.0, 1.710395775424647E9, 0.0, 2024-03-13 22:56:15.424
54.0, -940.5661393562332, -639.3695565247908, -605.9666400705464, -623.6376673611812, 0.6880000326782465, 0.6880000326782465, 0.41600001975893974, 0.0, 0.0, 0.0, 0.0, 0.0, 1.710395775424647E9, 0.0, 2024-03-13 22:56:15.424
55.0, -931.4819223638624, -620.2063091518357, -585.5430464125238, -604.8558897837065, 0.6880000326782465, 0.6880000326782465, 0.41600001975893974, 0.0, 0.0, 0.0, 0.0, 0.0, 1.710395775425291E9, 0.0, 2024-03-13 22:56:15.425
55.0, -921.6684248801321, -614.7049163170159, -600.5101260351948, -603.9844930940308, 0.6880000326782465, 0.6880000326782465, 0.41600001975893974, 0.0, 0.0, 0.0, 0.0, 0.0, 1.710395775425291E9, 0.0, 2024-03-13 22:56:15.425
56.0, -893.7351121110842, -591.3978597931564, -579.6489640823565, -583.0522730420344, 0.6880000326782465, 0.6880000326782465, 0.41600001975893974, 0.0, 0.0, 0.0, 0.0, 0.0, 1.7103957754391584E9, 0.0, 2024-03-13 22:56:15.439
56.0, -916.5821609403938, -611.350226056762, -588.9650548719801, -596.467294183094, 0.6880000326782465, 0.6880000326782465, 0.41600001975893974, 0.0, 0.0, 0.0, 0.0, 0.0, 1.7103957754391584E9, 0.0, 2024-03-13 22:56:15.439
57.0, -914.1774052688852, -603.6348124481738, -585.9918344072066, -592.3272249321453, 0.6880000326782465, 0.6880000326782465, 0.41600001975893974, 0.0, 0.0, 0.0, 0.0, 0.0, 1.7103957754545655E9, 0.0, 2024-03-13 22:56:15.454
57.0, -906.7200447572395, -601.1103799780831, -586.4705416015349, -601.9574673180468, 0.6880000326782465, 0.6880000326782465, 0.41600001975893974, 0.0, 0.0, 0.0, 0.0, 0.0, 1.7103957754545655E9, 0.0, 2024-03-13 22:56:15.454
58.0, -910.6544195106253, -600.8972056806087, -580.4680021726526, -597.1217766753398, 0.6880000326782465, 0.6880000326782465, 0.41600001975893974, 0.0, 0.0, 0.0, 0.0, 0.0, 1.71039577545549E9, 0.0, 2024-03-13 22:56:15.455
58.0, -897.4002140676603, -592.0560821853578, -563.1971441772766, -575.5126347313635, 0.6880000326782465, 0.6880000326782465, 0.41600001975893974, 0.0, 0.0, 0.0, 0.0, 0.0, 1.71039577545549E9, 0.0, 2024-03-13 22:56:15.455
59.0, -919.0654545109719, -616.2494949987158, -594.1074173110537, -604.7810917845927, 0.6880000326782465, 0.6880000326782465, 0.41600001975893974, 0.0, 0.0, 0.0, 0.0, 0.0, 1.710395775468849E9, 0.0, 2024-03-13 22:56:15.468
59.0, -903.8964202906936, -600.5718343844637, -567.980476220604, -586.3209456033073, 0.6880000326782465, 0.6880000326782465, 0.41600001975893974, 0.0, 0.0, 0.0, 0.0, 0.0, 1.710395775468849E9, 0.0, 2024-03-13 22:56:15.468
60.0, -885.0248851142824, -587.3999067405239, -582.887717443984, -585.03442001855, 0.6880000326782465, 0.6880000326782465, 0.4000000189989805, 0.0, 0.0, 0.0, 0.0, 0.0, 1.710395775484592E9, 0.0, 2024-03-13 22:56:15.484
60.0, -920.5389750935137, -609.9889024728909, -588.7481406745501, -599.7434465442784, 0.6880000326782465, 0.6880000326782465, 0.4000000189989805, 0.0, 0.0, 0.0, 0.0, 0.0, 1.710395775484592E9, 0.0, 2024-03-13 22:56:15.484
61.0, -936.9459161991253, -630.2965592322871, -597.5668247700669, -612.2459320961498, 0.6880000326782465, 0.6720000319182873, 0.4000000189989805, 0.0, 0.0, 0.0, 0.0, 0.0, 1.710395775485493E9, 0.0, 2024-03-13 22:56:15.485
61.0, -906.9743579542264, -598.1521191131324, -580.2772672749124, -589.9972672597505, 0.6880000326782465, 0.6720000319182873, 0.4000000189989805, 0.0, 0.0, 0.0, 0.0, 0.0, 1.710395775485493E9, 0.0, 2024-03-13 22:56:15.485
62.0, -890.9488866440952, -578.6036620447412, -569.2894412050955, -570.1421383949928, 0.6880000326782465, 0.6720000319182873, 0.4000000189989805, 0.0, 0.0, 0.0, 0.0, 0.0, 1.710395775498856E9, 0.0, 2024-03-13 22:56:15.498
62.0, -891.2069397410378, -583.0092641925439, -561.0728810024448, -573.7399221523665, 0.6880000326782465, 0.6720000319182873, 0.4000000189989805, 0.0, 0.0, 0.0, 0.0, 0.0, 1.710395775498856E9, 0.0, 2024-03-13 22:56:15.498
63.0, -917.3413606313989, -610.5985061656684, -592.0280329356901, -603.1392757040448, 0.6880000326782465, 0.6720000319182873, 0.4000000189989805, 0.0, 0.0, 0.0, 0.0, 0.0, 1.7103957755147767E9, 0.0, 2024-03-13 22:56:15.514
63.0, -897.4899716665968, -588.9444854222238, -574.9292103382759, -579.2787139867432, 0.6880000326782465, 0.6720000319182873, 0.4000000189989805, 0.0, 0.0, 0.0, 0.0, 0.0, 1.7103957755147767E9, 0.0, 2024-03-13 22:56:15.514
64.0, -915.4564510537311, -609.8355665747076, -596.5607916819863, -601.8003915199079, 0.6880000326782465, 0.6720000319182873, 0.4000000189989805, 0.0, 0.0, 0.0, 0.0, 0.0, 1.7103957755154264E9, 0.0, 2024-03-13 22:56:15.515
64.0, -874.5569051383063, -574.4673326937482, -548.6863323491998, -567.8533196221106, 0.6880000326782465, 0.6720000319182873, 0.4000000189989805, 0.0, 0.0, 0.0, 0.0, 0.0, 1.7103957755154264E9, 0.0, 2024-03-13 22:56:15.515
65.0, -880.0321186734363, -579.7181522315368, -563.1522653778084, -571.623138777446, 0.6880000326782465, 0.6720000319182873, 0.4000000189989805, 0.0, 0.0, 0.0, 0.0, 0.0, 1.7103957755288541E9, 0.0, 2024-03-13 22:56:15.528
65.0, -887.1267088893801, -583.5926885856315, -564.9062784570269, -569.0388679080643, 0.6880000326782465, 0.6720000319182873, 0.4000000189989805, 0.0, 0.0, 0.0, 0.0, 0.0, 1.7103957755288541E9, 0.0, 2024-03-13 22:56:15.528
66.0, -891.8763818331063, -588.4059398286045, -565.0222153556533, -577.6481176060624, 0.6880000326782465, 0.6720000319182873, 0.4000000189989805, 0.0, 0.0, 0.0, 0.0, 0.0, 1.710395775545035E9, 0.0, 2024-03-13 22:56:15.545
66.0, -882.6762279421091, -580.4249933231622, -554.1241468847729, -565.340106851887, 0.6880000326782465, 0.6720000319182873, 0.4000000189989805, 0.0, 0.0, 0.0, 0.0, 0.0, 1.710395775545035E9, 0.0, 2024-03-13 22:56:15.545
67.0, -917.8013683259487, -603.3094411520287, -589.0548124709167, -587.5476327887736, 0.6880000326782465, 0.6720000319182873, 0.4000000189989805, 0.0, 0.0, 0.0, 0.0, 0.0, 1.7103957755598636E9, 0.0, 2024-03-13 22:56:15.559
67.0, -923.3177207605913, -603.245862852782, -573.5417074547149, -581.174843264278, 0.6880000326782465, 0.6720000319182873, 0.4000000189989805, 0.0, 0.0, 0.0, 0.0, 0.0, 1.7103957755598636E9, 0.0, 2024-03-13 22:56:15.559
68.0, -899.9283864377066, -586.8277020473033, -570.3104338929988, -576.5859860186465, 0.6880000326782465, 0.6720000319182873, 0.4000000189989805, 0.0, 0.0, 0.0, 0.0, 0.0, 1.7103957755604236E9, 0.0, 2024-03-13 22:56:15.560
68.0, -896.4465395789593, -581.3711880119517, -587.0165669950657, -579.1627770881169, 0.6880000326782465, 0.6720000319182873, 0.4000000189989805, 0.0, 0.0, 0.0, 0.0, 0.0, 1.7103957755604236E9, 0.0, 2024-03-13 22:56:15.560
69.0, -911.6679323986173, -575.301330383867, -549.3557744412683, -558.1931580365635, 0.6880000326782465, 0.6720000319182873, 0.4000000189989805, 0.0, 0.0, 0.0, 0.0, 0.0, 1.7103957755746012E9, 0.0, 2024-03-13 22:56:15.574
69.0, -890.0849697543308, -575.6454011797905, -557.6845316425897, -568.5938198133372, 0.6880000326782465, 0.6720000319182873, 0.4000000189989805, 0.0, 0.0, 0.0, 0.0, 0.0, 1.7103957755746012E9, 0.0, 2024-03-13 22:56:15.574
70.0, -910.1906719161198, -593.428625469096, -579.6826231819578, -583.5048009366728, 0.6880000326782465, 0.6720000319182873, 0.41600001975893974, 0.0, 0.0, 0.0, 0.0, 0.0, 1.7103957755754972E9, 0.0, 2024-03-13 22:56:15.575
70.0, -897.355335268192, -584.3406685767695, -580.9616689668037, -577.9398298026063, 0.6880000326782465, 0.6720000319182873, 0.41600001975893974, 0.0, 0.0, 0.0, 0.0, 0.0, 1.7103957755754972E9, 0.0, 2024-03-13 22:56:15.575
71.0, -883.3793291337788, -574.975959087722, -559.5208225208335, -568.7808148111217, 0.6880000326782465, 0.6720000319182873, 0.41600001975893974, 0.0, 0.0, 0.0, 0.0, 0.0, 1.7103957755892465E9, 0.0, 2024-03-13 22:56:15.589
71.0, -885.3465165104717, -575.615481980145, -553.8660937878303, -567.4568902268074, 0.6880000326782465, 0.6720000319182873, 0.41600001975893974, 0.0, 0.0, 0.0, 0.0, 0.0, 1.7103957755892465E9, 0.0, 2024-03-13 22:56:15.589
72.0, -902.2172052105889, -583.3982137879357, -573.3060937575065, -576.4663092200644, 0.6880000326782465, 0.6720000319182873, 0.41600001975893974, 0.0, 0.0, 0.0, 0.0, 0.0, 1.710395775604915E9, 0.0, 2024-03-13 22:56:15.604
