%OpenBCI Raw EXG Data
%Number of channels = 4
%Sample Rate = 200 Hz
%Board = OpenBCI_GUI$BoardGanglionBLE
Sample Index, EXG Channel 0, EXG Channel 1, EXG Channel 2, EXG Channel 3, Accel Channel 0, Accel Channel 1, Accel Channel 2, Other, Other, Other, Other, Other, Timestamp, Other, Timestamp (Formatted)
2.0, -13.972266234457493, -14.11064253281802, -1.7839322788640857, -9.372189288958907, 0.8320000395178795, 0.0, 0.0, 0.0, 0.0, 0.0, 0.0, 0.0, 1.7103948838428407E9, 0.0, 2024-03-13 22:41:23.842
2.0, -5.295698337256908, 8.42973450012505, -3.092897263355553, 0.39642939530313015, 0.8320000395178795, 0.0, 0.0, 0.0, 0.0, 0.0, 0.0, 0.0, 1.7103948838428407E9, 0.0, 2024-03-13 22:41:23.842
3.0, -9.372189288958907, -0.6806617919355631, -5.845463630743325, -4.069011151790619, 0.8320000395178795, 0.0, 0.0, 0.0, 0.0, 0.0, 0.0, 0.0, 1.7103948838573391E9, 0.0, 2024-03-13 22:41:23.857
3.0, -15.442046917043626, -9.27121199015528, -7.22922661434859, -10.628795674070716, 0.8320000395178795, 0.0, 0.0, 0.0, 0.0, 0.0, 0.0, 0.0, 1.7103948838573391E9, 0.0, 2024-03-13 22:41:23.857
4.0, -3.698761056177318, -6.092297027818859, -7.1432089153677225, -2.535652169957757, 0.8320000395178795, 0.0, 0.0, 0.0, 0.0, 0.0, 0.0, 0.0, 1.7103948838580253E9, 0.0, 2024-03-13 22:41:23.858
4.0, -5.879122730344534, -6.82905731908977, -4.712273944169283, -1.4286417830735445, 0.8320000395178795, 0.0, 0.0, 0.0, 0.0, 0.0, 0.0, 0.0, 1.7103948838580253E9, 0.0, 2024-03-13 22:41:23.858
5.0, -9.211373590864241, -12.790457848459482, -2.3224778724834323, -12.386548653244972, 0.8320000395178795, 0.0, 0.0, 0.0, 0.0, 0.0, 0.0, 0.0, 1.7103948838716395E9, 0.0, 2024-03-13 22:41:23.871
5.0, -21.986871839500964, -23.01160442736, -14.364955729804933, -19.959846063517034, 0.8320000395178795, 0.0, 0.0, 0.0, 0.0, 0.0, 0.0, 0.0, 1.7103948838716395E9, 0.0, 2024-03-13 22:41:23.871
6.0, -11.511412063613534, -12.337929953821003, -10.87936897110194, -19.125848373398185, 0.8320000395178795, 0.0, 0.0, 0.0, 0.0, 0.0, 0.0, 0.0, 1.7103948839037907E9, 0.0, 2024-03-13 22:41:23.903
6.0, -21.096775650046766, -21.437106546014547, -1.9597075767815113, -19.410080770030618, 0.8320000395178795, 0.0, 0.0, 0.0, 0.0, 0.0, 0.0, 0.0, 1.7103948839037907E9, 0.0, 2024-03-13 22:41:23.903
7.0, -29.470411650836468, -40.447018020786345, -6.484986523166299, -28.52795686200261, 0.8320000395178795, 0.0, 0.0, 0.0, 0.0, 0.0, 0.0, 0.0, 1.7103948839048197E9, 0.0, 2024-03-13 22:41:23.904
7.0, -22.746071530506015, -29.44423235114664, -11.739545960910618, -17.424193893559277, 0.8320000395178795, 0.0, 0.0, 0.0, 0.0, 0.0, 0.0, 0.0, 1.7103948839048197E9, 0.0, 2024-03-13 22:41:23.904
8.0, -26.96093878056854, -28.034290067851543, -6.7430396201089025, -13.459899940527976, 0.8320000395178795, 0.0, 0.0, 0.0, 0.0, 0.0, 0.0, 0.0, 1.7103948839054077E9, 0.0, 2024-03-13 22:41:23.905
8.0, -29.537729850038886, -36.54256246704608, -2.662808768451214, -20.07204306218773, 0.8320000395178795, 0.0, 0.0, 0.0, 0.0, 0.0, 0.0, 0.0, 1.7103948839054077E9, 0.0, 2024-03-13 22:41:23.905
9.0, -22.364601735025644, -23.609988420270383, 0.8526971898972988, -8.654128497466445, 0.8320000395178795, 0.0, 0.0, 0.0, 0.0, 0.0, 0.0, 0.0, 1.710394883905874E9, 0.0, 2024-03-13 22:41:23.905
9.0, -22.308503235690296, -10.288464778102934, 0.5535051934421062, -9.24129279050976, 0.8320000395178795, 0.0, 0.0, 0.0, 0.0, 0.0, 0.0, 0.0, 1.710394883905874E9, 0.0, 2024-03-13 22:41:23.905
10.0, -34.28366289380938, -25.999784491956234, -7.22922661434859, -18.594782579690218, 0.8320000395178795, 0.0, 0.2400000113993883, 0.0, 0.0, 0.0, 0.0, 0.0, 1.7103948839167552E9, 0.0, 2024-03-13 22:41:23.916
10.0, -40.503116520121694, -39.36618693359196, -18.291850683279335, -30.827995334751904, 0.8320000395178795, 0.0, 0.2400000113993883, 0.0, 0.0, 0.0, 0.0, 0.0, 1.7103948839167552E9, 0.0, 2024-03-13 22:41:23.916
11.0, -28.004370868206024, -24.13731431402266, -19.65691416710615, -20.52083105687052, 0.8320000395178795, 0.5920000281184912, 0.2400000113993883, 0.0, 0.0, 0.0, 0.0, 0.0, 1.7103948839319832E9, 0.0, 2024-03-13 22:41:23.931
11.0, -34.53049629088491, -34.62399378977716, -19.148287773132324, -26.747764483094215, 0.8320000395178795, 0.5920000281184912, 0.2400000113993883, 0.0, 0.0, 0.0, 0.0, 0.0, 1.7103948839319832E9, 0.0, 2024-03-13 22:41:23.931
12.0, -30.091235043480992, -33.70397840067744, -23.183639825321734, -25.977345092222095, 0.8320000395178795, 0.5920000281184912, 0.2400000113993883, 0.0, 0.0, 0.0, 0.0, 0.0, 1.7103948839473522E9, 0.0, 2024-03-13 22:41:23.947
12.0, -18.194613284431398, -13.508518639951944, -26.085802190937102, -16.010511710308492, 0.8320000395178795, 0.5920000281184912, 0.2400000113993883, 0.0, 0.0, 0.0, 0.0, 0.0, 1.7103948839473522E9, 0.0, 2024-03-13 22:41:23.947
13.0, -21.063116550445557, -26.4934512861073, -19.840169264934957, -22.663793731480837, 0.8320000395178795, 0.5920000281184912, 0.2400000113993883, 0.0, 0.0, 0.0, 0.0, 0.0, 1.7103948839480207E9, 0.0, 2024-03-13 22:41:23.948
13.0, -29.75838394742459, -31.198245430365205, -16.11522890906781, -27.4209464751184, 0.8320000395178795, 0.5920000281184912, 0.2400000113993883, 0.0, 0.0, 0.0, 0.0, 0.0, 1.7103948839480207E9, 0.0, 2024-03-13 22:41:23.948
14.0, -26.11198149062693, -33.87601379863918, -20.53205075673759, -27.147933778353035, 0.8320000395178795, 0.5920000281184912, 0.2400000113993883, 0.0, 0.0, 0.0, 0.0, 0.0, 1.7103948839620364E9, 0.0, 2024-03-13 22:41:23.962
14.0, -22.18134663719684, -33.84609459899366, -19.585856067948043, -26.856221581809223, 0.8320000395178795, 0.5920000281184912, 0.2400000113993883, 0.0, 0.0, 0.0, 0.0, 0.0, 1.7103948839620364E9, 0.0, 2024-03-13 22:41:23.962
15.0, -37.253143458627164, -32.9410388097167, -11.365555965341628, -32.07338201999664, 0.8320000395178795, 0.5920000281184912, 0.2400000113993883, 0.0, 0.0, 0.0, 0.0, 0.0, 1.7103948839941163E9, 0.0, 2024-03-13 22:41:23.994
15.0, -34.51179679110646, -39.426025332883, -15.68514041416347, -34.90074638649821, 0.8320000395178795, 0.5920000281184912, 0.2400000113993883, 0.0, 0.0, 0.0, 0.0, 0.0, 1.7103948839941163E9, 0.0, 2024-03-13 22:41:23.994
16.0, -28.737391259521246, -32.032243120484054, -14.690327025949955, -24.99749130383134, 0.8320000395178795, 0.5920000281184912, 0.2400000113993883, 0.0, 0.0, 0.0, 0.0, 0.0, 1.7103948839946976E9, 0.0, 2024-03-13 22:41:23.994
16.0, -28.011850668117404, -32.62314731348306, -3.2836321610957384, -22.637614431791008, 0.8320000395178795, 0.5920000281184912, 0.2400000113993883, 0.0, 0.0, 0.0, 0.0, 0.0, 1.7103948839946976E9, 0.0, 2024-03-13 22:41:23.994
17.0, -42.402985697612166, -52.71014997549355, -15.475706016644835, -34.455698291771114, 0.8320000395178795, 0.5920000281184912, 0.2400000113993883, 0.0, 0.0, 0.0, 0.0, 0.0, 1.7103948839954407E9, 0.0, 2024-03-13 22:41:23.995
17.0, -29.302116152830422, -32.70542511250824, -21.897114240564406, -27.046956479549408, 0.8320000395178795, 0.5920000281184912, 0.2400000113993883, 0.0, 0.0, 0.0, 0.0, 0.0, 1.7103948839954407E9, 0.0, 2024-03-13 22:41:23.995
18.0, -32.89616001024842, -33.225271206349134, -19.65691416710615, -25.891327393241227, 0.8320000395178795, 0.5920000281184912, 0.2400000113993883, 0.0, 0.0, 0.0, 0.0, 0.0, 1.710394883996018E9, 0.0, 2024-03-13 22:41:23.996
18.0, -37.78046935237944, -35.04660248477012, -17.73086568992585, -30.20717194210738, 0.8320000395178795, 0.5920000281184912, 0.2400000113993883, 0.0, 0.0, 0.0, 0.0, 0.0, 1.710394883996018E9, 0.0, 2024-03-13 22:41:23.996
19.0, -24.668380107730627, -35.40937278047204, -21.811096541583538, -29.189919154159725, 0.8320000395178795, 0.5920000281184912, 0.2400000113993883, 0.0, 0.0, 0.0, 0.0, 0.0, 1.710394884006637E9, 0.0, 2024-03-13 22:41:24.006
19.0, -29.717245047912, -24.683339707553387, -21.6764601431787, -27.985671368427575, 0.8320000395178795, 0.5920000281184912, 0.2400000113993883, 0.0, 0.0, 0.0, 0.0, 0.0, 1.710394884006637E9, 0.0, 2024-03-13 22:41:24.006
20.0, -29.174959554336965, -32.421192715875804, -15.449526716955006, -25.569695997051895, 0.8320000395178795, 0.5920000281184912, 0.2400000113993883, 0.0, 0.0, 0.0, 0.0, 0.0, 1.7103948840216448E9, 0.0, 2024-03-13 22:41:24.021
20.0, -28.12030776683241, -31.063609031960368, -25.554736397229135, -28.9767448566854, 0.8320000395178795, 0.5920000281184912, 0.2400000113993883, 0.0, 0.0, 0.0, 0.0, 0.0, 1.7103948840216448E9, 0.0, 2024-03-13 22:41:24.021
21.0, -22.57403613254428, -21.818576341494918, -23.845602117478848, -17.71590609010309, 0.8320000395178795, 0.5920000281184912, 0.2400000113993883, 0.0, 0.0, 0.0, 0.0, 0.0, 1.7103948840372913E9, 0.0, 2024-03-13 22:41:24.037
21.0, -23.509011121466756, -34.792289287783206, -13.31404384225607, -23.168680225498974, 0.8320000395178795, 0.5920000281184912, 0.2400000113993883, 0.0, 0.0, 0.0, 0.0, 0.0, 1.7103948840372913E9, 0.0, 2024-03-13 22:41:24.037
22.0, -33.89097339846194, -43.75682948157191, -26.51215078588575, -40.34230082202703, 0.8320000395178795, 0.5920000281184912, 0.2400000113993883, 0.0, 0.0, 0.0, 0.0, 0.0, 1.7103948840380108E9, 0.0, 2024-03-13 22:41:24.038
22.0, -34.459438191726804, -40.2413235232234, -35.43929198011756, -38.93983833864331, 0.8320000395178795, 0.5920000281184912, 0.2400000113993883, 0.0, 0.0, 0.0, 0.0, 0.0, 1.7103948840380108E9, 0.0, 2024-03-13 22:41:24.038
23.0, -41.292235410772264, -52.7662484748289, -34.66139278933406, -43.73812998179346, 0.8320000395178795, 0.5920000281184912, 0.2400000113993883, 0.0, 0.0, 0.0, 0.0, 0.0, 1.7103948840516253E9, 0.0, 2024-03-13 22:41:24.051
23.0, -63.91115034278482, -58.88472480233759, -39.609280430711806, -60.04035388864577, 0.8320000395178795, 0.5920000281184912, 0.2400000113993883, 0.0, 0.0, 0.0, 0.0, 0.0, 1.7103948840516253E9, 0.0, 2024-03-13 22:41:24.051
24.0, -54.972789448685944, -62.04868016485125, -47.90063863247633, -54.82319345045835, 0.8320000395178795, 0.5920000281184912, 0.2400000113993883, 0.0, 0.0, 0.0, 0.0, 0.0, 1.7103948840673E9, 0.0, 2024-03-13 22:41:24.067
24.0, -47.39575213845819, -61.409157272428274, -39.47090413235128, -49.57611381262541, 0.8320000395178795, 0.5920000281184912, 0.2400000113993883, 0.0, 0.0, 0.0, 0.0, 0.0, 1.7103948840673E9, 0.0, 2024-03-13 22:41:24.067
25.0, -50.469949902035296, -58.525694406591356, -42.18233160022646, -56.73428232781589, 0.8320000395178795, 0.5920000281184912, 0.2400000113993883, 0.0, 0.0, 0.0, 0.0, 0.0, 1.710394884067974E9, 0.0, 2024-03-13 22:41:24.067
25.0, -39.227810635231435, -44.22057707607746, -30.001477444544435, -41.221177311614156, 0.8320000395178795, 0.5920000281184912, 0.2400000113993883, 0.0, 0.0, 0.0, 0.0, 0.0, 1.710394884067974E9, 0.0, 2024-03-13 22:41:24.067
26.0, -35.611327378079295, -37.72811075299978, -28.789749858900905, -37.82534815184772, 0.8320000395178795, 0.5920000281184912, 0.2400000113993883, 0.0, 0.0, 0.0, 0.0, 0.0, 1.7103948840820856E9, 0.0, 2024-03-13 22:41:24.082
26.0, -53.62642546463758, -54.02285485994071, -40.413358921185136, -55.07376674748957, 0.8320000395178795, 0.5920000281184912, 0.2400000113993883, 0.0, 0.0, 0.0, 0.0, 0.0, 1.7103948840820856E9, 0.0, 2024-03-13 22:41:24.082
27.0, -44.65440547093749, -49.707010311074555, -32.002323920838535, -46.40841855015606, 0.8320000395178795, 0.5920000281184912, 0.2400000113993883, 0.0, 0.0, 0.0, 0.0, 0.0, 1.710394884097391E9, 0.0, 2024-03-13 22:41:24.097
27.0, -44.59456707164645, -45.82125425711274, -32.780223111622036, -32.9784378092736, 0.8320000395178795, 0.5920000281184912, 0.2400000113993883, 0.0, 0.0, 0.0, 0.0, 0.0, 1.710394884097391E9, 0.0, 2024-03-13 22:41:24.097
28.0, -31.201985330320895, -31.44133892748505, -19.862608664669096, -21.39596764650196, 0.8320000395178795, 0.5920000281184912, 0.2400000113993883, 0.0, 0.0, 0.0, 0.0, 0.0, 1.710394884098019E9, 0.0, 2024-03-13 22:41:24.098
28.0, -41.43061170913279, -35.83572137542069, -19.518537868745625, -31.81906882300973, 0.8320000395178795, 0.5920000281184912, 0.2400000113993883, 0.0, 0.0, 0.0, 0.0, 0.0, 1.710394884098019E9, 0.0, 2024-03-13 22:41:24.098
29.0, -40.77612921688706, -35.08774138428271, -30.92523273359984, -26.392473987303674, 0.8320000395178795, 0.5920000281184912, 0.2400000113993883, 0.0, 0.0, 0.0, 0.0, 0.0, 1.7103948841120093E9, 0.0, 2024-03-13 22:41:24.112
29.0, -34.87830698676407, -28.374620963819325, -22.18882643710822, -21.007018051110208, 0.8320000395178795, 0.5920000281184912, 0.2400000113993883, 0.0, 0.0, 0.0, 0.0, 0.0, 1.7103948841120093E9, 0.0, 2024-03-13 22:41:24.112
30.0, -46.935744443908334, -43.682031482458115, -21.74003844242543, -26.96841858047992, 0.8320000395178795, 0.5920000281184912, 0.25600001215934753, 0.0, 0.0, 0.0, 0.0, 0.0, 1.7103948841276944E9, 0.0, 2024-03-13 22:41:24.127
30.0, -38.64438624214381, -33.04575600847602, -21.990611739456654, -25.69311269558966, 0.8320000395178795, 0.5920000281184912, 0.25600001215934753, 0.0, 0.0, 0.0, 0.0, 0.0, 1.7103948841276944E9, 0.0, 2024-03-13 22:41:24.127
31.0, -18.007618286646903, -21.496944945305586, -16.83328970056027, -16.10400920920074, 0.8320000395178795, 0.5920000281184912, 0.25600001215934753, 0.0, 0.0, 0.0, 0.0, 0.0, 1.7103948841282873E9, 0.0, 2024-03-13 22:41:24.128
31.0, -20.434813357889652, -28.60275486111641, -17.30077719502151, -26.818822582252324, 0.8320000395178795, 0.5920000281184912, 0.25600001215934753, 0.0, 0.0, 0.0, 0.0, 0.0, 1.7103948841282873E9, 0.0, 2024-03-13 22:41:24.128
32.0, -29.571388949640095, -29.148780254647136, -13.25046554300934, -24.301869912073016, 0.8320000395178795, 0.5920000281184912, 0.25600001215934753, 0.0, 0.0, 0.0, 0.0, 0.0, 1.7103948841416273E9, 0.0, 2024-03-13 22:41:24.141
32.0, -15.068056921474636, -19.238045372068882, -17.581269691698253, -13.545917639508843, 0.8320000395178795, 0.5920000281184912, 0.25600001215934753, 0.0, 0.0, 0.0, 0.0, 0.0, 1.7103948841416273E9, 0.0, 2024-03-13 22:41:24.141
33.0, -17.37183529417962, -13.785271236672997, -1.7988918786868453, -8.930881094187498, 0.8320000395178795, 0.5920000281184912, 0.25600001215934753, 0.0, 0.0, 0.0, 0.0, 0.0, 1.7103948841576233E9, 0.0, 2024-03-13 22:41:24.157
33.0, -28.5690957615152, -26.90484028123319, -12.293051154352725, -19.35024237073958, 0.8320000395178795, 0.5920000281184912, 0.25600001215934753, 0.0, 0.0, 0.0, 0.0, 0.0, 1.7103948841576233E9, 0.0, 2024-03-13 22:41:24.157
34.0, -28.314782564528286, -28.879507457837462, -24.320569411851466, -26.09702189080417, 0.8320000395178795, 0.5920000281184912, 0.25600001215934753, 0.0, 0.0, 0.0, 0.0, 0.0, 1.7103948841582115E9, 0.0, 2024-03-13 22:41:24.158
34.0, -32.024763320572674, -21.063116550445557, -25.629534396342933, -19.2679645717144, 0.8320000395178795, 0.5920000281184912, 0.25600001215934753, 0.0, 0.0, 0.0, 0.0, 0.0, 1.7103948841582115E9, 0.0, 2024-03-13 22:41:24.158
35.0, -35.77588297612965, -30.5325432382524, -12.020038457587361, -26.332635588012636, 0.8320000395178795, 0.5920000281184912, 0.25600001215934753, 0.0, 0.0, 0.0, 0.0, 0.0, 1.7103948841716373E9, 0.0, 2024-03-13 22:41:24.171
35.0, -32.780223111622036, -30.667179636657238, -15.66270101442933, -26.022223891690373, 0.8320000395178795, 0.5920000281184912, 0.25600001215934753, 0.0, 0.0, 0.0, 0.0, 0.0, 1.7103948841716373E9, 0.0, 2024-03-13 22:41:24.171
36.0, -17.75330508965999, -24.657160407863557, -23.172420125454664, -23.3444555234164, 0.8320000395178795, 0.5920000281184912, 0.25600001215934753, 0.0, 0.0, 0.0, 0.0, 0.0, 1.7103948841872923E9, 0.0, 2024-03-13 22:41:24.187
36.0, -29.00666405633092, -28.737391259521246, -16.014251610264182, -24.859115005470812, 0.8320000395178795, 0.5920000281184912, 0.25600001215934753, 0.0, 0.0, 0.0, 0.0, 0.0, 1.7103948841872923E9, 0.0, 2024-03-13 22:41:24.187
37.0, -41.53158900793642, -43.04624848999083, -22.11028853803873, -30.498884138651192, 0.8320000395178795, 0.5920000281184912, 0.25600001215934753, 0.0, 0.0, 0.0, 0.0, 0.0, 1.710394884188086E9, 0.0, 2024-03-13 22:41:24.188
37.0, -32.017283520661294, -28.11282796692103, -23.082662526518106, -26.351335087791085, 0.8320000395178795, 0.5920000281184912, 0.25600001215934753, 0.0, 0.0, 0.0, 0.0, 0.0, 1.710394884188086E9, 0.0, 2024-03-13 22:41:24.188
38.0, -28.63641396071762, -25.592135396786034, -21.28377064783126, -26.90858018118888, 0.8320000395178795, 0.5920000281184912, 0.25600001215934753, 0.0, 0.0, 0.0, 0.0, 0.0, 1.7103948842017934E9, 0.0, 2024-03-13 22:41:24.201
38.0, -38.77902264054865, -42.13371290080249, -20.221639060415328, -31.81906882300973, 0.8320000395178795, 0.5920000281184912, 0.25600001215934753, 0.0, 0.0, 0.0, 0.0, 0.0, 1.7103948842017934E9, 0.0, 2024-03-13 22:41:24.201
39.0, -19.885048064403236, -21.620361643843353, -15.565463615581393, -21.538083844818175, 0.8320000395178795, 0.5920000281184912, 0.25600001215934753, 0.0, 0.0, 0.0, 0.0, 0.0, 1.7103948842172496E9, 0.0, 2024-03-13 22:41:24.217
39.0, -15.049357421696186, -17.222239295952022, -14.989519022405148, -19.039830674417317, 0.8320000395178795, 0.5920000281184912, 0.25600001215934753, 0.0, 0.0, 0.0, 0.0, 0.0, 1.7103948842172496E9, 0.0, 2024-03-13 22:41:24.217
40.0, -27.37232777569443, -27.454605574719608, -12.07239705696702, -26.770203882828355, 0.8320000395178795, 0.5920000281184912, 0.25600001215934753, 0.0, 0.0, 0.0, 0.0, 0.0, 1.7103948842179837E9, 0.0, 2024-03-13 22:41:24.217
40.0, -29.500330850481987, -32.06216232012957, -20.09448246192187, -32.57826851401478, 0.8320000395178795, 0.5920000281184912, 0.25600001215934753, 0.0, 0.0, 0.0, 0.0, 0.0, 1.7103948842179837E9, 0.0, 2024-03-13 22:41:24.217
41.0, -20.333836059086025, -25.221885301172733, -19.900007664225996, -29.511550550349057, 0.8320000395178795, 0.5920000281184912, 0.25600001215934753, 0.0, 0.0, 0.0, 0.0, 0.0, 1.7103948842316065E9, 0.0, 2024-03-13 22:41:24.231
41.0, -28.883247357793152, -27.00581758003682, -18.325509782880545, -29.81074254680425, 0.8320000395178795, 0.5920000281184912, 0.25600001215934753, 0.0, 0.0, 0.0, 0.0, 0.0, 1.7103948842316065E9, 0.0, 2024-03-13 22:41:24.231
42.0, -34.29862249363214, -28.1988456659019, -20.50587145704776, -32.93729890976101, 0.8320000395178795, 0.5920000281184912, 0.25600001215934753, 0.0, 0.0, 0.0, 0.0, 0.0, 1.7103948842472956E9, 0.0, 2024-03-13 22:41:24.247
42.0, -18.04127738624811, -16.354582506231964, -18.86405537649989, -21.27255094796419, 0.8320000395178795, 0.5920000281184912, 0.25600001215934753, 0.0, 0.0, 0.0, 0.0, 0.0, 1.7103948842472956E9, 0.0, 2024-03-13 22:41:24.247
43.0, -23.415513622574508, -22.529157333076, -12.610942650586367, -17.70468639023602, 0.8320000395178795, 0.5920000281184912, 0.25600001215934753, 0.0, 0.0, 0.0, 0.0, 0.0, 1.7103948842480052E9, 0.0, 2024-03-13 22:41:24.248
43.0, -34.97180448565632, -30.861654434353113, -24.97879180405289, -28.99918425641954, 0.8320000395178795, 0.5920000281184912, 0.25600001215934753, 0.0, 0.0, 0.0, 0.0, 0.0, 1.7103948842480052E9, 0.0, 2024-03-13 22:41:24.248
44.0, -29.34325505234301, -23.924140016548336, -27.293789876624942, -28.677552860230207, 0.8320000395178795, 0.5920000281184912, 0.25600001215934753, 0.0, 0.0, 0.0, 0.0, 0.0, 1.7103948842616146E9, 0.0, 2024-03-13 22:41:24.261
44.0, -19.129588273353875, -17.68598689045757, -22.046710238792002, -22.839569029398263, 0.8320000395178795, 0.5920000281184912, 0.25600001215934753, 0.0, 0.0, 0.0, 0.0, 0.0, 1.7103948842616146E9, 0.0, 2024-03-13 22:41:24.261
45.0, -44.104640177451074, -42.30948819871992, -26.377514387480915, -36.72955746483058, 0.8320000395178795, 0.5920000281184912, 0.25600001215934753, 0.0, 0.0, 0.0, 0.0, 0.0, 1.7103948842773416E9, 0.0, 2024-03-13 22:41:24.277
45.0, -42.22721039969474, -51.04589449521154, -27.918353169225156, -39.82993452809751, 0.8320000395178795, 0.5920000281184912, 0.25600001215934753, 0.0, 0.0, 0.0, 0.0, 0.0, 1.7103948842773416E9, 0.0, 2024-03-13 22:41:24.277
46.0, -21.882154640741646, -15.587903015315533, -17.536390892229974, -21.39222774654627, 0.8320000395178795, 0.5920000281184912, 0.25600001215934753, 0.0, 0.0, 0.0, 0.0, 0.0, 1.7103948842782516E9, 0.0, 2024-03-13 22:41:24.278
46.0, -19.33154287096113, -13.927387434989214, -4.113889951258898, -10.84196997154504, 0.8320000395178795, 0.5920000281184912, 0.25600001215934753, 0.0, 0.0, 0.0, 0.0, 0.0, 1.7103948842782516E9, 0.0, 2024-03-13 22:41:24.278
47.0, -30.98507113289088, -33.973251197487116, -20.10570216178894, -25.70433239545673, 0.8320000395178795, 0.5920000281184912, 0.25600001215934753, 0.0, 0.0, 0.0, 0.0, 0.0, 1.710394884291623E9, 0.0, 2024-03-13 22:41:24.291
47.0, -17.977699087001383, -22.761031130328774, -9.776098484173417, -9.043078092858195, 0.8320000395178795, 0.5920000281184912, 0.25600001215934753, 0.0, 0.0, 0.0, 0.0, 0.0, 1.710394884291623E9, 0.0, 2024-03-13 22:41:24.291
48.0, -19.024871074594557, -21.081816050224006, -6.7392997201532125, -12.364109253510833, 0.8320000395178795, 0.5920000281184912, 0.25600001215934753, 0.0, 0.0, 0.0, 0.0, 0.0, 1.710394884307471E9, 0.0, 2024-03-13 22:41:24.307
48.0, -30.917752933688462, -37.85900725144893, -15.348549418151379, -30.319368940778077, 0.8320000395178795, 0.5920000281184912, 0.25600001215934753, 0.0, 0.0, 0.0, 0.0, 0.0, 1.710394884307471E9, 0.0, 2024-03-13 22:41:24.307
49.0, -37.197044959291816, -35.04660248477012, -24.847895305603743, -28.483078062534332, 0.8320000395178795, 0.5920000281184912, 0.25600001215934753, 0.0, 0.0, 0.0, 0.0, 0.0, 1.7103948843082306E9, 0.0, 2024-03-13 22:41:24.308
49.0, -37.09980756044388, -39.3512273337692, -19.963585963472724, -26.762724082916975, 0.8320000395178795, 0.5920000281184912, 0.25600001215934753, 0.0, 0.0, 0.0, 0.0, 0.0, 1.7103948843082306E9, 0.0, 2024-03-13 22:41:24.308
50.0, -46.101746753789485, -50.00246240757406, -26.788903382606804, -38.16941894777119, 0.8320000395178795, 0.5920000281184912, 0.25600001215934753, 0.0, 0.0, 0.0, 0.0, 0.0, 1.710394884321626E9, 0.0, 2024-03-13 22:41:24.321
50.0, -38.19185834750533, -49.684570911340415, -25.154567101970315, -35.08400148432702, 0.8320000395178795, 0.5920000281184912, 0.25600001215934753, 0.0, 0.0, 0.0, 0.0, 0.0, 1.710394884321626E9, 0.0, 2024-03-13 22:41:24.321
51.0, -33.74137740023434, -40.27124272286892, -29.620007649064064, -32.761523611843586, 0.8320000395178795, 0.5920000281184912, 0.25600001215934753, 0.0, 0.0, 0.0, 0.0, 0.0, 1.7103948843376477E9, 0.0, 2024-03-13 22:41:24.337
51.0, -40.66019231826067, -41.221177311614156, -30.64100033696741, -41.07158131338656, 0.8320000395178795, 0.5920000281184912, 0.25600001215934753, 0.0, 0.0, 0.0, 0.0, 0.0, 1.7103948843376477E9, 0.0, 2024-03-13 22:41:24.337
52.0, -41.80086180474609, -51.45354359038174, -34.0891880961135, -42.16363210044801, 0.8320000395178795, 0.5920000281184912, 0.25600001215934753, 0.0, 0.0, 0.0, 0.0, 0.0, 1.7103948843381572E9, 0.0, 2024-03-13 22:41:24.338
52.0, -28.355921464040875, -38.99593683797866, -38.21803764719516, -36.69215846527368, 0.8320000395178795, 0.5920000281184912, 0.25600001215934753, 0.0, 0.0, 0.0, 0.0, 0.0, 1.7103948843381572E9, 0.0, 2024-03-13 22:41:24.338
53.0, -20.722785654477775, -35.981577473692596, -33.614220801740885, -35.11392068397254, 0.8320000395178795, 0.5920000281184912, 0.25600001215934753, 0.0, 0.0, 0.0, 0.0, 0.0, 1.710394884351654E9, 0.0, 2024-03-13 22:41:24.351
53.0, -47.320954139344394, -44.65440547093749, -35.11018078401685, -48.61869942396879, 0.8320000395178795, 0.5920000281184912, 0.25600001215934753, 0.0, 0.0, 0.0, 0.0, 0.0, 1.710394884351654E9, 0.0, 2024-03-13 22:41:24.351
54.0, -41.94297800306231, -46.24760285206139, -45.92971135582775, -50.099699806421995, 0.8320000395178795, 0.5920000281184912, 0.25600001215934753, 0.0, 0.0, 0.0, 0.0, 0.0, 1.7103948843673234E9, 0.0, 2024-03-13 22:41:24.367
54.0, -37.619653654284775, -32.70916501246393, -32.33891491685063, -34.20512499473989, 0.8320000395178795, 0.5920000281184912, 0.25600001215934753, 0.0, 0.0, 0.0, 0.0, 0.0, 1.7103948843673234E9, 0.0, 2024-03-13 22:41:24.367
55.0, -43.79048858117312, -34.807248887605965, -21.848495541140437, -32.813882211223245, 0.8320000395178795, 0.5920000281184912, 0.25600001215934753, 0.0, 0.0, 0.0, 0.0, 0.0, 1.7103948843680422E9, 0.0, 2024-03-13 22:41:24.368
55.0, -47.40323193836957, -44.17569827660918, -35.36449398100376, -41.247356611303985, 0.8320000395178795, 0.5920000281184912, 0.25600001215934753, 0.0, 0.0, 0.0, 0.0, 0.0, 1.7103948843680422E9, 0.0, 2024-03-13 22:41:24.368
56.0, -34.99798378534615, -31.905086521990597, -25.169526701793075, -28.340961864218116, 0.8320000395178795, 0.5920000281184912, 0.25600001215934753, 0.0, 0.0, 0.0, 0.0, 0.0, 1.7103948843816571E9, 0.0, 2024-03-13 22:41:24.381
56.0, -48.873012620955706, -48.58130042441189, -31.05986913200468, -40.480677120387554, 0.8320000395178795, 0.5920000281184912, 0.25600001215934753, 0.0, 0.0, 0.0, 0.0, 0.0, 1.7103948843816571E9, 0.0, 2024-03-13 22:41:24.381
57.0, -46.520615548826754, -45.44726426154375, -25.82400919403881, -38.883739839307964, 0.8320000395178795, 0.5920000281184912, 0.25600001215934753, 0.0, 0.0, 0.0, 0.0, 0.0, 1.710394884397509E9, 0.0, 2024-03-13 22:41:24.397
57.0, -18.09737588558346, -31.73679102398455, -24.19341281335801, -27.39102727547288, 0.8320000395178795, 0.5920000281184912, 0.25600001215934753, 0.0, 0.0, 0.0, 0.0, 0.0, 1.710394884397509E9, 0.0, 2024-03-13 22:41:24.397
58.0, -30.476444738917053, -37.660792553797364, -23.80072331801057, -32.89242011029273, 0.8320000395178795, 0.5920000281184912, 0.25600001215934753, 0.0, 0.0, 0.0, 0.0, 0.0, 1.7103948843980873E9, 0.0, 2024-03-13 22:41:24.398
58.0, -30.13237394299358, -29.631227348931134, -25.7903500944376, -35.94043857418001, 0.8320000395178795, 0.5920000281184912, 0.25600001215934753, 0.0, 0.0, 0.0, 0.0, 0.0, 1.7103948843980873E9, 0.0, 2024-03-13 22:41:24.398
59.0, -21.044417050667107, -26.429872986860573, -31.83776832278818, -33.995690597221255, 0.8320000395178795, 0.5920000281184912, 0.25600001215934753, 0.0, 0.0, 0.0, 0.0, 0.0, 1.7103948844118433E9, 0.0, 2024-03-13 22:41:24.411
59.0, -6.4999461229890585, -17.73834548983723, -18.643401279114187, -18.037537486292422, 0.8320000395178795, 0.5920000281184912, 0.25600001215934753, 0.0, 0.0, 0.0, 0.0, 0.0, 1.7103948844118433E9, 0.0, 2024-03-13 22:41:24.411
60.0, -21.79613694176078, -28.094128467142582, -22.682493231259286, -33.999430497176945, 0.8320000395178795, 0.5920000281184912, 0.2400000113993883, 0.0, 0.0, 0.0, 0.0, 0.0, 1.7103948844276528E9, 0.0, 2024-03-13 22:41:24.427
60.0, -17.75330508965999, -24.14479411393404, -26.646787184290588, -30.016437044367194, 0.8320000395178795, 0.5920000281184912, 0.2400000113993883, 0.0, 0.0, 0.0, 0.0, 0.0, 1.7103948844276528E9, 0.0, 2024-03-13 22:41:24.427
61.0, -11.833043459802866, -18.011358186602592, -20.782624053768814, -18.733158878050745, 0.8320000395178795, 0.5920000281184912, 0.2400000113993883, 0.0, 0.0, 0.0, 0.0, 0.0, 1.7103948844281912E9, 0.0, 2024-03-13 22:41:24.428
61.0, -24.89651400502771, -26.14564059022814, -17.76452478952706, -23.998938015662134, 0.8320000395178795, 0.5920000281184912, 0.2400000113993883, 0.0, 0.0, 0.0, 0.0, 0.0, 1.7103948844281912E9, 0.0, 2024-03-13 22:41:24.428
62.0, -26.56450938526541, -30.58490183763206, -16.16010770853609, -23.912920316681266, 0.8320000395178795, 0.5920000281184912, 0.2400000113993883, 0.0, 0.0, 0.0, 0.0, 0.0, 1.7103948844418333E9, 0.0, 2024-03-13 22:41:24.441
62.0, -14.578130027279258, -16.664994202554226, -21.66524044331163, -17.203539796173573, 0.8320000395178795, 0.5920000281184912, 0.2400000113993883, 0.0, 0.0, 0.0, 0.0, 0.0, 1.7103948844418333E9, 0.0, 2024-03-13 22:41:24.441
63.0, -20.348795658908784, -26.95345898065716, -15.6739207142964, -20.341315858997405, 0.8320000395178795, 0.5920000281184912, 0.2400000113993883, 0.0, 0.0, 0.0, 0.0, 0.0, 1.7103948844736764E9, 0.0, 2024-03-13 22:41:24.473
63.0, -38.10958054848015, -38.6855251416564, -28.748610959388316, -36.415405868552625, 0.8320000395178795, 0.5920000281184912, 0.2400000113993883, 0.0, 0.0, 0.0, 0.0, 0.0, 1.7103948844736764E9, 0.0, 2024-03-13 22:41:24.473
64.0, -31.37776062823832, -41.51288950815797, -35.53278947900981, -39.17919193580747, 0.8320000395178795, 0.5920000281184912, 0.2400000113993883, 0.0, 0.0, 0.0, 0.0, 0.0, 1.710394884474465E9, 0.0, 2024-03-13 22:41:24.474
64.0, -26.63182758446783, -33.225271206349134, -31.310442429035902, -35.596367778256536, 0.8320000395178795, 0.5920000281184912, 0.2400000113993883, 0.0, 0.0, 0.0, 0.0, 0.0, 1.710394884474465E9, 0.0, 2024-03-13 22:41:24.474
65.0, -45.85865325666964, -48.25966902822256, -34.459438191726804, -47.343393539078534, 0.8320000395178795, 0.5920000281184912, 0.2400000113993883, 0.0, 0.0, 0.0, 0.0, 0.0, 1.7103948844751823E9, 0.0, 2024-03-13 22:41:24.475
65.0, -39.15301263611764, -42.851773692294955, -40.54051551967859, -46.59541354794055, 0.8320000395178795, 0.5920000281184912, 0.2400000113993883, 0.0, 0.0, 0.0, 0.0, 0.0, 1.7103948844751823E9, 0.0, 2024-03-13 22:41:24.475
66.0, -21.30247014760971, -29.152520154602826, -33.617960701696575, -31.38898032810539, 0.8320000395178795, 0.5920000281184912, 0.2400000113993883, 0.0, 0.0, 0.0, 0.0, 0.0, 1.7103948844762187E9, 0.0, 2024-03-13 22:41:24.476
66.0, -33.53942280262709, -29.605048049241304, -22.753551330417395, -28.58405536133796, 0.8320000395178795, 0.5920000281184912, 0.2400000113993883, 0.0, 0.0, 0.0, 0.0, 0.0, 1.7103948844762187E9, 0.0, 2024-03-13 22:41:24.476
67.0, -38.008603249676526, -38.11706034839153, -26.848741781897843, -39.51204303186387, 0.8320000395178795, 0.5920000281184912, 0.2400000113993883, 0.0, 0.0, 0.0, 0.0, 0.0, 1.7103948844866977E9, 0.0, 2024-03-13 22:41:24.486
67.0, -28.688772560097277, -27.536883373744786, -24.89651400502771, -27.465825274586678, 0.8320000395178795, 0.5920000281184912, 0.2400000113993883, 0.0, 0.0, 0.0, 0.0, 0.0, 1.7103948844866977E9, 0.0, 2024-03-13 22:41:24.486
68.0, -20.827502853237092, -23.78202381823212, -15.038137721829116, -24.11861481424421, 0.8320000395178795, 0.5920000281184912, 0.2400000113993883, 0.0, 0.0, 0.0, 0.0, 0.0, 1.7103948845016308E9, 0.0, 2024-03-13 22:41:24.501
68.0, -35.49165057949722, -44.489849872887135, -30.65222003683448, -44.14203917700797, 0.8320000395178795, 0.5920000281184912, 0.2400000113993883, 0.0, 0.0, 0.0, 0.0, 0.0, 1.7103948845016308E9, 0.0, 2024-03-13 22:41:24.501
69.0, -26.13816079031676, -37.182085359469056, -34.773589788004756, -40.51059632003307, 0.8320000395178795, 0.5920000281184912, 0.2400000113993883, 0.0, 0.0, 0.0, 0.0, 0.0, 1.710394884517315E9, 0.0, 2024-03-13 22:41:24.517
69.0, -24.473905310034752, -34.1639860952273, -35.84320117533207, -37.1297267600894, 0.8320000395178795, 0.5920000281184912, 0.2400000113993883, 0.0, 0.0, 0.0, 0.0, 0.0, 1.710394884517315E9, 0.0, 2024-03-13 22:41:24.517
70.0, -39.83741432800889, -46.01572905480862, -28.438199263066053, -41.79338200483471, 0.8320000395178795, 0.5920000281184912, 0.2400000113993883, 0.0, 0.0, 0.0, 0.0, 0.0, 1.7103948845179944E9, 0.0, 2024-03-13 22:41:24.517
70.0, -44.1682184766978, -49.744409310631454, -38.94731813855469, -42.462824096903205, 0.8320000395178795, 0.5920000281184912, 0.2400000113993883, 0.0, 0.0, 0.0, 0.0, 0.0, 1.7103948845179944E9, 0.0, 2024-03-13 22:41:24.517
71.0, -43.02754899021238, -42.18981140013784, -41.41565210931003, -38.95853783842176, 0.8320000395178795, 0.5920000281184912, 0.2400000113993883, 0.0, 0.0, 0.0, 0.0, 0.0, 1.7103948845316567E9, 0.0, 2024-03-13 22:41:24.531
71.0, -37.32794145774096, -34.410819492302835, -26.61686798464507, -30.697098836302757, 0.8320000395178795, 0.5920000281184912, 0.2400000113993883, 0.0, 0.0, 0.0, 0.0, 0.0, 1.7103948845316567E9, 0.0, 2024-03-13 22:41:24.531
72.0, -33.36738740466535, -35.4617313798517, -20.285217359662056, -29.182439354248345, 0.8320000395178795, 0.5920000281184912, 0.2400000113993883, 0.0, 0.0, 0.0, 0.0, 0.0, 1.710394884547636E9, 0.0, 2024-03-13 22:41:24.547
72.0, -26.57198918517679, -23.28087722416967, -26.17929968982935, -20.1206617616117, 0.8320000395178795, 0.5920000281184912, 0.2400000113993883, 0.0, 0.0, 0.0, 0.0, 0.0, 1.710394884547636E9, 0.0, 2024-03-13 22:41:24.547
73.0, -21.171573649160564, -28.21380526572466, -19.2679645717144, -18.85657557658851, 0.8320000395178795, 0.5920000281184912, 0.2400000113993883, 0.0, 0.0, 0.0, 0.0, 0.0, 1.7103948845480614E9, 0.0, 2024-03-13 22:41:24.548
73.0, -29.922939545474946, -26.788903382606804, -16.86694880016148, -22.364601735025644, 0.8320000395178795, 0.5920000281184912, 0.2400000113993883, 0.0, 0.0, 0.0, 0.0, 0.0, 1.7103948845480614E9, 0.0, 2024-03-13 22:41:24.548
74.0, -24.290650212205946, -21.923293540254235, -20.46847245749086, -16.825809900648892, 0.8320000395178795, 0.5920000281184912, 0.2400000113993883, 0.0, 0.0, 0.0, 0.0, 0.0, 1.7103948845619783E9, 0.0, 2024-03-13 22:41:24.561
74.0, -19.092189273796976, -8.792504795826972, -9.196413991041481, -10.180007679387927, 0.8320000395178795, 0.5920000281184912, 0.2400000113993883, 0.0, 0.0, 0.0, 0.0, 0.0, 1.7103948845619783E9, 0.0, 2024-03-13 22:41:24.561
75.0, -25.71181219536811, -28.53543666191399, -13.26916504278779, -16.242385507561266, 0.8320000395178795, 0.5920000281184912, 0.2400000113993883, 0.0, 0.0, 0.0, 0.0, 0.0, 1.7103948845774536E9, 0.0, 2024-03-13 22:41:24.577
75.0, -34.99050398543477, -41.258576311171055, -20.644247755408287, -31.893866822123528, 0.8320000395178795, 0.5920000281184912, 0.2400000113993883, 0.0, 0.0, 0.0, 0.0, 0.0, 1.7103948845774536E9, 0.0, 2024-03-13 22:41:24.577
76.0, -23.198599425144494, -19.451219669543207, -13.837629836052656, -18.729418978095055, 0.8320000395178795, 0.5920000281184912, 0.2400000113993883, 0.0, 0.0, 0.0, 0.0, 0.0, 1.710394884578381E9, 0.0, 2024-03-13 22:41:24.578
76.0, -31.721831424161792, -25.117168102413416, -11.818083859980106, -20.0832627620548, 0.8320000395178795, 0.5920000281184912, 0.2400000113993883, 0.0, 0.0, 0.0, 0.0, 0.0, 1.710394884578381E9, 0.0, 2024-03-13 22:41:24.578
77.0, -38.446171544492245, -31.561015726067126, -15.101716021075845, -26.841261981986463, 0.8320000395178795, 0.5920000281184912, 0.2400000113993883, 0.0, 0.0, 0.0, 0.0, 0.0, 1.7103948845918155E9, 0.0, 2024-03-13 22:41:24.591
77.0, -9.144055391661823, -17.73460558988154, -2.090604075230658, -3.575344357639551, 0.8320000395178795, 0.5920000281184912, 0.2400000113993883, 0.0, 0.0, 0.0, 0.0, 0.0, 1.7103948845918155E9, 0.0, 2024-03-13 22:41:24.591
78.0, -6.713120420463383, -9.906994982622564, 1.2715659849345684, -4.925448241643608, 0.8320000395178795, 0.5920000281184912, 0.2400000113993883, 0.0, 0.0, 0.0, 0.0, 0.0, 1.7103948846073174E9, 0.0, 2024-03-13 22:41:24.607
78.0, -32.787702911533415, -22.615175032056868, -14.87358212377876, -26.437352786771953, 0.8320000395178795, 0.5920000281184912, 0.2400000113993883, 0.0, 0.0, 0.0, 0.0, 0.0, 1.7103948846073174E9, 0.0, 2024-03-13 22:41:24.607
79.0, -17.225979195907712, -11.485232763923705, -14.121862232685089, -15.139115020632744, 0.8320000395178795, 0.5920000281184912, 0.2400000113993883, 0.0, 0.0, 0.0, 0.0, 0.0, 1.710394884608292E9, 0.0, 2024-03-13 22:41:24.608
79.0, -11.904101558960974, -8.407295100390911, -2.255159673281014, -6.716860320419073, 0.8320000395178795, 0.5920000281184912, 0.2400000113993883, 0.0, 0.0, 0.0, 0.0, 0.0, 1.710394884608292E9, 0.0, 2024-03-13 22:41:24.608
80.0, -22.4917583335191, -17.31199689488858, -0.2094343975186348, -11.586210062727332, 0.8320000395178795, 0.5920000281184912, 0.2400000113993883, 0.0, 0.0, 0.0, 0.0, 0.0, 1.710394884621639E9, 0.0, 2024-03-13 22:41:24.621
80.0, -25.82026929408312, -27.39476717542857, -10.209926879033446, -14.133081932552159, 0.8320000395178795, 0.5920000281184912, 0.2400000113993883, 0.0, 0.0, 0.0, 0.0, 0.0, 1.710394884621639E9, 0.0, 2024-03-13 22:41:24.621
81.0, -17.64858789090067, -22.49923813343048, -12.584763350896537, -11.560030763037503, 0.8320000395178795, 0.5920000281184912, 0.2400000113993883, 0.0, 0.0, 0.0, 0.0, 0.0, 1.7103948846373112E9, 0.0, 2024-03-13 22:41:24.637
81.0, -22.364601735025644, -26.732804883271456, -8.407295100390911, -15.69262021407485, 0.8320000395178795, 0.5920000281184912, 0.2400000113993883, 0.0, 0.0, 0.0, 0.0, 0.0, 1.7103948846373112E9, 0.0, 2024-03-13 22:41:24.637
82.0, -29.279676753096282, -29.32455555256456, -6.327910725027323, -22.424440134316683, 0.8320000395178795, 0.5920000281184912, 0.2400000113993883, 0.0, 0.0, 0.0, 0.0, 0.0, 1.710394884638023E9, 0.0, 2024-03-13 22:41:24.638
82.0, -23.617468220181763, -24.765617506578565, -13.138268544338644, -15.995552110485733, 0.8320000395178795, 0.5920000281184912, 0.2400000113993883, 0.0, 0.0, 0.0, 0.0, 0.0, 1.710394884638023E9, 0.0, 2024-03-13 22:41:24.638
83.0, -30.59986143745482, -36.030196173116565, -19.017391274683177, -27.245171177200973, 0.8320000395178795, 0.5920000281184912, 0.2400000113993883, 0.0, 0.0, 0.0, 0.0, 0.0, 1.710394884651657E9, 0.0, 2024-03-13 22:41:24.651
83.0, -34.34724119305611, -34.395859892480075, -13.620715638622642, -29.76586374733597, 0.8320000395178795, 0.5920000281184912, 0.2400000113993883, 0.0, 0.0, 0.0, 0.0, 0.0, 1.710394884651657E9, 0.0, 2024-03-13 22:41:24.651
84.0, -30.016437044367194, -31.482477826997638, -24.698299307376146, -28.21006536576897, 0.8320000395178795, 0.5920000281184912, 0.2400000113993883, 0.0, 0.0, 0.0, 0.0, 0.0, 1.7103948846672883E9, 0.0, 2024-03-13 22:41:24.667
84.0, -20.408634058199823, -30.906533233821392, -20.88734125252813, -20.12814156152308, 0.8320000395178795, 0.5920000281184912, 0.2400000113993883, 0.0, 0.0, 0.0, 0.0, 0.0, 1.7103948846672883E9, 0.0, 2024-03-13 22:41:24.667
85.0, -31.8302885228768, -23.841862217523158, -15.733759113587439, -21.74751824233681, 0.8320000395178795, 0.5920000281184912, 0.2400000113993883, 0.0, 0.0, 0.0, 0.0, 0.0, 1.71039488466803E9, 0.0, 2024-03-13 22:41:24.668
85.0, -40.50685642007738, -41.74476330541074, -23.636167719960213, -32.69420541264117, 0.8320000395178795, 0.5920000281184912, 0.2400000113993883, 0.0, 0.0, 0.0, 0.0, 0.0, 1.71039488466803E9, 0.0, 2024-03-13 22:41:24.668
86.0, -25.984824892133474, -36.71833776496351, -27.144193878397346, -27.888433969579637, 0.8320000395178795, 0.5920000281184912, 0.2400000113993883, 0.0, 0.0, 0.0, 0.0, 0.0, 1.71039488468162E9, 0.0, 2024-03-13 22:41:24.681
86.0, -38.61820694245398, -36.61362056620419, -21.014497851021588, -32.95599840953946, 0.8320000395178795, 0.5920000281184912, 0.2400000113993883, 0.0, 0.0, 0.0, 0.0, 0.0, 1.71039488468162E9, 0.0, 2024-03-13 22:41:24.681
87.0, -31.561015726067126, -40.30490182247013, -20.737745254300535, -38.23299724701792, 0.8320000395178795, 0.5920000281184912, 0.2400000113993883, 0.0, 0.0, 0.0, 0.0, 0.0, 1.7103948846973124E9, 0.0, 2024-03-13 22:41:24.697
87.0, -19.021131174638867, -32.58574831392616, -22.97794532775879, -25.536036897450686, 0.8320000395178795, 0.5920000281184912, 0.2400000113993883, 0.0, 0.0, 0.0, 0.0, 0.0, 1.7103948846973124E9, 0.0, 2024-03-13 22:41:24.697
88.0, -30.035136544145644, -37.982423949986696, -26.95345898065716, -35.72726427670568, 0.8320000395178795, 0.5920000281184912, 0.2400000113993883, 0.0, 0.0, 0.0, 0.0, 0.0, 1.7103948846980412E9, 0.0, 2024-03-13 22:41:24.698
88.0, -46.95818384364247, -48.2821084279567, -33.232751006260514, -47.03298184275627, 0.8320000395178795, 0.5920000281184912, 0.2400000113993883, 0.0, 0.0, 0.0, 0.0, 0.0, 1.7103948846980412E9, 0.0, 2024-03-13 22:41:24.698
89.0, -30.008957244455814, -30.19595224224031, -24.784317006357014, -28.838368558324873, 0.8320000395178795, 0.5920000281184912, 0.2400000113993883, 0.0, 0.0, 0.0, 0.0, 0.0, 1.7103948847120044E9, 0.0, 2024-03-13 22:41:24.712
89.0, -20.625548255629838, -29.78082334715873, -18.733158878050745, -20.18424006085843, 0.8320000395178795, 0.5920000281184912, 0.2400000113993883, 0.0, 0.0, 0.0, 0.0, 0.0, 1.7103948847120044E9, 0.0, 2024-03-13 22:41:24.712
90.0, -28.56535586155951, -35.188718683086336, -22.349642135202885, -27.596721773035824, 0.8320000395178795, 0.5920000281184912, 0.2400000113993883, 0.0, 0.0, 0.0, 0.0, 0.0, 1.710394884727538E9, 0.0, 2024-03-13 22:41:24.727
90.0, -13.504778739996254, -22.798430129885674, -13.29534434247762, -15.73001921363175, 0.8320000395178795, 0.5920000281184912, 0.2400000113993883, 0.0, 0.0, 0.0, 0.0, 0.0, 1.710394884727538E9, 0.0, 2024-03-13 22:41:24.727
91.0, 0.2543131969869137, -13.67681413795799, -5.377976136282086, -5.550011534243822, 0.8320000395178795, 0.5920000281184912, 0.2400000113993883, 0.0, 0.0, 0.0, 0.0, 0.0, 1.7103948847280252E9, 0.0, 2024-03-13 22:41:24.728
91.0, -15.909534411504865, -14.267718330956995, 5.205940738320351, -4.162508650682867, 0.8320000395178795, 0.5920000281184912, 0.2400000113993883, 0.0, 0.0, 0.0, 0.0, 0.0, 1.7103948847280252E9, 0.0, 2024-03-13 22:41:24.728
92.0, -25.70807229541242, -16.12644860893488, -5.24333973787725, -12.45760675240308, 0.8320000395178795, 0.5920000281184912, 0.2400000113993883, 0.0, 0.0, 0.0, 0.0, 0.0, 1.7103948847419744E9, 0.0, 2024-03-13 22:41:24.741
92.0, -3.4519276591017842, -13.598276238888502, -11.264578666538, -12.169634455814958, 0.8320000395178795, 0.5920000281184912, 0.2400000113993883, 0.0, 0.0, 0.0, 0.0, 0.0, 1.7103948847419744E9, 0.0, 2024-03-13 22:41:24.741
93.0, -14.05828393343836, -17.136221596971154, -5.531312034465373, -15.946933411061764, 0.8320000395178795, 0.5920000281184912, 0.2400000113993883, 0.0, 0.0, 0.0, 0.0, 0.0, 1.710394884757418E9, 0.0, 2024-03-13 22:41:24.757
93.0, -33.28136970568448, -41.10898031294346, -22.15142743755132, -35.28969598188996, 0.8320000395178795, 0.5920000281184912, 0.2400000113993883, 0.0, 0.0, 0.0, 0.0, 0.0, 1.710394884757418E9, 0.0, 2024-03-13 22:41:24.757
94.0, -26.654266984201968, -32.439892215654254, -30.390427039936185, -33.33746820501983, 0.8320000395178795, 0.5920000281184912, 0.2400000113993883, 0.0, 0.0, 0.0, 0.0, 0.0, 1.7103948847580683E9, 0.0, 2024-03-13 22:41:24.758
94.0, -15.120415520854294, -21.463285845704377, -14.361215829849243, -21.414667146280408, 0.8320000395178795, 0.5920000281184912, 0.2400000113993883, 0.0, 0.0, 0.0, 0.0, 0.0, 1.7103948847580683E9, 0.0, 2024-03-13 22:41:24.758
95.0, -31.228164630010724, -34.48187759146094, -16.11522890906781, -31.961185021325946, 0.8320000395178795, 0.5920000281184912, 0.2400000113993883, 0.0, 0.0, 0.0, 0.0, 0.0, 1.7103948847716289E9, 0.0, 2024-03-13 22:41:24.771
95.0, -31.74053092394024, -29.485371250659227, -17.28581759519875, -21.107995349913836, 0.8320000395178795, 0.5920000281184912, 0.2400000113993883, 0.0, 0.0, 0.0, 0.0, 0.0, 1.7103948847716289E9, 0.0, 2024-03-13 22:41:24.771
96.0, -15.842216212302446, -18.16095418483019, -19.047310474328697, -16.986625598743558, 0.8320000395178795, 0.5920000281184912, 0.2400000113993883, 0.0, 0.0, 0.0, 0.0, 0.0, 1.7103948847873423E9, 0.0, 2024-03-13 22:41:24.787
96.0, -24.48512500990182, -25.214405501261353, -15.116675620898604, -21.889634440653026, 0.8320000395178795, 0.5920000281184912, 0.2400000113993883, 0.0, 0.0, 0.0, 0.0, 0.0, 1.7103948847873423E9, 0.0, 2024-03-13 22:41:24.787
97.0, -25.513597497716546, -20.50213155709207, -14.226579431444407, -21.635321243666112, 0.8320000395178795, 0.5920000281184912, 0.2400000113993883, 0.0, 0.0, 0.0, 0.0, 0.0, 1.7103948847881005E9, 0.0, 2024-03-13 22:41:24.788
97.0, -14.90724122337997, -19.107148873619735, -27.069395879283547, -24.316829511895776, 0.8320000395178795, 0.5920000281184912, 0.2400000113993883, 0.0, 0.0, 0.0, 0.0, 0.0, 1.7103948847881005E9, 0.0, 2024-03-13 22:41:24.788
98.0, -4.476660246960819, -10.266025378368795, -8.100623304024339, -12.753058848902583, 0.8320000395178795, 0.5920000281184912, 0.2400000113993883, 0.0, 0.0, 0.0, 0.0, 0.0, 1.710394884801711E9, 0.0, 2024-03-13 22:41:24.801
98.0, -15.509365116246045, -17.169880696572363, -11.821823759935796, -18.669580578804016, 0.8320000395178795, 0.5920000281184912, 0.2400000113993883, 0.0, 0.0, 0.0, 0.0, 0.0, 1.710394884801711E9, 0.0, 2024-03-13 22:41:24.801
99.0, -9.604063086211681, -6.817837619222701, -4.457960747182369, -7.9884263053536415, 0.8320000395178795, 0.5920000281184912, 0.2400000113993883, 0.0, 0.0, 0.0, 0.0, 0.0, 1.7103948848174012E9, 0.0, 2024-03-13 22:41:24.817
99.0, -7.797691407613456, -10.84570987150073, 1.088310887105763, 0.6582223922014236, 0.8320000395178795, 0.5920000281184912, 0.2400000113993883, 0.0, 0.0, 0.0, 0.0, 0.0, 1.7103948848174012E9, 0.0, 2024-03-13 22:41:24.817
100.0, -20.09822236187756, -19.110888773575425, -0.8900961894541979, -12.005078857764602, 0.8320000395178795, 0.5920000281184912, 0.2400000113993883, 0.0, 0.0, 0.0, 0.0, 0.0, 1.710394884818249E9, 0.0, 2024-03-13 22:41:24.818
100.0, -29.945378945209086, -28.673812960274518, -19.892527864314616, -21.553043444640934, 0.8320000395178795, 0.5920000281184912, 0.2400000113993883, 0.0, 0.0, 0.0, 0.0, 0.0, 1.710394884818249E9, 0.0, 2024-03-13 22:41:24.818
0.0, -768.4017148460262, -377.21939918072894, -496.1856167712249, -431.22916439082474, 0.8320000395178795, 0.5920000281184912, 0.2400000113993883, 0.0, 0.0, 0.0, 0.0, 0.0, 1.7103948848323262E9, 0.0, 2024-03-13 22:41:24.832
1.0, -772.4034077986144, -377.8589220731519, -499.2224155352451, -439.0979138975963, 0.8320000395178795, 0.5920000281184912, 0.2400000113993883, 0.0, 0.0, 0.0, 0.0, 0.0, 1.7103948848330631E9, 0.0, 2024-03-13 22:41:24.833
1.0, -772.3996678986587, -377.66070737550035, -501.2270019114949, -439.7935352893546, 0.8320000395178795, 0.5920000281184912, 0.2400000113993883, 0.0, 0.0, 0.0, 0.0, 0.0, 1.7103948848330631E9, 0.0, 2024-03-13 22:41:24.833
2.0, -752.8773901299573, -359.50349309062585, -495.3590988810174, -419.68409322761, 0.8320000395178795, 0.5920000281184912, 0.2400000113993883, 0.0, 0.0, 0.0, 0.0, 0.0, 1.710394884847014E9, 0.0, 2024-03-13 22:41:24.847
2.0, -760.5067860395648, -368.7859247806482, -495.3964978805743, -427.63512053340673, 0.8320000395178795, 0.5920000281184912, 0.2400000113993883, 0.0, 0.0, 0.0, 0.0, 0.0, 1.710394884847014E9, 0.0, 2024-03-13 22:41:24.847
3.0, -773.588956084568, -380.51425104169175, -505.6700030588545, -440.04784848634154, 0.8320000395178795, 0.5920000281184912, 0.2400000113993883, 0.0, 0.0, 0.0, 0.0, 0.0, 1.7103948848625767E9, 0.0, 2024-03-13 22:41:24.862
3.0, -767.0852700616233, -378.14315446978435, -508.23557442845777, -431.00851029343903, 0.8320000395178795, 0.5920000281184912, 0.2400000113993883, 0.0, 0.0, 0.0, 0.0, 0.0, 1.7103948848625767E9, 0.0, 2024-03-13 22:41:24.862
4.0, -767.8407298526727, -375.06895670620725, -503.5606994838454, -431.2403840906918, 0.8320000395178795, 0.5920000281184912, 0.2400000113993883, 0.0, 0.0, 0.0, 0.0, 0.0, 1.710394884863072E9, 0.0, 2024-03-13 22:41:24.863
4.0, -785.3285020454787, -399.2062710202299, -508.4113497263752, -451.74625554773957, 0.8320000395178795, 0.5920000281184912, 0.2400000113993883, 0.0, 0.0, 0.0, 0.0, 0.0, 1.710394884863072E9, 0.0, 2024-03-13 22:41:24.863
5.0, -779.0940888193436, -389.1571598392911, -506.91538974409923, -445.56420092098415, 0.8320000395178795, 0.5920000281184912, 0.2400000113993883, 0.0, 0.0, 0.0, 0.0, 0.0, 1.7103948848769655E9, 0.0, 2024-03-13 22:41:24.876
5.0, -769.9874324272387, -374.7248859102838, -498.7063093413599, -430.3465480012819, 0.8320000395178795, 0.5920000281184912, 0.2400000113993883, 0.0, 0.0, 0.0, 0.0, 0.0, 1.7103948848769655E9, 0.0, 2024-03-13 22:41:24.876
6.0, -781.6671399888583, -389.5722887343727, -503.26898728730157, -440.1675252849236, 0.8320000395178795, 0.5920000281184912, 0.2400000113993883, 0.0, 0.0, 0.0, 0.0, 0.0, 1.71039488489289E9, 0.0, 2024-03-13 22:41:24.892
6.0, -768.921560939867, -377.7242856747471, -494.19225009484217, -434.9129658471793, 0.8320000395178795, 0.5920000281184912, 0.2400000113993883, 0.0, 0.0, 0.0, 0.0, 0.0, 1.71039488489289E9, 0.0, 2024-03-13 22:41:24.892
7.0, -757.4999064751901, -371.5758901475929, -500.1723501239903, -433.8770135594532, 0.8320000395178795, 0.5920000281184912, 0.2400000113993883, 0.0, 0.0, 0.0, 0.0, 0.0, 1.7103948848933408E9, 0.0, 2024-03-13 22:41:24.893
7.0, -764.9460472869687, -383.6034084050916, -495.05616698460653, -430.89631329476833, 0.8320000395178795, 0.5920000281184912, 0.2400000113993883, 0.0, 0.0, 0.0, 0.0, 0.0, 1.7103948848933408E9, 0.0, 2024-03-13 22:41:24.893
8.0, -775.5748429610394, -385.9782448769547, -508.3328118273057, -442.1347126616165, 0.8320000395178795, 0.5920000281184912, 0.2400000113993883, 0.0, 0.0, 0.0, 0.0, 0.0, 1.7103948849066172E9, 0.0, 2024-03-13 22:41:24.906
8.0, -771.9396602041088, -385.2714037853293, -521.246686374303, -445.14907202590257, 0.8320000395178795, 0.5920000281184912, 0.2400000113993883, 0.0, 0.0, 0.0, 0.0, 0.0, 1.7103948849066172E9, 0.0, 2024-03-13 22:41:24.906
9.0, -762.5674709151499, -382.7245319155045, -502.4462092970498, -431.62933368608356, 0.8320000395178795, 0.5920000281184912, 0.2400000113993883, 0.0, 0.0, 0.0, 0.0, 0.0, 1.7103948849379845E9, 0.0, 2024-03-13 22:41:24.937
9.0, -771.273958011996, -395.4364518648945, -503.12313118902966, -445.3211074238643, 0.8320000395178795, 0.5920000281184912, 0.2400000113993883, 0.0, 0.0, 0.0, 0.0, 0.0, 1.7103948849379845E9, 0.0, 2024-03-13 22:41:24.937
10.0, -765.593049979303, -379.32122295582667, -501.38781760958955, -437.81512821279466, 0.8320000395178795, 0.5920000281184912, 0.25600001215934753, 0.0, 0.0, 0.0, 0.0, 0.0, 1.7103948849386692E9, 0.0, 2024-03-13 22:41:24.938
10.0, -767.7696717535146, -383.9474792010151, -507.8054859335534, -436.48372382856905, 0.8320000395178795, 0.5920000281184912, 0.25600001215934753, 0.0, 0.0, 0.0, 0.0, 0.0, 1.7103948849386692E9, 0.0, 2024-03-13 22:41:24.938
11.0, -774.8418225697242, -388.00527065293863, -509.86991070909426, -443.07342755049467, 0.8320000395178795, 0.5920000281184912, 0.25600001215934753, 0.0, 0.0, 0.0, 0.0, 0.0, 1.7103948849394834E9, 0.0, 2024-03-13 22:41:24.939
11.0, -787.8491946156137, -406.1437854380347, -506.9677483434789, -443.49603624548763, 0.8320000395178795, 0.5920000281184912, 0.25600001215934753, 0.0, 0.0, 0.0, 0.0, 0.0, 1.7103948849394834E9, 0.0, 2024-03-13 22:41:24.939
12.0, -779.5166975143366, -391.8311883076094, -519.3729964965023, -442.7592759542167, 0.8320000395178795, 0.5920000281184912, 0.25600001215934753, 0.0, 0.0, 0.0, 0.0, 0.0, 1.7103948849523084E9, 0.0, 2024-03-13 22:41:24.952
12.0, -776.2891638525762, -390.78401632001624, -510.7450472987257, -440.78834867756814, 0.8320000395178795, 0.5920000281184912, 0.25600001215934753, 0.0, 0.0, 0.0, 0.0, 0.0, 1.7103948849523084E9, 0.0, 2024-03-13 22:41:24.952
13.0, -767.5153585565276, -381.70353922760114, -491.9557899213396, -428.37188082467765, 0.8320000395178795, 0.5920000281184912, 0.25600001215934753, 0.0, 0.0, 0.0, 0.0, 0.0, 1.7103948849530127E9, 0.0, 2024-03-13 22:41:24.953
13.0, -765.4172746813856, -383.02746381191537, -500.46406232053414, -432.6877253735438, 0.8320000395178795, 0.5920000281184912, 0.25600001215934753, 0.0, 0.0, 0.0, 0.0, 0.0, 1.7103948849530127E9, 0.0, 2024-03-13 22:41:24.953
14.0, -765.2153200837784, -394.4378985767253, -513.9277021610178, -443.67555144336075, 0.8320000395178795, 0.5920000281184912, 0.25600001215934753, 0.0, 0.0, 0.0, 0.0, 0.0, 1.7103948849666407E9, 0.0, 2024-03-13 22:41:24.966
14.0, -789.1768590998836, -405.1826311494224, -522.0806840644218, -457.4421231802553, 0.8320000395178795, 0.5920000281184912, 0.25600001215934753, 0.0, 0.0, 0.0, 0.0, 0.0, 1.7103948849666407E9, 0.0, 2024-03-13 22:41:24.966
15.0, -779.5727960136719, -395.3130351663567, -521.9797067656182, -452.7747280355543, 0.8320000395178795, 0.5920000281184912, 0.25600001215934753, 0.0, 0.0, 0.0, 0.0, 0.0, 1.7103948849828043E9, 0.0, 2024-03-13 22:41:24.982
15.0, -763.8240773002617, -385.74637107970193, -508.16451632929966, -437.15690582059324, 0.8320000395178795, 0.5920000281184912, 0.25600001215934753, 0.0, 0.0, 0.0, 0.0, 0.0, 1.7103948849828043E9, 0.0, 2024-03-13 22:41:24.982
16.0, -769.9126344281249, -387.4667250593193, -495.56479337858036, -431.44607858825475, 0.8320000395178795, 0.5920000281184912, 0.25600001215934753, 0.0, 0.0, 0.0, 0.0, 0.0, 1.7103948849830408E9, 0.0, 2024-03-13 22:41:24.983
16.0, -779.8570284103043, -398.70512442616746, -506.60871794773266, -446.5515345092863, 0.8320000395178795, 0.5920000281184912, 0.25600001215934753, 0.0, 0.0, 0.0, 0.0, 0.0, 1.7103948849830408E9, 0.0, 2024-03-13 22:41:24.983
17.0, -772.6240618960001, -389.5722887343727, -509.54079951299354, -435.10744064487517, 0.8320000395178795, 0.5920000281184912, 0.25600001215934753, 0.0, 0.0, 0.0, 0.0, 0.0, 1.7103948849968836E9, 0.0, 2024-03-13 22:41:24.996
17.0, -772.4295870983042, -388.73455114429817, -501.86652480391786, -438.5144895045087, 0.8320000395178795, 0.5920000281184912, 0.25600001215934753, 0.0, 0.0, 0.0, 0.0, 0.0, 1.7103948849968836E9, 0.0, 2024-03-13 22:41:24.996
18.0, -783.9746582615189, -394.52391627570614, -503.71403538202867, -445.07801392674446, 0.8320000395178795, 0.5920000281184912, 0.25600001215934753, 0.0, 0.0, 0.0, 0.0, 0.0, 1.7103948850122995E9, 0.0, 2024-03-13 22:41:25.012
18.0, -768.2633385476656, -393.04291589325294, -507.1771827409975, -439.55792159214616, 0.8320000395178795, 0.5920000281184912, 0.25600001215934753, 0.0, 0.0, 0.0, 0.0, 0.0, 1.7103948850122995E9, 0.0, 2024-03-13 22:41:25.012
19.0, -770.3502027229406, -384.1344741987996, -501.91140360338613, -435.832981236279, 0.8320000395178795, 0.5920000281184912, 0.25600001215934753, 0.0, 0.0, 0.0, 0.0, 0.0, 1.710394885013027E9, 0.0, 2024-03-13 22:41:25.013
19.0, -779.8158895107917, -392.3959132009186, -511.9193758848123, -447.70716359559447, 0.8320000395178795, 0.5920000281184912, 0.25600001215934753, 0.0, 0.0, 0.0, 0.0, 0.0, 1.710394885013027E9, 0.0, 2024-03-13 22:41:25.013
20.0, -783.8998602624051, -396.45370465284213, -519.593650593888, -451.46202315110713, 0.8320000395178795, 0.5920000281184912, 0.25600001215934753, 0.0, 0.0, 0.0, 0.0, 0.0, 1.710394885027006E9, 0.0, 2024-03-13 22:41:25.027
20.0, -780.3693947042339, -395.5336892637424, -527.4250011011027, -454.3604456167668, 0.8320000395178795, 0.5920000281184912, 0.25600001215934753, 0.0, 0.0, 0.0, 0.0, 0.0, 1.710394885027006E9, 0.0, 2024-03-13 22:41:25.027
21.0, -781.5886020897888, -396.1320732566528, -517.7610996156, -454.72321591246873, 0.8320000395178795, 0.5920000281184912, 0.25600001215934753, 0.0, 0.0, 0.0, 0.0, 0.0, 1.710394885058706E9, 0.0, 2024-03-13 22:41:25.058
21.0, -788.496197307948, -405.38084584707394, -520.3154512853362, -460.7294952413067, 0.8320000395178795, 0.5920000281184912, 0.25600001215934753, 0.0, 0.0, 0.0, 0.0, 0.0, 1.710394885058706E9, 0.0, 2024-03-13 22:41:25.058
22.0, -785.9979441375472, -401.4614306935109, -524.7808918324299, -454.59979921393096, 0.8320000395178795, 0.5920000281184912, 0.25600001215934753, 0.0, 0.0, 0.0, 0.0, 0.0, 1.7103948850594423E9, 0.0, 2024-03-13 22:41:25.059
22.0, -787.2919495222159, -406.5439547332935, -517.1552358227782, -456.2191758947447, 0.8320000395178795, 0.5920000281184912, 0.25600001215934753, 0.0, 0.0, 0.0, 0.0, 0.0, 1.7103948850594423E9, 0.0, 2024-03-13 22:41:25.059
23.0, -795.6207067235373, -416.7389220125042, -528.3749356898479, -468.4112497502938, 0.8320000395178795, 0.5920000281184912, 0.25600001215934753, 0.0, 0.0, 0.0, 0.0, 0.0, 1.7103948850601892E9, 0.0, 2024-03-13 22:41:25.060
23.0, -789.3788136974908, -409.46107669873163, -525.7794451205991, -457.82359297573566, 0.8320000395178795, 0.5920000281184912, 0.25600001215934753, 0.0, 0.0, 0.0, 0.0, 0.0, 1.7103948850601892E9, 0.0, 2024-03-13 22:41:25.060
24.0, -789.5770283951424, -403.51837566914037, -519.6123500936665, -446.8058477062732, 0.8320000395178795, 0.5920000281184912, 0.25600001215934753, 0.0, 0.0, 0.0, 0.0, 0.0, 1.710394885061186E9, 0.0, 2024-03-13 22:41:25.061
24.0, -801.6344658522867, -415.3738585286774, -515.3451242442243, -461.8215460283682, 0.8320000395178795, 0.5920000281184912, 0.25600001215934753, 0.0, 0.0, 0.0, 0.0, 0.0, 1.710394885061186E9, 0.0, 2024-03-13 22:41:25.061
25.0, -794.6445928351022, -409.0646473034285, -525.3717960254289, -459.12133826036006, 0.8320000395178795, 0.5920000281184912, 0.25600001215934753, 0.0, 0.0, 0.0, 0.0, 0.0, 1.7103948850716555E9, 0.0, 2024-03-13 22:41:25.071
25.0, -781.3155893930234, -402.1682717851363, -516.0033466364257, -451.01323515642434, 0.8320000395178795, 0.5920000281184912, 0.25600001215934753, 0.0, 0.0, 0.0, 0.0, 0.0, 1.7103948850716555E9, 0.0, 2024-03-13 22:41:25.071
26.0, -773.5852161846124, -405.3658862472512, -507.6371904355474, -444.1467788377777, 0.8320000395178795, 0.5920000281184912, 0.25600001215934753, 0.0, 0.0, 0.0, 0.0, 0.0, 1.710394885086623E9, 0.0, 2024-03-13 22:41:25.086
26.0, -784.9133731503971, -403.8063479657285, -506.80319274542853, -449.63695197273046, 0.8320000395178795, 0.5920000281184912, 0.25600001215934753, 0.0, 0.0, 0.0, 0.0, 0.0, 1.710394885086623E9, 0.0, 2024-03-13 22:41:25.086
27.0, -778.3760280278511, -390.70547842094675, -511.2910726922564, -442.9911497514695, 0.8320000395178795, 0.5920000281184912, 0.25600001215934753, 0.0, 0.0, 0.0, 0.0, 0.0, 1.7103948851025877E9, 0.0, 2024-03-13 22:41:25.102
27.0, -787.8678941153921, -400.01034951070324, -506.182369352784, -447.52764839772135, 0.8320000395178795, 0.5920000281184912, 0.25600001215934753, 0.0, 0.0, 0.0, 0.0, 0.0, 1.7103948851025877E9, 0.0, 2024-03-13 22:41:25.102
28.0, -790.3362280861475, -401.34549379488453, -507.7344278343953, -452.86074573453516, 0.8320000395178795, 0.5920000281184912, 0.25600001215934753, 0.0, 0.0, 0.0, 0.0, 0.0, 1.7103948851031072E9, 0.0, 2024-03-13 22:41:25.103
28.0, -782.4487790795974, -392.89331989502534, -513.3255782681517, -443.6979908430949, 0.8320000395178795, 0.5920000281184912, 0.25600001215934753, 0.0, 0.0, 0.0, 0.0, 0.0, 1.7103948851031072E9, 0.0, 2024-03-13 22:41:25.103
29.0, -776.0685097551905, -393.0952744926326, -503.80005308100954, -440.8070481773466, 0.8320000395178795, 0.5920000281184912, 0.25600001215934753, 0.0, 0.0, 0.0, 0.0, 0.0, 1.7103948851166272E9, 0.0, 2024-03-13 22:41:25.116
29.0, -799.1848313813098, -418.586432590615, -522.2676790622063, -464.2637006994337, 0.8320000395178795, 0.5920000281184912, 0.25600001215934753, 0.0, 0.0, 0.0, 0.0, 0.0, 1.7103948851166272E9, 0.0, 2024-03-13 22:41:25.116
30.0, -789.6331268944778, -409.56205399753526, -526.1683947159909, -456.82503968756646, 0.8320000395178795, 0.5920000281184912, 0.25600001215934753, 0.0, 0.0, 0.0, 0.0, 0.0, 1.7103948851323552E9, 0.0, 2024-03-13 22:41:25.132
30.0, -780.8967205979861, -395.77304286090657, -517.2749126213603, -452.30724054109305, 0.8320000395178795, 0.5920000281184912, 0.25600001215934753, 0.0, 0.0, 0.0, 0.0, 0.0, 1.7103948851323552E9, 0.0, 2024-03-13 22:41:25.132
31.0, -790.740137281362, -404.4645703579299, -519.5674712941982, -454.3230466172099, 0.8320000395178795, 0.5920000281184912, 0.25600001215934753, 0.0, 0.0, 0.0, 0.0, 0.0, 1.7103948851330876E9, 0.0, 2024-03-13 22:41:25.133
31.0, -797.6552122994326, -400.1449859091081, -511.5229464895092, -452.2848011413589, 0.8320000395178795, 0.5920000281184912, 0.25600001215934753, 0.0, 0.0, 0.0, 0.0, 0.0, 1.7103948851330876E9, 0.0, 2024-03-13 22:41:25.133
32.0, -780.3693947042339, -392.7250243970193, -510.8235851977952, -436.0611151335761, 0.8320000395178795, 0.5920000281184912, 0.25600001215934753, 0.0, 0.0, 0.0, 0.0, 0.0, 1.710394885146969E9, 0.0, 2024-03-13 22:41:25.146
32.0, -770.9672862156294, -385.4509189832024, -489.59965294925496, -423.9438392771408, 0.8320000395178795, 0.5920000281184912, 0.25600001215934753, 0.0, 0.0, 0.0, 0.0, 0.0, 1.710394885146969E9, 0.0, 2024-03-13 22:41:25.146
33.0, -802.3749660435133, -406.0241086394526, -506.9565286436118, -445.216390225105, 0.8320000395178795, 0.5920000281184912, 0.25600001215934753, 0.0, 0.0, 0.0, 0.0, 0.0, 1.710394885162589E9, 0.0, 2024-03-13 22:41:25.162
33.0, -792.9765974548645, -408.26804861286655, -512.128810282331, -446.2448627129197, 0.8320000395178795, 0.5920000281184912, 0.25600001215934753, 0.0, 0.0, 0.0, 0.0, 0.0, 1.710394885162589E9, 0.0, 2024-03-13 22:41:25.162
34.0, -789.2329575992189, -398.59666732745245, -509.54453941294923, -439.8832928882912, 0.8320000395178795, 0.5920000281184912, 0.25600001215934753, 0.0, 0.0, 0.0, 0.0, 0.0, 1.7103948851630976E9, 0.0, 2024-03-13 22:41:25.163
34.0, -801.4923496539705, -401.26695589581504, -504.20022237626836, -442.34788695909083, 0.8320000395178795, 0.5920000281184912, 0.25600001215934753, 0.0, 0.0, 0.0, 0.0, 0.0, 1.7103948851630976E9, 0.0, 2024-03-13 22:41:25.163
35.0, -788.1857856116258, -399.4680640171282, -504.13664407702163, -437.89366611186415, 0.8320000395178795, 0.5920000281184912, 0.25600001215934753, 0.0, 0.0, 0.0, 0.0, 0.0, 1.710394885176936E9, 0.0, 2024-03-13 22:41:25.176
35.0, -767.5303181563504, -389.568548834417, -508.0822385302745, -435.1410997444764, 0.8320000395178795, 0.5920000281184912, 0.25600001215934753, 0.0, 0.0, 0.0, 0.0, 0.0, 1.710394885176936E9, 0.0, 2024-03-13 22:41:25.176
36.0, -773.626355084125, -396.22557075554505, -505.8420384568162, -441.0613613743335, 0.8320000395178795, 0.5920000281184912, 0.25600001215934753, 0.0, 0.0, 0.0, 0.0, 0.0, 1.7103948851923602E9, 0.0, 2024-03-13 22:41:25.192
36.0, -779.5054778144695, -390.9448320181109, -507.4352358379401, -448.0549742914736, 0.8320000395178795, 0.5920000281184912, 0.25600001215934753, 0.0, 0.0, 0.0, 0.0, 0.0, 1.7103948851923602E9, 0.0, 2024-03-13 22:41:25.192
37.0, -771.8947814046405, -387.8332352549769, -504.2301415759139, -439.04181539826095, 0.8320000395178795, 0.5920000281184912, 0.25600001215934753, 0.0, 0.0, 0.0, 0.0, 0.0, 1.7103948851933072E9, 0.0, 2024-03-13 22:41:25.193
37.0, -779.8420688104816, -393.5029235878028, -495.67325047729537, -437.8338277125731, 0.8320000395178795, 0.5920000281184912, 0.25600001215934753, 0.0, 0.0, 0.0, 0.0, 0.0, 1.7103948851933072E9, 0.0, 2024-03-13 22:41:25.193
38.0, -790.0819148891605, -405.52670194534585, -500.4453628207557, -448.6234390847385, 0.8320000395178795, 0.5920000281184912, 0.25600001215934753, 0.0, 0.0, 0.0, 0.0, 0.0, 1.710394885206679E9, 0.0, 2024-03-13 22:41:25.206
38.0, -793.862953744363, -404.9432775522582, -512.1026309826411, -451.45828325115144, 0.8320000395178795, 0.5920000281184912, 0.25600001215934753, 0.0, 0.0, 0.0, 0.0, 0.0, 1.710394885206679E9, 0.0, 2024-03-13 22:41:25.206
39.0, -786.7047852291726, -403.2416230724193, -514.443808354903, -445.08549372665584, 0.8320000395178795, 0.5920000281184912, 0.25600001215934753, 0.0, 0.0, 0.0, 0.0, 0.0, 1.7103948852223444E9, 0.0, 2024-03-13 22:41:25.222
39.0, -800.5162357655354, -409.71912979567423, -513.1124039706774, -455.89754449855536, 0.8320000395178795, 0.5920000281184912, 0.25600001215934753, 0.0, 0.0, 0.0, 0.0, 0.0, 1.7103948852223444E9, 0.0, 2024-03-13 22:41:25.222
40.0, -791.9630845668726, -404.7263633548282, -510.7001684992574, -453.2833544295281, 0.8320000395178795, 0.5920000281184912, 0.25600001215934753, 0.0, 0.0, 0.0, 0.0, 0.0, 1.7103948852232356E9, 0.0, 2024-03-13 22:41:25.223
40.0, -779.8532885103486, -403.01348917512223, -513.5350126656704, -444.5544279329479, 0.8320000395178795, 0.5920000281184912, 0.25600001215934753, 0.0, 0.0, 0.0, 0.0, 0.0, 1.7103948852232356E9, 0.0, 2024-03-13 22:41:25.223
41.0, -799.9477709722705, -412.90178465796635, -510.7450472987257, -451.8098338469863, 0.8320000395178795, 0.5920000281184912, 0.25600001215934753, 0.0, 0.0, 0.0, 0.0, 0.0, 1.7103948852370043E9, 0.0, 2024-03-13 22:41:25.237
41.0, -807.8913184781559, -416.97079580975696, -508.8863170207478, -456.1892566950992, 0.8320000395178795, 0.5920000281184912, 0.25600001215934753, 0.0, 0.0, 0.0, 0.0, 0.0, 1.7103948852370043E9, 0.0, 2024-03-13 22:41:25.237
42.0, -791.7723496691324, -408.5859401091002, -523.0268787532113, -455.8788449987769, 0.8320000395178795, 0.5920000281184912, 0.25600001215934753, 0.0, 0.0, 0.0, 0.0, 0.0, 1.710394885252338E9, 0.0, 2024-03-13 22:41:25.252
42.0, -799.3232076796703, -420.142230972182, -527.2267864034511, -458.23124207090586, 0.8320000395178795, 0.5920000281184912, 0.25600001215934753, 0.0, 0.0, 0.0, 0.0, 0.0, 1.710394885252338E9, 0.0, 2024-03-13 22:41:25.252
43.0, -801.9934962480329, -413.4291105517186, -521.9049087665044, -465.16875648871064, 0.8320000395178795, 0.5920000281184912, 0.25600001215934753, 0.0, 0.0, 0.0, 0.0, 0.0, 1.710394885253086E9, 0.0, 2024-03-13 22:41:25.253
43.0, -797.2999218036421, -406.9516038284637, -522.3499568612315, -455.0672867083922, 0.8320000395178795, 0.5920000281184912, 0.25600001215934753, 0.0, 0.0, 0.0, 0.0, 0.0, 1.710394885253086E9, 0.0, 2024-03-13 22:41:25.253
44.0, -782.3739810804836, -396.8763133478351, -502.5247471961193, -443.9784833397716, 0.8320000395178795, 0.5920000281184912, 0.25600001215934753, 0.0, 0.0, 0.0, 0.0, 0.0, 1.7103948852667315E9, 0.0, 2024-03-13 22:41:25.266
44.0, -798.2760356920771, -396.274189454969, -500.6173982187174, -446.6188527084887, 0.8320000395178795, 0.5920000281184912, 0.25600001215934753, 0.0, 0.0, 0.0, 0.0, 0.0, 1.7103948852667315E9, 0.0, 2024-03-13 22:41:25.266
45.0, -784.1653931592591, -396.6519193504937, -503.98330817883834, -439.74491658993065, 0.8320000395178795, 0.5920000281184912, 0.25600001215934753, 0.0, 0.0, 0.0, 0.0, 0.0, 1.7103948852822895E9, 0.0, 2024-03-13 22:41:25.282
45.0, -771.8312031053938, -392.62030719826, -499.83575912797824, -435.5749281393364, 0.8320000395178795, 0.5920000281184912, 0.25600001215934753, 0.0, 0.0, 0.0, 0.0, 0.0, 1.7103948852822895E9, 0.0, 2024-03-13 22:41:25.282
46.0, -770.6456548194401, -388.2857631496154, -495.9612227738835, -435.82550143636763, 0.8320000395178795, 0.5920000281184912, 0.25600001215934753, 0.0, 0.0, 0.0, 0.0, 0.0, 1.7103948852830868E9, 0.0, 2024-03-13 22:41:25.283
46.0, -781.6409606891684, -396.93241184717044, -503.08947208942845, -445.4707034220919, 0.8320000395178795, 0.5920000281184912, 0.25600001215934753, 0.0, 0.0, 0.0, 0.0, 0.0, 1.7103948852830868E9, 0.0, 2024-03-13 22:41:25.283
47.0, -771.588109608274, -386.240037873853, -501.6608303063549, -427.5678023342043, 0.8320000395178795, 0.5920000281184912, 0.25600001215934753, 0.0, 0.0, 0.0, 0.0, 0.0, 1.7103948852970552E9, 0.0, 2024-03-13 22:41:25.297
47.0, -765.5369514799677, -375.58506290009245, -494.23712889431044, -428.15496662724763, 0.8320000395178795, 0.5920000281184912, 0.25600001215934753, 0.0, 0.0, 0.0, 0.0, 0.0, 1.7103948852970552E9, 0.0, 2024-03-13 22:41:25.297
48.0, -775.9039541571401, -380.92190013686195, -503.41858328552917, -438.9969365987927, 0.8320000395178795, 0.5920000281184912, 0.25600001215934753, 0.0, 0.0, 0.0, 0.0, 0.0, 1.7103948853126643E9, 0.0, 2024-03-13 22:41:25.312
48.0, -769.2394524361007, -374.5004919129424, -505.65130355907604, -434.93540524691343, 0.8320000395178795, 0.5920000281184912, 0.25600001215934753, 0.0, 0.0, 0.0, 0.0, 0.0, 1.7103948853126643E9, 0.0, 2024-03-13 22:41:25.312
49.0, -771.6778672072105, -381.73345842724666, -499.5552666313015, -433.1776522677392, 0.8320000395178795, 0.5920000281184912, 0.25600001215934753, 0.0, 0.0, 0.0, 0.0, 0.0, 1.710394885313301E9, 0.0, 2024-03-13 22:41:25.313
49.0, -776.1956663536839, -383.0237239119597, -497.6703570536338, -440.9491643756628, 0.8320000395178795, 0.5920000281184912, 0.25600001215934753, 0.0, 0.0, 0.0, 0.0, 0.0, 1.710394885313301E9, 0.0, 2024-03-13 22:41:25.313
50.0, -776.2629845528863, -384.901153689716, -506.339445150923, -435.81802163645625, 0.8320000395178795, 0.5920000281184912, 0.2400000113993883, 0.0, 0.0, 0.0, 0.0, 0.0, 1.7103948853270354E9, 0.0, 2024-03-13 22:41:25.327
50.0, -773.3982211868279, -377.2343587805517, -499.90307732718065, -431.5283563872799, 0.8320000395178795, 0.5920000281184912, 0.2400000113993883, 0.0, 0.0, 0.0, 0.0, 0.0, 1.7103948853270354E9, 0.0, 2024-03-13 22:41:25.327
51.0, -788.9599449024536, -392.6090874983929, -503.1754897884093, -443.2492028484121, 0.8320000395178795, 0.5920000281184912, 0.2400000113993883, 0.0, 0.0, 0.0, 0.0, 0.0, 1.7103948853423429E9, 0.0, 2024-03-13 22:41:25.342
51.0, -791.8471476682462, -407.8865788173862, -516.0332658360712, -449.0310881799087, 0.8320000395178795, 0.5920000281184912, 0.2400000113993883, 0.0, 0.0, 0.0, 0.0, 0.0, 1.7103948853423429E9, 0.0, 2024-03-13 22:41:25.342
52.0, -776.6481942483224, -374.2723580156453, -511.0330195953138, -435.9563979348168, 0.8320000395178795, 0.5920000281184912, 0.2400000113993883, 0.0, 0.0, 0.0, 0.0, 0.0, 1.7103948853430448E9, 0.0, 2024-03-13 22:41:25.343
52.0, -770.851349317003, -384.4336661952548, -511.5229464895092, -437.1307265209034, 0.8320000395178795, 0.5920000281184912, 0.2400000113993883, 0.0, 0.0, 0.0, 0.0, 0.0, 1.7103948853430448E9, 0.0, 2024-03-13 22:41:25.343
53.0, -770.3801219225861, -380.8209228380583, -501.5935121071525, -437.3850397178903, 0.8320000395178795, 0.5920000281184912, 0.2400000113993883, 0.0, 0.0, 0.0, 0.0, 0.0, 1.710394885356892E9, 0.0, 2024-03-13 22:41:25.356
53.0, -765.484592880588, -373.40470122592524, -509.4921808135696, -439.1427926970646, 0.8320000395178795, 0.5920000281184912, 0.2400000113993883, 0.0, 0.0, 0.0, 0.0, 0.0, 1.710394885356892E9, 0.0, 2024-03-13 22:41:25.356
54.0, -758.8986290586181, -368.88316217949614, -495.3740584808402, -428.36814092472196, 0.8320000395178795, 0.5920000281184912, 0.2400000113993883, 0.0, 0.0, 0.0, 0.0, 0.0, 1.710394885372363E9, 0.0, 2024-03-13 22:41:25.372
54.0, -772.672680595424, -385.55937608191743, -494.41290419222787, -436.6520193265751, 0.8320000395178795, 0.5920000281184912, 0.2400000113993883, 0.0, 0.0, 0.0, 0.0, 0.0, 1.710394885372363E9, 0.0, 2024-03-13 22:41:25.372
55.0, -767.8706490523182, -377.4662325778045, -498.08174604875967, -432.07438178081065, 0.8320000395178795, 0.5920000281184912, 0.2400000113993883, 0.0, 0.0, 0.0, 0.0, 0.0, 1.710394885373068E9, 0.0, 2024-03-13 22:41:25.373
55.0, -769.441407033708, -378.2029928690754, -497.3001069580205, -429.17969921510667, 0.8320000395178795, 0.5920000281184912, 0.2400000113993883, 0.0, 0.0, 0.0, 0.0, 0.0, 1.710394885373068E9, 0.0, 2024-03-13 22:41:25.373
56.0, -795.949817919638, -392.40713290078565, -504.16656327666715, -441.78690196573734, 0.8320000395178795, 0.5920000281184912, 0.2400000113993883, 0.0, 0.0, 0.0, 0.0, 0.0, 1.7103948853866816E9, 0.0, 2024-03-13 22:41:25.386
56.0, -801.2455162568949, -403.0957669741474, -517.2711727214046, -456.6717037893832, 0.8320000395178795, 0.5920000281184912, 0.2400000113993883, 0.0, 0.0, 0.0, 0.0, 0.0, 1.7103948853866816E9, 0.0, 2024-03-13 22:41:25.386
57.0, -780.2571977055632, -389.73310443246737, -506.5825386480428, -437.41869881749153, 0.8320000395178795, 0.5920000281184912, 0.2400000113993883, 0.0, 0.0, 0.0, 0.0, 0.0, 1.7103948854025135E9, 0.0, 2024-03-13 22:41:25.402
57.0, -783.6567667652853, -394.19480507960543, -499.9629157264717, -433.89571305923164, 0.8320000395178795, 0.5920000281184912, 0.2400000113993883, 0.0, 0.0, 0.0, 0.0, 0.0, 1.7103948854025135E9, 0.0, 2024-03-13 22:41:25.402
58.0, -785.0143504492007, -392.0855015045963, -505.68870255863294, -444.45719053409994, 0.8320000395178795, 0.5920000281184912, 0.2400000113993883, 0.0, 0.0, 0.0, 0.0, 0.0, 1.710394885403186E9, 0.0, 2024-03-13 22:41:25.403
58.0, -776.8800680455752, -377.9112806725316, -502.64816389465705, -436.4949435284361, 0.8320000395178795, 0.5920000281184912, 0.2400000113993883, 0.0, 0.0, 0.0, 0.0, 0.0, 1.710394885403186E9, 0.0, 2024-03-13 22:41:25.403
59.0, -784.7712569520809, -394.59871427481994, -513.0413458715193, -440.12264648545533, 0.8320000395178795, 0.5920000281184912, 0.2400000113993883, 0.0, 0.0, 0.0, 0.0, 0.0, 1.7103948854166555E9, 0.0, 2024-03-13 22:41:25.416
59.0, -779.7971900110133, -385.6117346812971, -502.8912573917769, -446.3533198116347, 0.8320000395178795, 0.5920000281184912, 0.2400000113993883, 0.0, 0.0, 0.0, 0.0, 0.0, 1.7103948854166555E9, 0.0, 2024-03-13 22:41:25.416
60.0, -775.9039541571401, -383.0461633116938, -504.843485168647, -438.11806010920554, 0.8320000395178795, 0.5920000281184912, 0.2400000113993883, 0.0, 0.0, 0.0, 0.0, 0.0, 1.710394885432392E9, 0.0, 2024-03-13 22:41:25.432
60.0, -766.774858365301, -379.3062633560039, -499.27477413462475, -430.5709419986233, 0.8320000395178795, 0.5920000281184912, 0.2400000113993883, 0.0, 0.0, 0.0, 0.0, 0.0, 1.710394885432392E9, 0.0, 2024-03-13 22:41:25.432
61.0, -780.9415993974544, -389.48253113543615, -500.1349511244334, -434.84938754793257, 0.8320000395178795, 0.5920000281184912, 0.2400000113993883, 0.0, 0.0, 0.0, 0.0, 0.0, 1.7103948854330876E9, 0.0, 2024-03-13 22:41:25.433
61.0, -765.6154893790372, -385.9445857773535, -494.1735505950637, -430.4998838994652, 0.8320000395178795, 0.5920000281184912, 0.2400000113993883, 0.0, 0.0, 0.0, 0.0, 0.0, 1.7103948854330876E9, 0.0, 2024-03-13 22:41:25.433
62.0, -757.4512877757661, -375.25595170399174, -490.49722893862054, -422.3768211957067, 0.8320000395178795, 0.5920000281184912, 0.2400000113993883, 0.0, 0.0, 0.0, 0.0, 0.0, 1.7103948854471056E9, 0.0, 2024-03-13 22:41:25.447
62.0, -765.593049979303, -372.65672123478726, -488.3991450634785, -428.3531813248992, 0.8320000395178795, 0.5920000281184912, 0.2400000113993883, 0.0, 0.0, 0.0, 0.0, 0.0, 1.7103948854471056E9, 0.0, 2024-03-13 22:41:25.447
63.0, -783.0546428724192, -383.984878200572, -493.9304570979439, -438.00212321057916, 0.8320000395178795, 0.5920000281184912, 0.2400000113993883, 0.0, 0.0, 0.0, 0.0, 0.0, 1.7103948854624796E9, 0.0, 2024-03-13 22:41:25.462
63.0, -777.5008914382197, -385.81368927890435, -507.304339339491, -435.51508974004537, 0.8320000395178795, 0.5920000281184912, 0.2400000113993883, 0.0, 0.0, 0.0, 0.0, 0.0, 1.7103948854624796E9, 0.0, 2024-03-13 22:41:25.462
64.0, -754.7286406080239, -379.2052860572003, -493.9229772980325, -422.36560149583966, 0.8320000395178795, 0.5920000281184912, 0.2400000113993883, 0.0, 0.0, 0.0, 0.0, 0.0, 1.7103948854632473E9, 0.0, 2024-03-13 22:41:25.463
64.0, -775.0063781677745, -388.85422794288024, -505.72984145814553, -443.48481654562056, 0.8320000395178795, 0.5920000281184912, 0.2400000113993883, 0.0, 0.0, 0.0, 0.0, 0.0, 1.7103948854632473E9, 0.0, 2024-03-13 22:41:25.463
65.0, -784.3224689573981, -392.5305495993234, -513.9838006603532, -445.86339291743934, 0.8320000395178795, 0.5920000281184912, 0.2400000113993883, 0.0, 0.0, 0.0, 0.0, 0.0, 1.710394885477429E9, 0.0, 2024-03-13 22:41:25.477
65.0, -772.3772284989245, -389.6807458330877, -512.3644239795394, -437.30276191886514, 0.8320000395178795, 0.5920000281184912, 0.2400000113993883, 0.0, 0.0, 0.0, 0.0, 0.0, 1.710394885477429E9, 0.0, 2024-03-13 22:41:25.477
66.0, -777.0932423430495, -393.47674428811297, -503.8037929809652, -438.44717130530626, 0.8320000395178795, 0.5920000281184912, 0.2400000113993883, 0.0, 0.0, 0.0, 0.0, 0.0, 1.710394885492382E9, 0.0, 2024-03-13 22:41:25.492
66.0, -790.6840387820266, -398.48073042882606, -510.79366599814966, -451.2114498540759, 0.8320000395178795, 0.5920000281184912, 0.2400000113993883, 0.0, 0.0, 0.0, 0.0, 0.0, 1.710394885492382E9, 0.0, 2024-03-13 22:41:25.492
67.0, -779.7223920118995, -396.5509420516901, -506.6760361469351, -441.6934044668451, 0.8320000395178795, 0.5920000281184912, 0.2400000113993883, 0.0, 0.0, 0.0, 0.0, 0.0, 1.7103948854931128E9, 0.0, 2024-03-13 22:41:25.493
67.0, -784.4159664562903, -400.96776389935985, -496.4062708686106, -438.0619616098702, 0.8320000395178795, 0.5920000281184912, 0.2400000113993883, 0.0, 0.0, 0.0, 0.0, 0.0, 1.7103948854931128E9, 0.0, 2024-03-13 22:41:25.493
68.0, -788.1334270122461, -396.4948435523547, -497.5058014555834, -444.6217461321503, 0.8320000395178795, 0.5920000281184912, 0.2400000113993883, 0.0, 0.0, 0.0, 0.0, 0.0, 1.7103948855066888E9, 0.0, 2024-03-13 22:41:25.506
68.0, -778.413427027408, -388.37552074855193, -501.5860323072411, -439.3223078949377, 0.8320000395178795, 0.5920000281184912, 0.2400000113993883, 0.0, 0.0, 0.0, 0.0, 0.0, 1.7103948855066888E9, 0.0, 2024-03-13 22:41:25.506
69.0, -777.5121111380868, -393.59642108669505, -505.1015382655896, -440.34330058284104, 0.8320000395178795, 0.5920000281184912, 0.2400000113993883, 0.0, 0.0, 0.0, 0.0, 0.0, 1.7103948855223615E9, 0.0, 2024-03-13 22:41:25.522
69.0, -771.6180288079195, -386.2362979738973, -501.298060010653, -443.8101878417656, 0.8320000395178795, 0.5920000281184912, 0.2400000113993883, 0.0, 0.0, 0.0, 0.0, 0.0, 1.7103948855223615E9, 0.0, 2024-03-13 22:41:25.522
70.0, -766.5542042679153, -387.26103056175634, -510.3785371030681, -444.4721501339227, 0.8320000395178795, 0.5920000281184912, 0.2400000113993883, 0.0, 0.0, 0.0, 0.0, 0.0, 1.710394885523178E9, 0.0, 2024-03-13 22:41:25.523
70.0, -761.0528114330955, -374.4256939138286, -503.05207308987156, -437.93854491133243, 0.8320000395178795, 0.5920000281184912, 0.2400000113993883, 0.0, 0.0, 0.0, 0.0, 0.0, 1.710394885523178E9, 0.0, 2024-03-13 22:41:25.523
71.0, -769.9425536277704, -383.50991090619937, -499.24485493497923, -439.97305048722774, 0.8320000395178795, 0.5920000281184912, 0.2400000113993883, 0.0, 0.0, 0.0, 0.0, 0.0, 1.710394885536894E9, 0.0, 2024-03-13 22:41:25.536
71.0, -778.1329345307313, -388.3418616489507, -506.2197683523409, -448.2943278886378, 0.8320000395178795, 0.5920000281184912, 0.2400000113993883, 0.0, 0.0, 0.0, 0.0, 0.0, 1.710394885536894E9, 0.0, 2024-03-13 22:41:25.536
72.0, -769.8228768291883, -388.5699955462478, -502.696782594081, -438.19659800827503, 0.8320000395178795, 0.5920000281184912, 0.2400000113993883, 0.0, 0.0, 0.0, 0.0, 0.0, 1.7103948855523071E9, 0.0, 2024-03-13 22:41:25.552
72.0, -774.1462011779658, -389.5423695347272, -496.63814466586336, -440.33208088297397, 0.8320000395178795, 0.5920000281184912, 0.2400000113993883, 0.0, 0.0, 0.0, 0.0, 0.0, 1.7103948855523071E9, 0.0, 2024-03-13 22:41:25.552
73.0, -783.7839233637787, -394.41171927703544, -505.7036621584557, -450.1380985667929, 0.8320000395178795, 0.5920000281184912, 0.2400000113993883, 0.0, 0.0, 0.0, 0.0, 0.0, 1.7103948855530436E9, 0.0, 2024-03-13 22:41:25.553
73.0, -766.7449391656555, -379.69147305143997, -501.7431081053801, -437.26536291930825, 0.8320000395178795, 0.5920000281184912, 0.2400000113993883, 0.0, 0.0, 0.0, 0.0, 0.0, 1.7103948855530436E9, 0.0, 2024-03-13 22:41:25.553
74.0, -774.5127113736235, -376.6808535871096, -505.72236165823415, -441.6560054672882, 0.8320000395178795, 0.5920000281184912, 0.2400000113993883, 0.0, 0.0, 0.0, 0.0, 0.0, 1.7103948855828724E9, 0.0, 2024-03-13 22:41:25.582
74.0, -784.5954816541635, -396.8725734478794, -512.5925578768365, -460.5948588429019, 0.8320000395178795, 0.5920000281184912, 0.2400000113993883, 0.0, 0.0, 0.0, 0.0, 0.0, 1.7103948855828724E9, 0.0, 2024-03-13 22:41:25.582
75.0, -790.957051478792, -398.9482179232873, -519.0438853004016, -463.20156911201775, 0.8320000395178795, 0.5920000281184912, 0.2400000113993883, 0.0, 0.0, 0.0, 0.0, 0.0, 1.7103948855834806E9, 0.0, 2024-03-13 22:41:25.583
75.0, -783.6193677657284, -390.5783218224533, -508.3402916272171, -448.8141739824787, 0.8320000395178795, 0.5920000281184912, 0.2400000113993883, 0.0, 0.0, 0.0, 0.0, 0.0, 1.7103948855834806E9, 0.0, 2024-03-13 22:41:25.583
76.0, -797.8384673972614, -405.52296204539016, -502.71548209385946, -451.46202315110713, 0.8320000395178795, 0.5920000281184912, 0.2400000113993883, 0.0, 0.0, 0.0, 0.0, 0.0, 1.7103948855971634E9, 0.0, 2024-03-13 22:41:25.597
76.0, -804.259875621181, -413.702123248484, -507.5960515360348, -456.2977137938142, 0.8320000395178795, 0.5920000281184912, 0.2400000113993883, 0.0, 0.0, 0.0, 0.0, 0.0, 1.7103948855971634E9, 0.0, 2024-03-13 22:41:25.597
77.0, -778.6153816250153, -397.93470503529534, -504.53681337228045, -441.26705587189645, 0.8320000395178795, 0.5920000281184912, 0.2400000113993883, 0.0, 0.0, 0.0, 0.0, 0.0, 1.7103948856130145E9, 0.0, 2024-03-13 22:41:25.613
77.0, -779.378321215976, -391.0869482164271, -503.2951665869914, -438.0507419100031, 0.8320000395178795, 0.5920000281184912, 0.2400000113993883, 0.0, 0.0, 0.0, 0.0, 0.0, 1.7103948856130145E9, 0.0, 2024-03-13 22:41:25.613
78.0, -780.8817609981634, -385.8024695790373, -502.71922199381515, -443.22676344867796, 0.8320000395178795, 0.5920000281184912, 0.2400000113993883, 0.0, 0.0, 0.0, 0.0, 0.0, 1.7103948856137824E9, 0.0, 2024-03-13 22:41:25.613
78.0, -759.7700257482938, -374.1975600165315, -500.38552442146465, -436.11347373295575, 0.8320000395178795, 0.5920000281184912, 0.2400000113993883, 0.0, 0.0, 0.0, 0.0, 0.0, 1.7103948856137824E9, 0.0, 2024-03-13 22:41:25.613
79.0, -759.3025382538326, -382.4141202191822, -499.5814459309913, -439.2923886952922, 0.8320000395178795, 0.5920000281184912, 0.2400000113993883, 0.0, 0.0, 0.0, 0.0, 0.0, 1.7103948856144745E9, 0.0, 2024-03-13 22:41:25.614
79.0, -772.986832191702, -390.63068042183295, -498.5828926428221, -446.2598223127425, 0.8320000395178795, 0.5920000281184912, 0.2400000113993883, 0.0, 0.0, 0.0, 0.0, 0.0, 1.7103948856144745E9, 0.0, 2024-03-13 22:41:25.614
80.0, -770.417520922143, -387.07403556397185, -503.97582837892696, -447.04146140348166, 0.8320000395178795, 0.5920000281184912, 0.2400000113993883, 0.0, 0.0, 0.0, 0.0, 0.0, 1.710394885626996E9, 0.0, 2024-03-13 22:41:25.626
80.0, -767.7135732541792, -381.7484180270694, -501.9600223028101, -433.78725596051663, 0.8320000395178795, 0.5920000281184912, 0.2400000113993883, 0.0, 0.0, 0.0, 0.0, 0.0, 1.710394885626996E9, 0.0, 2024-03-13 22:41:25.626
81.0, -772.3099102997221, -387.0889951637946, -503.31760598672554, -446.024208615534, 0.8320000395178795, 0.5920000281184912, 0.2400000113993883, 0.0, 0.0, 0.0, 0.0, 0.0, 1.710394885642385E9, 0.0, 2024-03-13 22:41:25.642
81.0, -764.5309183918871, -373.0793299297802, -494.1847702949308, -436.5510420277715, 0.8320000395178795, 0.5920000281184912, 0.2400000113993883, 0.0, 0.0, 0.0, 0.0, 0.0, 1.710394885642385E9, 0.0, 2024-03-13 22:41:25.642
82.0, -761.5240388275124, -367.35728299757466, -494.3306263932027, -423.40903358347714, 0.8320000395178795, 0.5920000281184912, 0.2400000113993883, 0.0, 0.0, 0.0, 0.0, 0.0, 1.7103948856430817E9, 0.0, 2024-03-13 22:41:25.643
82.0, -762.4440542166121, -368.5316115836613, -486.89196538133547, -427.14145373925567, 0.8320000395178795, 0.5920000281184912, 0.2400000113993883, 0.0, 0.0, 0.0, 0.0, 0.0, 1.7103948856430817E9, 0.0, 2024-03-13 22:41:25.643
83.0, -770.2380057242699, -373.9843857190572, -487.34449327597395, -426.0456630522385, 0.8320000395178795, 0.5920000281184912, 0.2400000113993883, 0.0, 0.0, 0.0, 0.0, 0.0, 1.7103948856566353E9, 0.0, 2024-03-13 22:41:25.656
83.0, -760.914435134735, -360.6740817767568, -490.30275414092466, -424.3851474719122, 0.8320000395178795, 0.5920000281184912, 0.2400000113993883, 0.0, 0.0, 0.0, 0.0, 0.0, 1.7103948856566353E9, 0.0, 2024-03-13 22:41:25.656
84.0, -764.1606682962738, -375.9328735959716, -493.74720200011507, -428.95904511772096, 0.8320000395178795, 0.5920000281184912, 0.2400000113993883, 0.0, 0.0, 0.0, 0.0, 0.0, 1.710394885672433E9, 0.0, 2024-03-13 22:41:25.672
84.0, -778.3909876276739, -384.47854499472305, -490.9647164330818, -432.9046395709738, 0.8320000395178795, 0.5920000281184912, 0.2400000113993883, 0.0, 0.0, 0.0, 0.0, 0.0, 1.710394885672433E9, 0.0, 2024-03-13 22:41:25.672
85.0, -774.336936075706, -375.11009560571983, -488.30938746454194, -428.18114592693746, 0.8320000395178795, 0.5920000281184912, 0.2400000113993883, 0.0, 0.0, 0.0, 0.0, 0.0, 1.710394885673452E9, 0.0, 2024-03-13 22:41:25.673
85.0, -762.0925036207773, -362.28223875770345, -475.6423463146202, -412.7839778093621, 0.8320000395178795, 0.5920000281184912, 0.2400000113993883, 0.0, 0.0, 0.0, 0.0, 0.0, 1.710394885673452E9, 0.0, 2024-03-13 22:41:25.673
86.0, -773.7572515825741, -365.8912422149442, -474.1763055319898, -419.80377002619207, 0.8320000395178795, 0.5920000281184912, 0.2400000113993883, 0.0, 0.0, 0.0, 0.0, 0.0, 1.7103948856868875E9, 0.0, 2024-03-13 22:41:25.686
86.0, -777.6766667361371, -374.29479741537943, -487.49782917415723, -427.2125118384138, 0.8320000395178795, 0.5920000281184912, 0.2400000113993883, 0.0, 0.0, 0.0, 0.0, 0.0, 1.7103948856868875E9, 0.0, 2024-03-13 22:41:25.686
87.0, -760.8545967354439, -360.068217983935, -488.86289265798405, -421.0080178119242, 0.8320000395178795, 0.5920000281184912, 0.2400000113993883, 0.0, 0.0, 0.0, 0.0, 0.0, 1.71039488570238E9, 0.0, 2024-03-13 22:41:25.702
87.0, -768.4316340456717, -376.81175008555874, -490.0746202436276, -431.89486658293754, 0.8320000395178795, 0.5920000281184912, 0.2400000113993883, 0.0, 0.0, 0.0, 0.0, 0.0, 1.71039488570238E9, 0.0, 2024-03-13 22:41:25.702
88.0, -771.3150969115086, -387.2834699614905, -485.6839776956476, -432.82236177194864, 0.8320000395178795, 0.5920000281184912, 0.2400000113993883, 0.0, 0.0, 0.0, 0.0, 0.0, 1.7103948857032104E9, 0.0, 2024-03-13 22:41:25.703
88.0, -755.8580903946422, -373.24762542778626, -482.9837699276395, -422.40674039535224, 0.8320000395178795, 0.5920000281184912, 0.2400000113993883, 0.0, 0.0, 0.0, 0.0, 0.0, 1.7103948857032104E9, 0.0, 2024-03-13 22:41:25.703
89.0, -757.765439372044, -372.29395093908533, -484.0234621153213, -420.24881812091917, 0.8320000395178795, 0.5920000281184912, 0.2400000113993883, 0.0, 0.0, 0.0, 0.0, 0.0, 1.7103948857168667E9, 0.0, 2024-03-13 22:41:25.716
89.0, -757.2792523778044, -368.68868738180026, -482.29562833579257, -423.5773290814832, 0.8320000395178795, 0.5920000281184912, 0.2400000113993883, 0.0, 0.0, 0.0, 0.0, 0.0, 1.7103948857168667E9, 0.0, 2024-03-13 22:41:25.716
90.0, -751.3664705478586, -348.20151542453095, -476.4015460056253, -412.69422021042556, 0.8320000395178795, 0.5920000281184912, 0.2240000106394291, 0.0, 0.0, 0.0, 0.0, 0.0, 1.710394885732344E9, 0.0, 2024-03-13 22:41:25.732
90.0, -752.3313647364266, -355.09789094282314, -478.48467028094456, -413.5992759997025, 0.8320000395178795, 0.5920000281184912, 0.2240000106394291, 0.0, 0.0, 0.0, 0.0, 0.0, 1.710394885732344E9, 0.0, 2024-03-13 22:41:25.732
91.0, -756.4676940874197, -359.16690209461376, -470.55234247492626, -414.14156149327755, 0.8320000395178795, 0.5920000281184912, 0.2240000106394291, 0.0, 0.0, 0.0, 0.0, 0.0, 1.7103948857331038E9, 0.0, 2024-03-13 22:41:25.733
91.0, -761.2585059306584, -360.3674099803902, -474.5315960277803, -424.04107667598873, 0.8320000395178795, 0.5920000281184912, 0.2240000106394291, 0.0, 0.0, 0.0, 0.0, 0.0, 1.7103948857331038E9, 0.0, 2024-03-13 22:41:25.733
92.0, -748.5652854810469, -364.6421156297438, -477.30286189494655, -413.7974906973541, 0.8320000395178795, 0.5920000281184912, 0.2240000106394291, 0.0, 0.0, 0.0, 0.0, 0.0, 1.7103948857466273E9, 0.0, 2024-03-13 22:41:25.746
92.0, -764.1905874959193, -368.58771008299664, -481.1399992494844, -421.082815811038, 0.8320000395178795, 0.5920000281184912, 0.2240000106394291, 0.0, 0.0, 0.0, 0.0, 0.0, 1.7103948857466273E9, 0.0, 2024-03-13 22:41:25.746
93.0, -770.5521573205478, -378.88365466101095, -481.3531735469587, -428.3120424253866, 0.8320000395178795, 0.5920000281184912, 0.2240000106394291, 0.0, 0.0, 0.0, 0.0, 0.0, 1.7103948857627995E9, 0.0, 2024-03-13 22:41:25.762
93.0, -767.9080480518751, -380.76856423867866, -495.60593227809295, -427.80715593136847, 0.8320000395178795, 0.5920000281184912, 0.2240000106394291, 0.0, 0.0, 0.0, 0.0, 0.0, 1.7103948857627995E9, 0.0, 2024-03-13 22:41:25.762
94.0, -764.8899487876333, -374.4107343140058, -482.8042547297664, -417.76552455034107, 0.8320000395178795, 0.5920000281184912, 0.2240000106394291, 0.0, 0.0, 0.0, 0.0, 0.0, 1.710394885763259E9, 0.0, 2024-03-13 22:41:25.763
94.0, -770.9186675162055, -377.91876047244295, -482.97255022777244, -426.7188450442627, 0.8320000395178795, 0.5920000281184912, 0.2240000106394291, 0.0, 0.0, 0.0, 0.0, 0.0, 1.710394885763259E9, 0.0, 2024-03-13 22:41:25.763
95.0, -769.2581519358791, -370.0013922662474, -492.9094644100405, -428.62245412170887, 0.8320000395178795, 0.5920000281184912, 0.2240000106394291, 0.0, 0.0, 0.0, 0.0, 0.0, 1.710394885777003E9, 0.0, 2024-03-13 22:41:25.777
95.0, -759.8672631471418, -359.31649809284136, -495.4712958796881, -426.07932215183973, 0.8320000395178795, 0.5920000281184912, 0.2240000106394291, 0.0, 0.0, 0.0, 0.0, 0.0, 1.710394885777003E9, 0.0, 2024-03-13 22:41:25.777
96.0, -769.4376671337523, -380.39831414306536, -498.6576906419359, -441.2371366722509, 0.8320000395178795, 0.5920000281184912, 0.2240000106394291, 0.0, 0.0, 0.0, 0.0, 0.0, 1.7103948857923336E9, 0.0, 2024-03-13 22:41:25.792
96.0, -773.8918879809789, -391.0869482164271, -499.1064786366187, -442.3591066589579, 0.8320000395178795, 0.5920000281184912, 0.2240000106394291, 0.0, 0.0, 0.0, 0.0, 0.0, 1.7103948857923336E9, 0.0, 2024-03-13 22:41:25.792
97.0, -760.1103566442616, -377.43257347820327, -501.2943201106973, -437.07836792152375, 0.8320000395178795, 0.5920000281184912, 0.2240000106394291, 0.0, 0.0, 0.0, 0.0, 0.0, 1.7103948857931983E9, 0.0, 2024-03-13 22:41:25.793
97.0, -775.7169591593556, -389.7966827317141, -497.9957283497788, -438.0170828104019, 0.8320000395178795, 0.5920000281184912, 0.2240000106394291, 0.0, 0.0, 0.0, 0.0, 0.0, 1.7103948857931983E9, 0.0, 2024-03-13 22:41:25.793
98.0, -785.1115878480487, -395.7206842615269, -497.34124585753307, -445.26500892452896, 0.8320000395178795, 0.5920000281184912, 0.2240000106394291, 0.0, 0.0, 0.0, 0.0, 0.0, 1.7103948858069904E9, 0.0, 2024-03-13 22:41:25.806
98.0, -775.6234616604634, -392.71006479719654, -501.4887949083932, -433.3235083660111, 0.8320000395178795, 0.5920000281184912, 0.2240000106394291, 0.0, 0.0, 0.0, 0.0, 0.0, 1.7103948858069904E9, 0.0, 2024-03-13 22:41:25.806
99.0, -756.8304643831216, -370.88026875583455, -481.4990296452306, -415.6749204751104, 0.8320000395178795, 0.5920000281184912, 0.2240000106394291, 0.0, 0.0, 0.0, 0.0, 0.0, 1.71039488582239E9, 0.0, 2024-03-13 22:41:25.822
99.0, -763.1621150081046, -368.9617000785656, -478.2153974841349, -418.4648858420551, 0.8320000395178795, 0.5920000281184912, 0.2240000106394291, 0.0, 0.0, 0.0, 0.0, 0.0, 1.71039488582239E9, 0.0, 2024-03-13 22:41:25.822
100.0, -742.8918572482653, -356.67986862408, -481.07642095023766, -416.77071116212755, 0.8320000395178795, 0.5920000281184912, 0.2400000113993883, 0.0, 0.0, 0.0, 0.0, 0.0, 1.7103948858231056E9, 0.0, 2024-03-13 22:41:25.823
100.0, -740.5357202761807, -358.6769752004184, -481.6187064438127, -414.6501878872514, 0.8320000395178795, 0.5920000281184912, 0.2400000113993883, 0.0, 0.0, 0.0, 0.0, 0.0, 1.7103948858231056E9, 0.0, 2024-03-13 22:41:25.823
0.0, -744.8422150751576, -363.7856785398908, -470.4756745258346, -415.58516287617385, 0.8320000395178795, 0.5920000281184912, 0.2400000113993883, 0.0, 0.0, 0.0, 0.0, 0.0, 1.710394885837378E9, 0.0, 2024-03-13 22:41:25.837
1.0, -755.7552431458607, -361.9606073615141, -490.9441469833255, -426.15038025099784, 0.8320000395178795, 0.5920000281184912, 0.2400000113993883, 0.0, 0.0, 0.0, 0.0, 0.0, 1.710394885838047E9, 0.0, 2024-03-13 22:41:25.838
1.0, -742.6618534009904, -344.5476331678219, -483.2399530746043, -407.95202706661075, 0.8320000395178795, 0.5920000281184912, 0.2400000113993883, 0.0, 0.0, 0.0, 0.0, 0.0, 1.710394885838047E9, 0.0, 2024-03-13 22:41:25.838
2.0, -749.8275017160922, -360.90595557400957, -479.709487516433, -414.8184833852574, 0.8320000395178795, 0.5920000281184912, 0.2400000113993883, 0.0, 0.0, 0.0, 0.0, 0.0, 1.7103948858516715E9, 0.0, 2024-03-13 22:41:25.851
2.0, -760.4824766898528, -371.91996094351634, -480.43876800779253, -419.2727042324841, 0.8320000395178795, 0.5920000281184912, 0.2400000113993883, 0.0, 0.0, 0.0, 0.0, 0.0, 1.7103948858516715E9, 0.0, 2024-03-13 22:41:25.851
3.0, -754.6744120586663, -355.4419617387466, -485.6447087461129, -415.3757284786552, 0.8320000395178795, 0.5920000281184912, 0.2400000113993883, 0.0, 0.0, 0.0, 0.0, 0.0, 1.7103948858673308E9, 0.0, 2024-03-13 22:41:25.867
3.0, -745.077828772366, -352.4911806737073, -469.892250132747, -409.84441644418985, 0.8320000395178795, 0.5920000281184912, 0.2400000113993883, 0.0, 0.0, 0.0, 0.0, 0.0, 1.7103948858673308E9, 0.0, 2024-03-13 22:41:25.867
4.0, -751.9816840905696, -362.9255015500821, -474.6381831765175, -420.3161363201216, 0.8320000395178795, 0.5920000281184912, 0.2400000113993883, 0.0, 0.0, 0.0, 0.0, 0.0, 1.7103948858680532E9, 0.0, 2024-03-13 22:41:25.868
4.0, -756.4359049377963, -362.09150385996327, -484.57509735878557, -418.70423943921924, 0.8320000395178795, 0.5920000281184912, 0.2400000113993883, 0.0, 0.0, 0.0, 0.0, 0.0, 1.7103948858680532E9, 0.0, 2024-03-13 22:41:25.868
5.0, -755.6841850467026, -371.0111652542837, -483.9243547664955, -414.1228619934991, 0.8320000395178795, 0.5920000281184912, 0.2400000113993883, 0.0, 0.0, 0.0, 0.0, 0.0, 1.710394885881928E9, 0.0, 2024-03-13 22:41:25.881
5.0, -760.8676863852888, -379.5306573533453, -484.58631705865264, -422.51519749406725, 0.8320000395178795, 0.5920000281184912, 0.2400000113993883, 0.0, 0.0, 0.0, 0.0, 0.0, 1.710394885881928E9, 0.0, 2024-03-13 22:41:25.881
6.0, -758.8593601090834, -366.46718680812046, -486.10845634061843, -419.8636084254831, 0.8320000395178795, 0.5920000281184912, 0.2400000113993883, 0.0, 0.0, 0.0, 0.0, 0.0, 1.7103948858973353E9, 0.0, 2024-03-13 22:41:25.897
6.0, -761.8325805738568, -370.790511156898, -492.6121423635632, -423.44269268307835, 0.8320000395178795, 0.5920000281184912, 0.2400000113993883, 0.0, 0.0, 0.0, 0.0, 0.0, 1.7103948858973353E9, 0.0, 2024-03-13 22:41:25.897
7.0, -776.3059934023768, -375.69351999880746, -496.0977291222662, -432.6166672743857, 0.8320000395178795, 0.5920000281184912, 0.2400000113993883, 0.0, 0.0, 0.0, 0.0, 0.0, 1.7103948858980672E9, 0.0, 2024-03-13 22:41:25.898
7.0, -768.669117692858, -372.7838778332807, -477.7123809400946, -430.58590159844607, 0.8320000395178795, 0.5920000281184912, 0.2400000113993883, 0.0, 0.0, 0.0, 0.0, 0.0, 1.7103948858980672E9, 0.0, 2024-03-13 22:41:25.898
8.0, -766.1110261231661, -386.4345126715489, -492.84027626086026, -430.8252551956102, 0.8320000395178795, 0.5920000281184912, 0.2400000113993883, 0.0, 0.0, 0.0, 0.0, 0.0, 1.7103948859120524E9, 0.0, 2024-03-13 22:41:25.912
8.0, -773.3888714369386, -386.10166157549247, -486.17203463986516, -426.0120039526373, 0.8320000395178795, 0.5920000281184912, 0.2400000113993883, 0.0, 0.0, 0.0, 0.0, 0.0, 1.7103948859120524E9, 0.0, 2024-03-13 22:41:25.912
9.0, -786.3850237829611, -390.690518821124, -485.25575915072113, -434.7297107493505, 0.8320000395178795, 0.5920000281184912, 0.2400000113993883, 0.0, 0.0, 0.0, 0.0, 0.0, 1.710394885927739E9, 0.0, 2024-03-13 22:41:25.927
9.0, -782.3421919308603, -400.41051880596206, -496.00049172341824, -434.81198854837567, 0.8320000395178795, 0.5920000281184912, 0.2400000113993883, 0.0, 0.0, 0.0, 0.0, 0.0, 1.710394885927739E9, 0.0, 2024-03-13 22:41:25.927
10.0, -768.9683096893132, -367.2376061989926, -487.6044163228944, -420.4956515179947, 0.8320000395178795, 0.5920000281184912, 0.2240000106394291, 0.0, 0.0, 0.0, 0.0, 0.0, 1.7103948859282284E9, 0.0, 2024-03-13 22:41:25.928
10.0, -773.6731038335711, -382.73201171541587, -483.6850011693314, -419.0109112355858, 0.8320000395178795, 0.5920000281184912, 0.2240000106394291, 0.0, 0.0, 0.0, 0.0, 0.0, 1.7103948859282284E9, 0.0, 2024-03-13 22:41:25.928
11.0, -774.1592908278108, -377.3016769797541, -494.1604609452188, -427.1638931389898, 0.8320000395178795, 0.5920000281184912, 0.2240000106394291, 0.0, 0.0, 0.0, 0.0, 0.0, 1.710394885941805E9, 0.0, 2024-03-13 22:41:25.941
11.0, -771.0626536644995, -370.33050346234813, -496.73725201468915, -423.543669981882, 0.8320000395178795, 0.5920000281184912, 0.2240000106394291, 0.0, 0.0, 0.0, 0.0, 0.0, 1.710394885941805E9, 0.0, 2024-03-13 22:41:25.941
12.0, -767.6780442046002, -373.1616077288054, -492.5672635640949, -426.715105144307, 0.8320000395178795, 0.5920000281184912, 0.2240000106394291, 0.0, 0.0, 0.0, 0.0, 0.0, 1.7103948859573748E9, 0.0, 2024-03-13 22:41:25.957
12.0, -769.0692869881168, -380.3796146432869, -495.8995144246146, -440.4667172813788, 0.8320000395178795, 0.5920000281184912, 0.2240000106394291, 0.0, 0.0, 0.0, 0.0, 0.0, 1.7103948859573748E9, 0.0, 2024-03-13 22:41:25.957
13.0, -757.8832462206483, -366.84865660360083, -499.0971288867295, -434.66239255014807, 0.8320000395178795, 0.5920000281184912, 0.2240000106394291, 0.0, 0.0, 0.0, 0.0, 0.0, 1.710394885958318E9, 0.0, 2024-03-13 22:41:25.958
13.0, -771.8255932554603, -384.5683025936596, -504.7929965192452, -438.44717130530626, 0.8320000395178795, 0.5920000281184912, 0.2240000106394291, 0.0, 0.0, 0.0, 0.0, 0.0, 1.710394885958318E9, 0.0, 2024-03-13 22:41:25.958
14.0, -783.804492813535, -395.74686356121674, -503.21849863789976, -449.45743677485734, 0.8320000395178795, 0.5920000281184912, 0.2240000106394291, 0.0, 0.0, 0.0, 0.0, 0.0, 1.710394885971805E9, 0.0, 2024-03-13 22:41:25.971
14.0, -779.4736886648461, -389.51993013499305, -501.21391226164997, -442.5124425571412, 0.8320000395178795, 0.5920000281184912, 0.2240000106394291, 0.0, 0.0, 0.0, 0.0, 0.0, 1.710394885971805E9, 0.0, 2024-03-13 22:41:25.971
15.0, -775.700129609555, -386.3821540721692, -500.4322731709108, -441.26705587189645, 0.8320000395178795, 0.5920000281184912, 0.2240000106394291, 0.0, 0.0, 0.0, 0.0, 0.0, 1.7103948859875104E9, 0.0, 2024-03-13 22:41:25.987
15.0, -781.7325882380828, -381.1313345343806, -492.88141516037285, -435.0289027458057, 0.8320000395178795, 0.5920000281184912, 0.2240000106394291, 0.0, 0.0, 0.0, 0.0, 0.0, 1.7103948859875104E9, 0.0, 2024-03-13 22:41:25.987
16.0, -781.1603835448623, -387.8594145546667, -489.6763208983466, -438.60050720348954, 0.8320000395178795, 0.5920000281184912, 0.2240000106394291, 0.0, 0.0, 0.0, 0.0, 0.0, 1.7103948859880776E9, 0.0, 2024-03-13 22:41:25.988
16.0, -774.2378287268803, -379.69895285135135, -496.55773681681603, -428.9852244174108, 0.8320000395178795, 0.5920000281184912, 0.2240000106394291, 0.0, 0.0, 0.0, 0.0, 0.0, 1.7103948859880776E9, 0.0, 2024-03-13 22:41:25.988
17.0, -784.8217456014827, -393.55154228722677, -497.43661330640316, -441.5026695691049, 0.8320000395178795, 0.5920000281184912, 0.2240000106394291, 0.0, 0.0, 0.0, 0.0, 0.0, 1.7103948860017061E9, 0.0, 2024-03-13 22:41:26.001
17.0, -800.8920957110822, -405.60523984441534, -507.4632850876078, -455.2916807057336, 0.8320000395178795, 0.5920000281184912, 0.2240000106394291, 0.0, 0.0, 0.0, 0.0, 0.0, 1.7103948860017061E9, 0.0, 2024-03-13 22:41:26.001
18.0, -783.0527729224414, -389.5274099349044, -505.567155810073, -443.15196544956416, 0.8320000395178795, 0.5920000281184912, 0.2240000106394291, 0.0, 0.0, 0.0, 0.0, 0.0, 1.710394886017378E9, 0.0, 2024-03-13 22:41:26.017
18.0, -788.5541657572612, -398.8659401242621, -506.96961829345673, -449.3302801763639, 0.8320000395178795, 0.5920000281184912, 0.2240000106394291, 0.0, 0.0, 0.0, 0.0, 0.0, 1.710394886017378E9, 0.0, 2024-03-13 22:41:26.017
19.0, -808.8206836171448, -410.9084179815836, -515.7733427891508, -465.42306968569756, 0.8320000395178795, 0.5920000281184912, 0.2240000106394291, 0.0, 0.0, 0.0, 0.0, 0.0, 1.7103948860180454E9, 0.0, 2024-03-13 22:41:26.018
19.0, -791.5386059219018, -404.59546685637906, -519.2290103482082, -459.5551666552201, 0.8320000395178795, 0.5920000281184912, 0.2240000106394291, 0.0, 0.0, 0.0, 0.0, 0.0, 1.7103948860180454E9, 0.0, 2024-03-13 22:41:26.018
20.0, -780.2441080557182, -394.2808227785863, -518.5670480560511, -452.7410689359531, 0.8320000395178795, 0.5920000281184912, 0.2240000106394291, 0.0, 0.0, 0.0, 0.0, 0.0, 1.7103948860316985E9, 0.0, 2024-03-13 22:41:26.031
20.0, -790.8691638298333, -400.12254650937393, -518.7054243544117, -456.7278022887185, 0.8320000395178795, 0.5920000281184912, 0.2240000106394291, 0.0, 0.0, 0.0, 0.0, 0.0, 1.7103948860316985E9, 0.0, 2024-03-13 22:41:26.031
21.0, -779.3166128667071, -392.2014384032227, -513.6939584137872, -452.9205841338262, 0.8320000395178795, 0.5920000281184912, 0.2240000106394291, 0.0, 0.0, 0.0, 0.0, 0.0, 1.7103948860475264E9, 0.0, 2024-03-13 22:41:26.047
21.0, -760.3889791909605, -370.6035161591135, -500.2415382731706, -432.26885657850653, 0.8320000395178795, 0.5920000281184912, 0.2240000106394291, 0.0, 0.0, 0.0, 0.0, 0.0, 1.7103948860475264E9, 0.0, 2024-03-13 22:41:26.047
22.0, -774.0059549296275, -384.841315290425, -496.14260792173445, -442.5535814566538, 0.8320000395178795, 0.5920000281184912, 0.2240000106394291, 0.0, 0.0, 0.0, 0.0, 0.0, 1.710394886048243E9, 0.0, 2024-03-13 22:41:26.048
22.0, -773.4973285356537, -369.7433391693048, -500.6791065679863, -447.9839161923155, 0.8320000395178795, 0.5920000281184912, 0.2240000106394291, 0.0, 0.0, 0.0, 0.0, 0.0, 1.710394886048243E9, 0.0, 2024-03-13 22:41:26.048
23.0, -762.7264166632667, -364.4925196315162, -502.6014151452109, -433.62644026242197, 0.8320000395178795, 0.5920000281184912, 0.2240000106394291, 0.0, 0.0, 0.0, 0.0, 0.0, 1.7103948860621123E9, 0.0, 2024-03-13 22:41:26.062
23.0, -765.8754124259576, -371.4599532489665, -505.3128426130861, -438.12180000916123, 0.8320000395178795, 0.5920000281184912, 0.2240000106394291, 0.0, 0.0, 0.0, 0.0, 0.0, 1.7103948860621123E9, 0.0, 2024-03-13 22:41:26.062
24.0, -777.2521880911663, -380.0804226468317, -498.0162977995351, -441.37925287056714, 0.8320000395178795, 0.5920000281184912, 0.2240000106394291, 0.0, 0.0, 0.0, 0.0, 0.0, 1.710394886077521E9, 0.0, 2024-03-13 22:41:26.077
24.0, -773.5945659345016, -371.3514961502515, -497.13742130994797, -437.34016091842204, 0.8320000395178795, 0.5920000281184912, 0.2240000106394291, 0.0, 0.0, 0.0, 0.0, 0.0, 1.710394886077521E9, 0.0, 2024-03-13 22:41:26.077
25.0, -755.3625536505133, -360.50204637879506, -483.14271567575634, -418.52098434139043, 0.8320000395178795, 0.5920000281184912, 0.2240000106394291, 0.0, 0.0, 0.0, 0.0, 0.0, 1.710394886078036E9, 0.0, 2024-03-13 22:41:26.078
25.0, -773.6656240336597, -379.21650575706735, -481.35130359698087, -425.5295568583533, 0.8320000395178795, 0.5920000281184912, 0.2240000106394291, 0.0, 0.0, 0.0, 0.0, 0.0, 1.710394886078036E9, 0.0, 2024-03-13 22:41:26.078
26.0, -783.9578287117183, -382.43655961891636, -494.5643701404333, -440.75094967801124, 0.8320000395178795, 0.5920000281184912, 0.2240000106394291, 0.0, 0.0, 0.0, 0.0, 0.0, 1.710394886091648E9, 0.0, 2024-03-13 22:41:26.091
26.0, -772.9064243426546, -385.40978008368984, -496.25480492040515, -434.18368535581976, 0.8320000395178795, 0.5920000281184912, 0.2240000106394291, 0.0, 0.0, 0.0, 0.0, 0.0, 1.710394886091648E9, 0.0, 2024-03-13 22:41:26.091
27.0, -777.2821072908118, -378.55080356495455, -495.798537125811, -434.9428850468248, 0.8320000395178795, 0.5920000281184912, 0.2240000106394291, 0.0, 0.0, 0.0, 0.0, 0.0, 1.710394886108096E9, 0.0, 2024-03-13 22:41:26.108
27.0, -783.0041542230174, -389.7218847326003, -494.55689034052193, -440.7995683774352, 0.8320000395178795, 0.5920000281184912, 0.2240000106394291, 0.0, 0.0, 0.0, 0.0, 0.0, 1.710394886108096E9, 0.0, 2024-03-13 22:41:26.108
28.0, -776.3246929021552, -382.66095361625776, -511.55473563913256, -441.67844486702234, 0.8320000395178795, 0.5920000281184912, 0.2240000106394291, 0.0, 0.0, 0.0, 0.0, 0.0, 1.71039488610911E9, 0.0, 2024-03-13 22:41:26.109
28.0, -784.7394678024575, -384.36260809609666, -501.9394528530538, -434.3519808538258, 0.8320000395178795, 0.5920000281184912, 0.2240000106394291, 0.0, 0.0, 0.0, 0.0, 0.0, 1.71039488610911E9, 0.0, 2024-03-13 22:41:26.109
29.0, -768.0669937999919, -380.981738536153, -499.0485101873055, -432.2800762783736, 0.8320000395178795, 0.5920000281184912, 0.2240000106394291, 0.0, 0.0, 0.0, 0.0, 0.0, 1.7103948861216328E9, 0.0, 2024-03-13 22:41:26.121
29.0, -776.7286020973697, -375.6823002989404, -508.1738660791889, -436.7679562252015, 0.8320000395178795, 0.5920000281184912, 0.2240000106394291, 0.0, 0.0, 0.0, 0.0, 0.0, 1.7103948861216328E9, 0.0, 2024-03-13 22:41:26.121
30.0, -762.2252700692043, -359.3725965921767, -502.81458944268525, -431.648033185862, 0.8320000395178795, 0.5920000281184912, 0.2240000106394291, 0.0, 0.0, 0.0, 0.0, 0.0, 1.7103948861373365E9, 0.0, 2024-03-13 22:41:26.137
30.0, -769.9631230775267, -371.91248114360496, -506.48343129921705, -442.8004148537293, 0.8320000395178795, 0.5920000281184912, 0.2240000106394291, 0.0, 0.0, 0.0, 0.0, 0.0, 1.7103948861373365E9, 0.0, 2024-03-13 22:41:26.137
31.0, -763.9082250492647, -372.7427389337681, -514.0642085094005, -449.3975983755663, 0.8320000395178795, 0.5920000281184912, 0.2240000106394291, 0.0, 0.0, 0.0, 0.0, 0.0, 1.7103948861380658E9, 0.0, 2024-03-13 22:41:26.138
31.0, -759.9551507961005, -367.83973009185866, -508.5366363748908, -436.7941355248913, 0.8320000395178795, 0.5920000281184912, 0.2240000106394291, 0.0, 0.0, 0.0, 0.0, 0.0, 1.7103948861380658E9, 0.0, 2024-03-13 22:41:26.138
32.0, -767.8425998026505, -369.0551975774579, -504.0637160278857, -440.657452179119, 0.8320000395178795, 0.5920000281184912, 0.2240000106394291, 0.0, 0.0, 0.0, 0.0, 0.0, 1.7103948861516953E9, 0.0, 2024-03-13 22:41:26.151
32.0, -768.9683096893132, -379.8672483493574, -499.48233858216554, -440.1712651848793, 0.8320000395178795, 0.5920000281184912, 0.2240000106394291, 0.0, 0.0, 0.0, 0.0, 0.0, 1.7103948861516953E9, 0.0, 2024-03-13 22:41:26.151
33.0, -757.1838849289343, -364.28682513395324, -495.9780523236841, -428.4541586237028, 0.8320000395178795, 0.5920000281184912, 0.2240000106394291, 0.0, 0.0, 0.0, 0.0, 0.0, 1.7103948861674564E9, 0.0, 2024-03-13 22:41:26.167
33.0, -760.8041080860421, -365.80522451596335, -489.2686718031764, -430.2829697020352, 0.8320000395178795, 0.5920000281184912, 0.2240000106394291, 0.0, 0.0, 0.0, 0.0, 0.0, 1.7103948861674564E9, 0.0, 2024-03-13 22:41:26.167
34.0, -769.802307379432, -372.36126913828775, -491.6883870745078, -437.9048858117312, 0.8320000395178795, 0.5920000281184912, 0.2240000106394291, 0.0, 0.0, 0.0, 0.0, 0.0, 1.7103948861684263E9, 0.0, 2024-03-13 22:41:26.168
34.0, -765.6996371280402, -375.240992104169, -491.47895267698914, -432.63910667411983, 0.8320000395178795, 0.5920000281184912, 0.2240000106394291, 0.0, 0.0, 0.0, 0.0, 0.0, 1.7103948861684263E9, 0.0, 2024-03-13 22:41:26.168
35.0, -768.0744735999033, -368.72982628131285, -497.73206540290266, -429.19091891497374, 0.8320000395178795, 0.5920000281184912, 0.2240000106394291, 0.0, 0.0, 0.0, 0.0, 0.0, 1.7103948861821597E9, 0.0, 2024-03-13 22:41:26.182
35.0, -776.4181904010475, -369.077636977192, -492.44384686555713, -431.9434852823615, 0.8320000395178795, 0.5920000281184912, 0.2240000106394291, 0.0, 0.0, 0.0, 0.0, 0.0, 1.7103948861821597E9, 0.0, 2024-03-13 22:41:26.182
36.0, -775.2102027153596, -389.6470867334865, -502.4929580464959, -439.643939291127, 0.8320000395178795, 0.5920000281184912, 0.2240000106394291, 0.0, 0.0, 0.0, 0.0, 0.0, 1.7103948862141213E9, 0.0, 2024-03-13 22:41:26.214
36.0, -768.2726882975549, -375.7533583980985, -502.95670564100146, -428.45041872374713, 0.8320000395178795, 0.5920000281184912, 0.2240000106394291, 0.0, 0.0, 0.0, 0.0, 0.0, 1.7103948862141213E9, 0.0, 2024-03-13 22:41:26.214
37.0, -773.3402527375147, -382.380461119581, -500.44723277073354, -439.3933659940958, 0.8320000395178795, 0.5920000281184912, 0.2240000106394291, 0.0, 0.0, 0.0, 0.0, 0.0, 1.710394886214482E9, 0.0, 2024-03-13 22:41:26.214
37.0, -778.0450468817726, -387.156313362997, -501.5617229575291, -442.6508188555017, 0.8320000395178795, 0.5920000281184912, 0.2240000106394291, 0.0, 0.0, 0.0, 0.0, 0.0, 1.710394886214482E9, 0.0, 2024-03-13 22:41:26.214
38.0, -764.7048237398267, -373.9320271196775, -509.75210386049, -439.52052259258926, 0.8320000395178795, 0.5920000281184912, 0.2240000106394291, 0.0, 0.0, 0.0, 0.0, 0.0, 1.7103948862152383E9, 0.0, 2024-03-13 22:41:26.215
38.0, -763.5491946535185, -372.8923349319957, -498.8315959898755, -435.9563979348168, 0.8320000395178795, 0.5920000281184912, 0.2240000106394291, 0.0, 0.0, 0.0, 0.0, 0.0, 1.7103948862152383E9, 0.0, 2024-03-13 22:41:26.215
39.0, -769.0094485888258, -378.43860656628385, -494.0445240465924, -433.89197315927595, 0.8320000395178795, 0.5920000281184912, 0.2240000106394291, 0.0, 0.0, 0.0, 0.0, 0.0, 1.710394886215979E9, 0.0, 2024-03-13 22:41:26.215
39.0, -761.5259087774903, -377.39891437860206, -497.6460477039218, -432.2426772788167, 0.8320000395178795, 0.5920000281184912, 0.2240000106394291, 0.0, 0.0, 0.0, 0.0, 0.0, 1.710394886215979E9, 0.0, 2024-03-13 22:41:26.215
40.0, -760.90134548489, -368.6101494827308, -502.2760438490659, -432.8747203713283, 0.8320000395178795, 0.5920000281184912, 0.2240000106394291, 0.0, 0.0, 0.0, 0.0, 0.0, 1.710394886226755E9, 0.0, 2024-03-13 22:41:26.226
40.0, -769.2413223860785, -375.33074970310554, -492.47002616524696, -430.85143449530005, 0.8320000395178795, 0.5920000281184912, 0.2240000106394291, 0.0, 0.0, 0.0, 0.0, 0.0, 1.710394886226755E9, 0.0, 2024-03-13 22:41:26.226
41.0, -763.4407375548035, -381.99525142414495, -487.488479424268, -432.2090181792155, 0.8320000395178795, 0.5920000281184912, 0.2240000106394291, 0.0, 0.0, 0.0, 0.0, 0.0, 1.7103948862416813E9, 0.0, 2024-03-13 22:41:26.241
41.0, -766.739329315722, -369.20853347564116, -497.1262016100809, -431.00103049352765, 0.8320000395178795, 0.5920000281184912, 0.2240000106394291, 0.0, 0.0, 0.0, 0.0, 0.0, 1.7103948862416813E9, 0.0, 2024-03-13 22:41:26.241
42.0, -777.8655316838995, -378.95845266012475, -492.4251473657787, -437.6243933150545, 0.8320000395178795, 0.5920000281184912, 0.2240000106394291, 0.0, 0.0, 0.0, 0.0, 0.0, 1.7103948862574227E9, 0.0, 2024-03-13 22:41:26.257
42.0, -781.3585982425138, -387.77713675564155, -496.1351281218231, -437.29902201890945, 0.8320000395178795, 0.5920000281184912, 0.2240000106394291, 0.0, 0.0, 0.0, 0.0, 0.0, 1.7103948862574227E9, 0.0, 2024-03-13 22:41:26.257
43.0, -770.8195601673797, -374.5266712126322, -492.02871797047555, -426.281276749447, 0.8320000395178795, 0.5920000281184912, 0.2240000106394291, 0.0, 0.0, 0.0, 0.0, 0.0, 1.7103948862581868E9, 0.0, 2024-03-13 22:41:26.258
43.0, -775.6664705099538, -388.2820232496597, -498.25565139669925, -435.90029943548143, 0.8320000395178795, 0.5920000281184912, 0.2240000106394291, 0.0, 0.0, 0.0, 0.0, 0.0, 1.7103948862581868E9, 0.0, 2024-03-13 22:41:26.258
44.0, -784.5749122044072, -393.47674428811297, -500.55194996949285, -444.9059785287827, 0.8320000395178795, 0.5920000281184912, 0.2240000106394291, 0.0, 0.0, 0.0, 0.0, 0.0, 1.710394886272108E9, 0.0, 2024-03-13 22:41:26.272
44.0, -774.1144120283425, -384.3513883962296, -498.7268787911162, -436.30420863069594, 0.8320000395178795, 0.5920000281184912, 0.2240000106394291, 0.0, 0.0, 0.0, 0.0, 0.0, 1.710394886272108E9, 0.0, 2024-03-13 22:41:26.272
45.0, -757.8196679214016, -373.70389322238043, -489.77729819715023, -426.40469344798476, 0.8320000395178795, 0.5920000281184912, 0.2240000106394291, 0.0, 0.0, 0.0, 0.0, 0.0, 1.7103948862873898E9, 0.0, 2024-03-13 22:41:26.287
45.0, -766.9263243135065, -389.11602093977854, -497.62734820414335, -438.3873329060152, 0.8320000395178795, 0.5920000281184912, 0.2240000106394291, 0.0, 0.0, 0.0, 0.0, 0.0, 1.7103948862873898E9, 0.0, 2024-03-13 22:41:26.287
46.0, -767.0871400116012, -377.2754976800643, -500.88480106554925, -438.33123440667987, 0.8320000395178795, 0.5920000281184912, 0.2240000106394291, 0.0, 0.0, 0.0, 0.0, 0.0, 1.7103948862881017E9, 0.0, 2024-03-13 22:41:26.288
46.0, -756.3536271387711, -371.32157695060596, -500.3387756720185, -424.95735216513276, 0.8320000395178795, 0.5920000281184912, 0.2240000106394291, 0.0, 0.0, 0.0, 0.0, 0.0, 1.7103948862881017E9, 0.0, 2024-03-13 22:41:26.288
47.0, -761.589487076737, -372.81005713297054, -496.9728657118976, -426.88714054226875, 0.8320000395178795, 0.5920000281184912, 0.2240000106394291, 0.0, 0.0, 0.0, 0.0, 0.0, 1.7103948863017411E9, 0.0, 2024-03-13 22:41:26.301
47.0, -766.3503797203302, -379.81488974997774, -501.8384755542502, -443.22676344867796, 0.8320000395178795, 0.5920000281184912, 0.2240000106394291, 0.0, 0.0, 0.0, 0.0, 0.0, 1.7103948863017411E9, 0.0, 2024-03-13 22:41:26.301
48.0, -766.6869707163423, -381.58386242901906, -511.15456634387374, -438.6940047023818, 0.8320000395178795, 0.5920000281184912, 0.2240000106394291, 0.0, 0.0, 0.0, 0.0, 0.0, 1.710394886317742E9, 0.0, 2024-03-13 22:41:26.317
48.0, -757.2362435283139, -371.47865274874493, -506.14684030320495, -434.7895491486415, 0.8320000395178795, 0.5920000281184912, 0.2240000106394291, 0.0, 0.0, 0.0, 0.0, 0.0, 1.710394886317742E9, 0.0, 2024-03-13 22:41:26.317
49.0, -768.1081326995045, -378.09827567031607, -512.9646779224277, -443.45863724593073, 0.8320000395178795, 0.5920000281184912, 0.2240000106394291, 0.0, 0.0, 0.0, 0.0, 0.0, 1.7103948863181975E9, 0.0, 2024-03-13 22:41:26.318
49.0, -772.5698333466426, -382.02891052374616, -514.7972289007157, -447.9988757921383, 0.8320000395178795, 0.5920000281184912, 0.2240000106394291, 0.0, 0.0, 0.0, 0.0, 0.0, 1.7103948863181975E9, 0.0, 2024-03-13 22:41:26.318
50.0, -771.1673708632588, -380.3048166441731, -512.4597914284095, -441.3231543712318, 0.8320000395178795, 0.5920000281184912, 0.2240000106394291, 0.0, 0.0, 0.0, 0.0, 0.0, 1.710394886331751E9, 0.0, 2024-03-13 22:41:26.331
50.0, -786.6729960795492, -394.7520501730032, -512.0334428334609, -452.1426849430427, 0.8320000395178795, 0.5920000281184912, 0.2240000106394291, 0.0, 0.0, 0.0, 0.0, 0.0, 1.710394886331751E9, 0.0, 2024-03-13 22:41:26.331
51.0, -794.3921495880932, -396.44248495297506, -518.5633081560954, -460.08623244892806, 0.8320000395178795, 0.5920000281184912, 0.2240000106394291, 0.0, 0.0, 0.0, 0.0, 0.0, 1.7103948863474128E9, 0.0, 2024-03-13 22:41:26.347
51.0, -778.3629383780062, -385.2040855861269, -505.989764505066, -441.92527826409787, 0.8320000395178795, 0.5920000281184912, 0.2240000106394291, 0.0, 0.0, 0.0, 0.0, 0.0, 1.7103948863474128E9, 0.0, 2024-03-13 22:41:26.347
52.0, -782.7236617263407, -389.5461094346829, -496.9392066122964, -442.1010535620153, 0.8320000395178795, 0.5920000281184912, 0.2240000106394291, 0.0, 0.0, 0.0, 0.0, 0.0, 1.7103948863480787E9, 0.0, 2024-03-13 22:41:26.348
52.0, -786.3476247834042, -391.4347589123063, -494.4559130417183, -446.9629235044122, 0.8320000395178795, 0.5920000281184912, 0.2240000106394291, 0.0, 0.0, 0.0, 0.0, 0.0, 1.7103948863480787E9, 0.0, 2024-03-13 22:41:26.348
53.0, -777.364385089837, -384.2691105972044, -502.73231164366007, -443.3314806474373, 0.8320000395178795, 0.5920000281184912, 0.2240000106394291, 0.0, 0.0, 0.0, 0.0, 0.0, 1.710394886362024E9, 0.0, 2024-03-13 22:41:26.362
53.0, -772.3454393493012, -373.0082718306221, -498.4538660943508, -441.465270569548, 0.8320000395178795, 0.5920000281184912, 0.2240000106394291, 0.0, 0.0, 0.0, 0.0, 0.0, 1.710394886362024E9, 0.0, 2024-03-13 22:41:26.362
54.0, -774.952149618417, -377.10720218205824, -488.4571135127917, -442.19455106090754, 0.8320000395178795, 0.5920000281184912, 0.2240000106394291, 0.0, 0.0, 0.0, 0.0, 0.0, 1.71039488637773E9, 0.0, 2024-03-13 22:41:26.377
54.0, -776.1601373041049, -382.9339663130231, -503.6822462324053, -443.6568519435823, 0.8320000395178795, 0.5920000281184912, 0.2240000106394291, 0.0, 0.0, 0.0, 0.0, 0.0, 1.71039488637773E9, 0.0, 2024-03-13 22:41:26.377
55.0, -768.8448929907754, -375.58506290009245, -497.84052250161767, -429.3105957135558, 0.8320000395178795, 0.5920000281184912, 0.2240000106394291, 0.0, 0.0, 0.0, 0.0, 0.0, 1.7103948863781736E9, 0.0, 2024-03-13 22:41:26.378
55.0, -783.9653085116297, -384.29154999693856, -502.1937660500407, -437.29902201890945, 0.8320000395178795, 0.5920000281184912, 0.2240000106394291, 0.0, 0.0, 0.0, 0.0, 0.0, 1.7103948863781736E9, 0.0, 2024-03-13 22:41:26.378
56.0, -771.6460780575871, -378.0085180713795, -502.1189680509269, -434.30336215440184, 0.8320000395178795, 0.5920000281184912, 0.2240000106394291, 0.0, 0.0, 0.0, 0.0, 0.0, 1.71039488639199E9, 0.0, 2024-03-13 22:41:26.391
56.0, -752.4678710848093, -357.5512653137557, -498.32670949585736, -426.0568827521056, 0.8320000395178795, 0.5920000281184912, 0.2240000106394291, 0.0, 0.0, 0.0, 0.0, 0.0, 1.71039488639199E9, 0.0, 2024-03-13 22:41:26.391
57.0, -761.2528960807249, -369.8966750674881, -492.48124586511403, -427.77723673172295, 0.8320000395178795, 0.5920000281184912, 0.2240000106394291, 0.0, 0.0, 0.0, 0.0, 0.0, 1.7103948864073577E9, 0.0, 2024-03-13 22:41:26.407
57.0, -775.4944351119921, -376.688333387021, -498.3940276950598, -438.1778985084966, 0.8320000395178795, 0.5920000281184912, 0.2240000106394291, 0.0, 0.0, 0.0, 0.0, 0.0, 1.7103948864073577E9, 0.0, 2024-03-13 22:41:26.407
58.0, -777.4504027888179, -384.3401686963625, -509.269656766206, -446.9442240046337, 0.8320000395178795, 0.5920000281184912, 0.2240000106394291, 0.0, 0.0, 0.0, 0.0, 0.0, 1.710394886408071E9, 0.0, 2024-03-13 22:41:26.408
58.0, -777.9403296830133, -392.029403005261, -502.7136121438816, -445.2201301250607, 0.8320000395178795, 0.5920000281184912, 0.2240000106394291, 0.0, 0.0, 0.0, 0.0, 0.0, 1.710394886408071E9, 0.0, 2024-03-13 22:41:26.408
59.0, -793.838644394651, -399.89815251203254, -505.398860312067, -456.914797286503, 0.8320000395178795, 0.5920000281184912, 0.2240000106394291, 0.0, 0.0, 0.0, 0.0, 0.0, 1.7103948864217064E9, 0.0, 2024-03-13 22:41:26.421
59.0, -788.3933500591666, -389.4189528361894, -505.6905725086108, -444.8124810298905, 0.8320000395178795, 0.5920000281184912, 0.2240000106394291, 0.0, 0.0, 0.0, 0.0, 0.0, 1.7103948864217064E9, 0.0, 2024-03-13 22:41:26.421
60.0, -787.604231168516, -399.67749841464683, -510.0924347564578, -449.15824477840215, 0.8320000395178795, 0.5920000281184912, 0.2240000106394291, 0.0, 0.0, 0.0, 0.0, 0.0, 1.71039488643735E9, 0.0, 2024-03-13 22:41:26.437
60.0, -800.3423304175958, -407.9202379169874, -505.8364286068827, -454.1136122196913, 0.8320000395178795, 0.5920000281184912, 0.2240000106394291, 0.0, 0.0, 0.0, 0.0, 0.0, 1.71039488643735E9, 0.0, 2024-03-13 22:41:26.437
61.0, -791.2730730250478, -389.1608997392468, -510.89651324693114, -456.6717037893832, 0.8320000395178795, 0.5920000281184912, 0.2240000106394291, 0.0, 0.0, 0.0, 0.0, 0.0, 1.7103948864381566E9, 0.0, 2024-03-13 22:41:26.438
61.0, -771.0028152652085, -383.10226181102917, -504.44892572332174, -439.9842701870948, 0.8320000395178795, 0.5920000281184912, 0.2240000106394291, 0.0, 0.0, 0.0, 0.0, 0.0, 1.7103948864381566E9, 0.0, 2024-03-13 22:41:26.438
62.0, -771.4329037601128, -385.54815638205037, -495.25625163223594, -437.14942602068186, 0.8320000395178795, 0.5920000281184912, 0.2240000106394291, 0.0, 0.0, 0.0, 0.0, 0.0, 1.7103948864517105E9, 0.0, 2024-03-13 22:41:26.451
62.0, -777.4354431889951, -387.904293354135, -502.0890488512814, -450.7290027597919, 0.8320000395178795, 0.5920000281184912, 0.2240000106394291, 0.0, 0.0, 0.0, 0.0, 0.0, 1.7103948864517105E9, 0.0, 2024-03-13 22:41:26.451
63.0, -764.3644928438589, -376.4975984892808, -502.5789757454768, -443.22302354872227, 0.8320000395178795, 0.5920000281184912, 0.2240000106394291, 0.0, 0.0, 0.0, 0.0, 0.0, 1.7103948864677076E9, 0.0, 2024-03-13 22:41:26.467
63.0, -770.8494793670252, -379.40724065480754, -497.4291335064918, -439.41206549387425, 0.8320000395178795, 0.5920000281184912, 0.2240000106394291, 0.0, 0.0, 0.0, 0.0, 0.0, 1.7103948864677076E9, 0.0, 2024-03-13 22:41:26.467
64.0, -770.5914262700826, -386.37093437230214, -490.7608918854967, -438.0544818099588, 0.8320000395178795, 0.5920000281184912, 0.2240000106394291, 0.0, 0.0, 0.0, 0.0, 0.0, 1.7103948864825592E9, 0.0, 2024-03-13 22:41:26.482
64.0, -768.7476555919275, -374.1639009169303, -492.88889496028423, -430.7878561960533, 0.8320000395178795, 0.5920000281184912, 0.2240000106394291, 0.0, 0.0, 0.0, 0.0, 0.0, 1.7103948864825592E9, 0.0, 2024-03-13 22:41:26.482
65.0, -762.397305467166, -372.611842435319, -496.7110727149993, -433.6152205625549, 0.8320000395178795, 0.5920000281184912, 0.2240000106394291, 0.0, 0.0, 0.0, 0.0, 0.0, 1.7103948864831808E9, 0.0, 2024-03-13 22:41:26.483
65.0, -766.1708645224571, -372.70160003425553, -488.0419846177101, -433.9892105581239, 0.8320000395178795, 0.5920000281184912, 0.2240000106394291, 0.0, 0.0, 0.0, 0.0, 0.0, 1.7103948864831808E9, 0.0, 2024-03-13 22:41:26.483
66.0, -780.0047544585541, -373.8609690205194, -489.0143586061895, -435.9115191353485, 0.8320000395178795, 0.5920000281184912, 0.2240000106394291, 0.0, 0.0, 0.0, 0.0, 0.0, 1.7103948864973872E9, 0.0, 2024-03-13 22:41:26.497
66.0, -772.4164974484593, -370.95132685499266, -507.18279259093106, -441.18851797282696, 0.8320000395178795, 0.5920000281184912, 0.2240000106394291, 0.0, 0.0, 0.0, 0.0, 0.0, 1.7103948864973872E9, 0.0, 2024-03-13 22:41:26.497
67.0, -771.2720880620182, -371.17198095237836, -498.29679029621184, -435.7993221366778, 0.8320000395178795, 0.5920000281184912, 0.2240000106394291, 0.0, 0.0, 0.0, 0.0, 0.0, 1.710394886498106E9, 0.0, 2024-03-13 22:41:26.498
67.0, -786.2466474846005, -389.2768366378732, -514.0118499100208, -454.52500121481717, 0.8320000395178795, 0.5920000281184912, 0.2240000106394291, 0.0, 0.0, 0.0, 0.0, 0.0, 1.710394886498106E9, 0.0, 2024-03-13 22:41:26.498
68.0, -774.9708491181955, -375.10635570576414, -505.03982991632074, -439.4719038931653, 0.8320000395178795, 0.5920000281184912, 0.2240000106394291, 0.0, 0.0, 0.0, 0.0, 0.0, 1.710394886512021E9, 0.0, 2024-03-13 22:41:26.512
68.0, -780.2852469552308, -391.606794310268, -506.74148439615965, -447.93903739284724, 0.8320000395178795, 0.5920000281184912, 0.2240000106394291, 0.0, 0.0, 0.0, 0.0, 0.0, 1.710394886512021E9, 0.0, 2024-03-13 22:41:26.512
