%OpenBCI Raw EXG Data
%Number of channels = 4
%Sample Rate = 200 Hz
%Board = OpenBCI_GUI$BoardGanglionBLE
Sample Index, EXG Channel 0, EXG Channel 1, EXG Channel 2, EXG Channel 3, Accel Channel 0, Accel Channel 1, Accel Channel 2, Other, Other, Other, Other, Other, Timestamp, Other, Timestamp (Formatted)
2.0, -180.97936870576814, -159.7292571575381, -177.4376834477298, -220.89532093284652, 0.01600000075995922, 0.0, 0.0, 0.0, 0.0, 0.0, 0.0, 0.0, 1.7103877274923918E9, 0.0, 2024-03-13 20:42:07.492
2.0, -109.86330109834671, -212.2337126354687, -118.8727200916037, -216.547687234357, 0.01600000075995922, 0.0, 0.0, 0.0, 0.0, 0.0, 0.0, 0.0, 1.7103877274923918E9, 0.0, 2024-03-13 20:42:07.492
3.0, -222.65681381197646, -151.11626755958423, -232.91535939043388, -194.84504779148847, 0.01600000075995922, 0.0, 0.0, 0.0, 0.0, 0.0, 0.0, 0.0, 1.7103877274930196E9, 0.0, 2024-03-13 20:42:07.493
3.0, -371.5235315482132, -25.932466292753816, -340.60577861452475, -96.97747580101714, 0.01600000075995922, 0.0, 0.0, 0.0, 0.0, 0.0, 0.0, 0.0, 1.7103877274930196E9, 0.0, 2024-03-13 20:42:07.493
4.0, -180.54367036093026, 130.13542880816385, -157.67418213188648, 116.71479781717062, 0.01600000075995922, 0.0, 0.0, 0.0, 0.0, 0.0, 0.0, 0.0, 1.7103877274936974E9, 0.0, 2024-03-13 20:42:07.493
4.0, -307.1336740111001, 215.55100389616564, -349.7722734059207, 201.1280797170475, 0.01600000075995922, 0.0, 0.0, 0.0, 0.0, 0.0, 0.0, 0.0, 1.7103877274936974E9, 0.0, 2024-03-13 20:42:07.493
5.0, -236.18029205175117, 190.38521709432825, -220.28571724006906, 119.8002152806148, 0.01600000075995922, 0.0, 0.0, 0.0, 0.0, 0.0, 0.0, 0.0, 1.7103877275047083E9, 0.0, 2024-03-13 20:42:07.504
5.0, -122.5752210477367, 136.47081933310255, -97.7497651418671, 99.22702562436461, 0.01600000075995922, 0.0, 0.0, 0.0, 0.0, 0.0, 0.0, 0.0, 1.7103877275047083E9, 0.0, 2024-03-13 20:42:07.504
6.0, 11.391735265031457, 13.803970736451447, 2.9582608649507165, 13.293474392499775, 0.01600000075995922, 0.0, 0.0, 0.0, 0.0, 0.0, 0.0, 0.0, 1.710387727520828E9, 0.0, 2024-03-13 20:42:07.520
6.0, -185.50464765215293, -156.18009209958836, -175.96790276514366, -210.6573448041454, 0.01600000075995922, 0.0, 0.0, 0.0, 0.0, 0.0, 0.0, 0.0, 1.710387727520828E9, 0.0, 2024-03-13 20:42:07.520
7.0, -7.980946505442262, -225.10270838299766, 22.719892230816185, -275.14443974010646, 0.01600000075995922, 0.0, 0.0, 0.0, 0.0, 0.0, 0.0, 0.0, 1.7103877275212748E9, 0.0, 2024-03-13 20:42:07.521
7.0, -114.02954964898527, -205.71880691265687, -110.76461698766798, -200.53343562409282, 0.01600000075995922, 0.0, 0.0, 0.0, 0.0, 0.0, 0.0, 0.0, 1.7103877275212748E9, 0.0, 2024-03-13 20:42:07.521
8.0, -218.36714856280014, -137.28985742339864, -224.48936479026452, -175.9735126150772, 0.01600000075995922, 0.0, 0.0, 0.0, 0.0, 0.0, 0.0, 0.0, 1.7103877275346904E9, 0.0, 2024-03-13 20:42:07.534
8.0, -356.3021387285553, -15.344809518195689, -328.74281595507637, -83.70083095831797, 0.01600000075995922, 0.0, 0.0, 0.0, 0.0, 0.0, 0.0, 0.0, 1.7103877275346904E9, 0.0, 2024-03-13 20:42:07.534
9.0, -166.58262382633984, 134.57469005556777, -154.04647917486727, 121.49065006058663, 0.01600000075995922, 0.0, 0.0, 0.0, 0.0, 0.0, 0.0, 0.0, 1.710387727550414E9, 0.0, 2024-03-13 20:42:07.550
9.0, -324.3596532070078, 230.0505960243754, -348.08931842586026, 211.82045369036496, 0.01600000075995922, 0.0, 0.0, 0.0, 0.0, 0.0, 0.0, 0.0, 1.710387727550414E9, 0.0, 2024-03-13 20:42:07.550
10.0, -229.47091153124347, 192.80493236565962, -220.7494648345746, 126.48341650143266, 0.01600000075995922, 0.0, 1.0400000493973494, 0.0, 0.0, 0.0, 0.0, 0.0, 1.7103877275510082E9, 0.0, 2024-03-13 20:42:07.551
10.0, -123.84304713271558, 138.4941052091308, -100.63696790765971, 100.790303805843, 0.01600000075995922, 0.0, 1.0400000493973494, 0.0, 0.0, 0.0, 0.0, 0.0, 1.7103877275510082E9, 0.0, 2024-03-13 20:42:07.551
11.0, -15.011958422139287, 7.995906105265021, -8.381115800701082, 0.966764138545841, 0.01600000075995922, -0.19200000911951065, 1.0400000493973494, 0.0, 0.0, 0.0, 0.0, 0.0, 1.710387727564672E9, 0.0, 2024-03-13 20:42:07.564
11.0, -196.50743332179263, -152.33921484509483, -184.91000355919823, -217.0675333281979, 0.01600000075995922, -0.19200000911951065, 1.0400000493973494, 0.0, 0.0, 0.0, 0.0, 0.0, 1.710387727564672E9, 0.0, 2024-03-13 20:42:07.564
12.0, 8.751365896314383, -227.2007922581397, 14.50333202816546, -289.82354706618935, 0.01600000075995922, -0.19200000911951065, 1.0400000493973494, 0.0, 0.0, 0.0, 0.0, 0.0, 1.7103877275804336E9, 0.0, 2024-03-13 20:42:07.580
12.0, -114.10434764809906, -213.8269100165926, -119.87875317968428, -215.7323890440166, 0.01600000075995922, -0.19200000911951065, 1.0400000493973494, 0.0, 0.0, 0.0, 0.0, 0.0, 1.7103877275804336E9, 0.0, 2024-03-13 20:42:07.580
13.0, -221.50492462562397, -138.2285723122768, -220.2670177402906, -177.72378579434007, 0.01600000075995922, -0.19200000911951065, 1.0400000493973494, 0.0, 0.0, 0.0, 0.0, 0.0, 1.7103877275810344E9, 0.0, 2024-03-13 20:42:07.581
13.0, -370.5623772596009, -28.96178525686264, -331.82449351856485, -93.951896736864, 0.01600000075995922, -0.19200000911951065, 1.0400000493973494, 0.0, 0.0, 0.0, 0.0, 0.0, 1.7103877275810344E9, 0.0, 2024-03-13 20:42:07.581
14.0, -177.33483619894832, 128.9648401220329, -155.68455535545945, 119.30280858650804, 0.01600000075995922, -0.19200000911951065, 1.0400000493973494, 0.0, 0.0, 0.0, 0.0, 0.0, 1.710387727594646E9, 0.0, 2024-03-13 20:42:07.594
14.0, -331.34578632423654, 225.81702927453443, -333.5747666978277, 212.05606738757342, 0.01600000075995922, -0.19200000911951065, 1.0400000493973494, 0.0, 0.0, 0.0, 0.0, 0.0, 1.710387727594646E9, 0.0, 2024-03-13 20:42:07.594
15.0, -243.286101967562, 181.8507653954439, -221.13841442996636, 113.19929185882211, 0.01600000075995922, -0.19200000911951065, 1.0400000493973494, 0.0, 0.0, 0.0, 0.0, 0.0, 1.7103877276104152E9, 0.0, 2024-03-13 20:42:07.610
15.0, -127.94197748415172, 122.17692170245573, -104.13751426618546, 85.83444388303906, 0.01600000075995922, -0.19200000911951065, 1.0400000493973494, 0.0, 0.0, 0.0, 0.0, 0.0, 1.7103877276104152E9, 0.0, 2024-03-13 20:42:07.610
16.0, -2.655328968539834, -4.087710651569068, -6.7804386196658015, -0.5890342430211604, 0.01600000075995922, -0.19200000911951065, 1.0400000493973494, 0.0, 0.0, 0.0, 0.0, 0.0, 1.710387727610994E9, 0.0, 2024-03-13 20:42:07.610
16.0, -209.0847168727778, -175.85570576647297, -186.15913014439866, -230.79296616557986, 0.01600000075995922, -0.19200000911951065, 1.0400000493973494, 0.0, 0.0, 0.0, 0.0, 0.0, 1.710387727610994E9, 0.0, 2024-03-13 20:42:07.610
17.0, -30.54376293811947, -246.68193112732843, 12.188333955593407, -302.61026501469314, 0.01600000075995922, -0.19200000911951065, 1.0400000493973494, 0.0, 0.0, 0.0, 0.0, 0.0, 1.7103877276248755E9, 0.0, 2024-03-13 20:42:07.624
17.0, -136.3941513840109, -228.26292384555563, -124.99119641911238, -226.16670992039144, 0.01600000075995922, -0.19200000911951065, 1.0400000493973494, 0.0, 0.0, 0.0, 0.0, 0.0, 1.7103877276248755E9, 0.0, 2024-03-13 20:42:07.624
18.0, -227.7168984520249, -153.9024930265732, -226.95769876101986, -187.47370497882366, 0.01600000075995922, -0.19200000911951065, 1.0400000493973494, 0.0, 0.0, 0.0, 0.0, 0.0, 1.7103877276407287E9, 0.0, 2024-03-13 20:42:07.640
18.0, -356.6237701247446, -33.33372830506414, -340.9124504108913, -101.04274705285206, 0.01600000075995922, -0.19200000911951065, 1.0400000493973494, 0.0, 0.0, 0.0, 0.0, 0.0, 1.7103877276407287E9, 0.0, 2024-03-13 20:42:07.640
19.0, -166.45920712780207, 123.68784128455445, -157.32263153605163, 113.59572125412524, 0.01600000075995922, -0.19200000911951065, 1.0400000493973494, 0.0, 0.0, 0.0, 0.0, 0.0, 1.7103877276411552E9, 0.0, 2024-03-13 20:42:07.641
19.0, -324.610226504039, 223.28885690448806, -345.2170752598904, 204.4640704775229, 0.01600000075995922, -0.19200000911951065, 1.0400000493973494, 0.0, 0.0, 0.0, 0.0, 0.0, 1.7103877276411552E9, 0.0, 2024-03-13 20:42:07.641
20.0, -232.51519009517506, 187.46061532897875, -222.3090031160973, 116.02291632536799, 0.01600000075995922, -0.19200000911951065, 1.0400000493973494, 0.0, 0.0, 0.0, 0.0, 0.0, 1.7103877276547546E9, 0.0, 2024-03-13 20:42:07.654
20.0, -121.7262637577951, 133.20588667178527, -97.66374744288623, 95.76387826539576, 0.01600000075995922, -0.19200000911951065, 1.0400000493973494, 0.0, 0.0, 0.0, 0.0, 0.0, 1.7103877276547546E9, 0.0, 2024-03-13 20:42:07.654
21.0, 4.644955744966865, 11.758245460689068, 4.0839707516133785, 12.036868007387966, 0.01600000075995922, -0.19200000911951065, 1.0400000493973494, 0.0, 0.0, 0.0, 0.0, 0.0, 1.7103877276706636E9, 0.0, 2024-03-13 20:42:07.670
21.0, -186.42092314129695, -153.1245938357897, -171.63709861645475, -213.0321812760085, 0.01600000075995922, -0.19200000911951065, 1.0400000493973494, 0.0, 0.0, 0.0, 0.0, 0.0, 1.7103877276706636E9, 0.0, 2024-03-13 20:42:07.670
22.0, -10.800831072032452, -235.9110192549415, 13.912427835166454, -291.5065020462498, 0.01600000075995922, -0.19200000911951065, 1.0400000493973494, 0.0, 0.0, 0.0, 0.0, 0.0, 1.7103877276709986E9, 0.0, 2024-03-13 20:42:07.670
22.0, -126.38617910258472, -217.72014587046579, -124.8378605209291, -219.26659450214356, 0.01600000075995922, -0.19200000911951065, 1.0400000493973494, 0.0, 0.0, 0.0, 0.0, 0.0, 1.7103877276709986E9, 0.0, 2024-03-13 20:42:07.670
23.0, -232.04022280080244, -146.73310481151566, -225.06904928339645, -182.11442834232002, 0.01600000075995922, -0.19200000911951065, 1.0400000493973494, 0.0, 0.0, 0.0, 0.0, 0.0, 1.7103877276846728E9, 0.0, 2024-03-13 20:42:07.684
23.0, -373.51689822459593, -35.4243323802948, -340.27666741842404, -102.57236613472924, 0.01600000075995922, -0.19200000911951065, 1.0400000493973494, 0.0, 0.0, 0.0, 0.0, 0.0, 1.7103877276846728E9, 0.0, 2024-03-13 20:42:07.684
24.0, -163.28029216546565, 125.69242766080424, -158.82607131823897, 112.1259405715391, 0.01600000075995922, -0.19200000911951065, 1.0400000493973494, 0.0, 0.0, 0.0, 0.0, 0.0, 1.71038772770043E9, 0.0, 2024-03-13 20:42:07.700
24.0, -320.0662480578758, 223.66284690005705, -340.7366751129739, 210.81068070232868, 0.01600000075995922, -0.19200000911951065, 1.0400000493973494, 0.0, 0.0, 0.0, 0.0, 0.0, 1.71038772770043E9, 0.0, 2024-03-13 20:42:07.700
25.0, -233.22203118680045, 179.61056532198563, -221.14589422987774, 116.50910331960768, 0.01600000075995922, -0.19200000911951065, 1.0400000493973494, 0.0, 0.0, 0.0, 0.0, 0.0, 1.7103877277010207E9, 0.0, 2024-03-13 20:42:07.701
25.0, -115.03558273706585, 124.07305097999051, -106.43007293902338, 88.25041925441474, 0.01600000075995922, -0.19200000911951065, 1.0400000493973494, 0.0, 0.0, 0.0, 0.0, 0.0, 1.7103877277010207E9, 0.0, 2024-03-13 20:42:07.701
26.0, 24.219592113047838, 8.235259702429175, -2.1878414740785956, 6.849626768846065, 0.01600000075995922, -0.19200000911951065, 1.0400000493973494, 0.0, 0.0, 0.0, 0.0, 0.0, 1.7103877277146492E9, 0.0, 2024-03-13 20:42:07.714
26.0, -173.74266229150817, -157.40677928505465, -176.39051146013662, -211.49882229417562, 0.01600000075995922, -0.19200000911951065, 1.0400000493973494, 0.0, 0.0, 0.0, 0.0, 0.0, 1.7103877277146492E9, 0.0, 2024-03-13 20:42:07.714
27.0, -5.0900038396939635, -234.84514776756987, 14.312597130425274, -292.71074983198196, 0.01600000075995922, -0.19200000911951065, 1.0400000493973494, 0.0, 0.0, 0.0, 0.0, 0.0, 1.7103877277304287E9, 0.0, 2024-03-13 20:42:07.730
27.0, -109.6052480014041, -219.900507544633, -124.89769892022014, -222.05281996913254, 0.01600000075995922, -0.19200000911951065, 1.0400000493973494, 0.0, 0.0, 0.0, 0.0, 0.0, 1.7103877277304287E9, 0.0, 2024-03-13 20:42:07.730
28.0, -205.0381451207213, -136.28382433531806, -223.46837210236117, -182.81378963403404, 0.01600000075995922, -0.19200000911951065, 1.0400000493973494, 0.0, 0.0, 0.0, 0.0, 0.0, 1.7103877277310264E9, 0.0, 2024-03-13 20:42:07.731
28.0, -351.589864784386, -18.018837986513972, -332.9576832051389, -90.60094637656584, 0.01600000075995922, -0.19200000911951065, 1.0400000493973494, 0.0, 0.0, 0.0, 0.0, 0.0, 1.7103877277310264E9, 0.0, 2024-03-13 20:42:07.731
29.0, -180.4950516615063, 133.57239686744288, -154.6635626675561, 122.82205444481224, 0.01600000075995922, -0.19200000911951065, 1.0400000493973494, 0.0, 0.0, 0.0, 0.0, 0.0, 1.710387727745089E9, 0.0, 2024-03-13 20:42:07.745
29.0, -322.9534508236684, 235.21913776313886, -335.923423870001, 217.23582882620394, 0.01600000075995922, -0.19200000911951065, 1.0400000493973494, 0.0, 0.0, 0.0, 0.0, 0.0, 1.710387727745089E9, 0.0, 2024-03-13 20:42:07.745
30.0, -240.84394729649648, 186.34986504213884, -219.70977264689282, 119.91241227928549, 0.01600000075995922, -0.19200000911951065, 1.0400000493973494, 0.0, 0.0, 0.0, 0.0, 0.0, 1.7103877277604337E9, 0.0, 2024-03-13 20:42:07.760
30.0, -135.71348959207535, 112.60651771584526, -110.91047308593988, 84.12530960328877, 0.01600000075995922, -0.19200000911951065, 1.0400000493973494, 0.0, 0.0, 0.0, 0.0, 0.0, 1.7103877277604337E9, 0.0, 2024-03-13 20:42:07.760
31.0, 6.268072325736284, 5.793105031363666, -1.7988918786868453, 3.4425779092125595, 0.01600000075995922, -0.19200000911951065, 1.0400000493973494, 0.0, 0.0, 0.0, 0.0, 0.0, 1.710387727760975E9, 0.0, 2024-03-13 20:42:07.760
31.0, -184.79032676061615, -162.36588662629947, -178.15574423922226, -223.9601689465344, 0.01600000075995922, -0.19200000911951065, 1.0400000493973494, 0.0, 0.0, 0.0, 0.0, 0.0, 1.710387727760975E9, 0.0, 2024-03-13 20:42:07.760
32.0, -9.181454391218722, -240.30914160283282, 13.71795303747058, -297.78579407185316, 0.01600000075995922, -0.19200000911951065, 1.0400000493973494, 0.0, 0.0, 0.0, 0.0, 0.0, 1.7103877277747931E9, 0.0, 2024-03-13 20:42:07.774
32.0, -116.8344746157527, -214.8217234048061, -116.43430532049388, -215.6949900444597, 0.01600000075995922, -0.19200000911951065, 1.0400000493973494, 0.0, 0.0, 0.0, 0.0, 0.0, 1.7103877277747931E9, 0.0, 2024-03-13 20:42:07.774
33.0, -209.16699467180297, -141.7515580705367, -218.52048446098343, -177.5293109966442, 0.01600000075995922, -0.19200000911951065, 1.0400000493973494, 0.0, 0.0, 0.0, 0.0, 0.0, 1.710387727790759E9, 0.0, 2024-03-13 20:42:07.790
33.0, -361.58287746598944, -35.30091568175703, -339.07989943260327, -100.59769895812497, 0.01600000075995922, -0.19200000911951065, 1.0400000493973494, 0.0, 0.0, 0.0, 0.0, 0.0, 1.710387727790759E9, 0.0, 2024-03-13 20:42:07.790
34.0, -167.91028831060976, 131.3434164938517, -146.57415906339884, 128.12149268202484, 0.01600000075995922, -0.19200000911951065, 1.0400000493973494, 0.0, 0.0, 0.0, 0.0, 0.0, 1.710387727791011E9, 0.0, 2024-03-13 20:42:07.791
34.0, -323.56679441640154, 231.5016772071831, -331.8805920179002, 220.45588268805295, 0.01600000075995922, -0.19200000911951065, 1.0400000493973494, 0.0, 0.0, 0.0, 0.0, 0.0, 1.710387727791011E9, 0.0, 2024-03-13 20:42:07.791
35.0, -240.29418200301006, 189.88033060031012, -216.0521504902281, 123.14368584100157, 0.01600000075995922, -0.19200000911951065, 1.0400000493973494, 0.0, 0.0, 0.0, 0.0, 0.0, 1.7103877278047783E9, 0.0, 2024-03-13 20:42:07.804
35.0, -138.56329335831106, 127.85034993523732, -96.07055006176233, 97.94050003960729, 0.01600000075995922, -0.19200000911951065, 1.0400000493973494, 0.0, 0.0, 0.0, 0.0, 0.0, 1.7103877278047783E9, 0.0, 2024-03-13 20:42:07.804
36.0, 16.814590200781822, 14.615529026836157, 5.037645240314305, 13.817060386296362, 0.01600000075995922, -0.19200000911951065, 1.0400000493973494, 0.0, 0.0, 0.0, 0.0, 0.0, 1.7103877278204296E9, 0.0, 2024-03-13 20:42:07.820
36.0, -165.4999227891676, -161.77872233325616, -178.83640603115782, -214.2476487616077, 0.01600000075995922, -0.19200000911951065, 1.0400000493973494, 0.0, 0.0, 0.0, 0.0, 0.0, 1.7103877278204296E9, 0.0, 2024-03-13 20:42:07.820
37.0, -20.18050016090274, -244.60628665192053, 14.768864925019443, -298.2869406659156, 0.01600000075995922, -0.19200000911951065, 1.0400000493973494, 0.0, 0.0, 0.0, 0.0, 0.0, 1.7103877278214931E9, 0.0, 2024-03-13 20:42:07.821
37.0, -125.03233531862497, -220.20343944104388, -124.93135801982135, -219.22171570267528, 0.01600000075995922, -0.19200000911951065, 1.0400000493973494, 0.0, 0.0, 0.0, 0.0, 0.0, 1.7103877278214931E9, 0.0, 2024-03-13 20:42:07.821
38.0, -219.3769215508364, -140.69316638307646, -221.94997272035107, -182.32012283988297, 0.01600000075995922, -0.19200000911951065, 1.0400000493973494, 0.0, 0.0, 0.0, 0.0, 0.0, 1.7103877278346548E9, 0.0, 2024-03-13 20:42:07.834
38.0, -363.0414384487085, -33.40478640422225, -336.0767597681843, -99.14287787536159, 0.01600000075995922, -0.19200000911951065, 1.0400000493973494, 0.0, 0.0, 0.0, 0.0, 0.0, 1.7103877278346548E9, 0.0, 2024-03-13 20:42:07.834
39.0, -175.15073462482542, 118.99800674011931, -163.5944437617436, 109.10410140734166, 0.01600000075995922, -0.19200000911951065, 1.0400000493973494, 0.0, 0.0, 0.0, 0.0, 0.0, 1.7103877278505847E9, 0.0, 2024-03-13 20:42:07.850
39.0, -328.3314269599505, 229.17545943474397, -343.4481025808491, 209.15764492191374, 0.01600000075995922, -0.19200000911951065, 1.0400000493973494, 0.0, 0.0, 0.0, 0.0, 0.0, 1.7103877278505847E9, 0.0, 2024-03-13 20:42:07.850
40.0, -244.96905694762245, 185.48968805233017, -230.82101541524753, 112.70188516471535, 0.01600000075995922, -0.19200000911951065, 1.0400000493973494, 0.0, 0.0, 0.0, 0.0, 0.0, 1.710387727851224E9, 0.0, 2024-03-13 20:42:07.851
40.0, -130.75812215078622, 118.45572124654427, -105.64843384828418, 85.45671398751438, 0.01600000075995922, -0.19200000911951065, 1.0400000493973494, 0.0, 0.0, 0.0, 0.0, 0.0, 1.710387727851224E9, 0.0, 2024-03-13 20:42:07.851
41.0, 8.908441694453359, 11.724586361087859, 0.605863792821765, 6.834667169023305, 0.01600000075995922, -0.20800000987946987, 1.0400000493973494, 0.0, 0.0, 0.0, 0.0, 0.0, 1.7103877278646743E9, 0.0, 2024-03-13 20:42:07.864
41.0, -185.38871075352654, -160.7614695453085, -182.6585837858729, -222.82697925996035, 0.01600000075995922, -0.20800000987946987, 1.0400000493973494, 0.0, 0.0, 0.0, 0.0, 0.0, 1.7103877278646743E9, 0.0, 2024-03-13 20:42:07.864
42.0, -17.887941488064826, -242.66901847487316, 9.705040385015309, -299.0349206570536, 0.01600000075995922, -0.20800000987946987, 1.0400000493973494, 0.0, 0.0, 0.0, 0.0, 0.0, 1.7103877278804104E9, 0.0, 2024-03-13 20:42:07.880
42.0, -106.13462084252387, -211.6054094429128, -110.34200829267502, -209.6139127165079, 0.01600000075995922, -0.20800000987946987, 1.0400000493973494, 0.0, 0.0, 0.0, 0.0, 0.0, 1.7103877278804104E9, 0.0, 2024-03-13 20:42:07.880
43.0, -218.52422436093912, -143.61776814842597, -222.7540512108244, -186.1236010948196, 0.01600000075995922, -0.20800000987946987, 1.0400000493973494, 0.0, 0.0, 0.0, 0.0, 0.0, 1.710387727881112E9, 0.0, 2024-03-13 20:42:07.881
43.0, -373.9095877199434, -42.511442796327174, -350.31829879945144, -118.7810925426893, 0.01600000075995922, -0.20800000987946987, 1.0400000493973494, 0.0, 0.0, 0.0, 0.0, 0.0, 1.710387727881112E9, 0.0, 2024-03-13 20:42:07.881
44.0, -180.7867638580501, 114.86541728908196, -168.860222899355, 95.85737576428801, 0.01600000075995922, -0.20800000987946987, 1.0400000493973494, 0.0, 0.0, 0.0, 0.0, 0.0, 1.7103877278946605E9, 0.0, 2024-03-13 20:42:07.894
44.0, -333.44761009933427, 221.26183112850413, -344.6373907667585, 195.80994198005646, 0.01600000075995922, -0.20800000987946987, 1.0400000493973494, 0.0, 0.0, 0.0, 0.0, 0.0, 1.7103877278946605E9, 0.0, 2024-03-13 20:42:07.894
45.0, -248.33496690774336, 173.34997279616073, -229.02586343651637, 98.76701792981476, 0.01600000075995922, -0.20800000987946987, 1.0400000493973494, 0.0, 0.0, 0.0, 0.0, 0.0, 1.710387727910472E9, 0.0, 2024-03-13 20:42:07.910
45.0, -136.52130798250437, 108.39913026569411, -111.62105407752097, 71.30119265522808, 0.01600000075995922, -0.20800000987946987, 1.0400000493973494, 0.0, 0.0, 0.0, 0.0, 0.0, 1.710387727910472E9, 0.0, 2024-03-13 20:42:07.910
46.0, 3.9306348534300923, 0.2131742974743247, -0.10097729880362749, 1.2771758348681033, 0.01600000075995922, -0.20800000987946987, 1.0400000493973494, 0.0, 0.0, 0.0, 0.0, 0.0, 1.7103877279111075E9, 0.0, 2024-03-13 20:42:07.911
46.0, -193.46689465781674, -169.47543644206598, -182.8044398841448, -231.45492845773697, 0.01600000075995922, -0.20800000987946987, 1.0400000493973494, 0.0, 0.0, 0.0, 0.0, 0.0, 1.7103877279111075E9, 0.0, 2024-03-13 20:42:07.911
47.0, -18.93137357570231, -247.79268141416833, 7.206787214614451, -310.2247013244778, 0.01600000075995922, -0.20800000987946987, 1.0400000493973494, 0.0, 0.0, 0.0, 0.0, 0.0, 1.7103877279250114E9, 0.0, 2024-03-13 20:42:07.925
47.0, -122.19001135230064, -228.22178494604304, -123.30450153909624, -230.84158486500382, 0.01600000075995922, -0.20800000987946987, 1.0400000493973494, 0.0, 0.0, 0.0, 0.0, 0.0, 1.7103877279250114E9, 0.0, 2024-03-13 20:42:07.925
48.0, -220.40165413869545, -151.83806825103238, -222.3501420156099, -189.0556826600805, 0.01600000075995922, -0.20800000987946987, 1.0400000493973494, 0.0, 0.0, 0.0, 0.0, 0.0, 1.7103877279404461E9, 0.0, 2024-03-13 20:42:07.940
48.0, -360.05325838411227, -33.232751006260514, -330.990495828446, -103.39140422502533, 0.01600000075995922, -0.20800000987946987, 1.0400000493973494, 0.0, 0.0, 0.0, 0.0, 0.0, 1.7103877279404461E9, 0.0, 2024-03-13 20:42:07.940
49.0, -171.39961496926844, 116.38007677113637, -157.35255073569715, 107.70537882391363, 0.01600000075995922, -0.20800000987946987, 1.0400000493973494, 0.0, 0.0, 0.0, 0.0, 0.0, 1.7103877279411297E9, 0.0, 2024-03-13 20:42:07.941
49.0, -341.68286980176345, 221.13467453001067, -342.894597387407, 207.23159644473344, 0.01600000075995922, -0.20800000987946987, 1.0400000493973494, 0.0, 0.0, 0.0, 0.0, 0.0, 1.7103877279411297E9, 0.0, 2024-03-13 20:42:07.941
50.0, -242.96073067141697, 179.46470922371373, -223.0158442077227, 112.84774126298726, 0.01600000075995922, -0.20800000987946987, 1.0400000493973494, 0.0, 0.0, 0.0, 0.0, 0.0, 1.7103877279548817E9, 0.0, 2024-03-13 20:42:07.954
50.0, -125.27542881574482, 108.20091556804255, -110.03159659635276, 77.05315878707916, 0.01600000075995922, -0.20800000987946987, 1.0400000493973494, 0.0, 0.0, 0.0, 0.0, 0.0, 1.7103877279548817E9, 0.0, 2024-03-13 20:42:07.954
51.0, 19.907487464137375, 5.759445931762457, 4.0054328525438905, 4.908618691843003, 0.01600000075995922, -0.19200000911951065, 1.0400000493973494, 0.0, 0.0, 0.0, 0.0, 0.0, 1.7103877279704127E9, 0.0, 2024-03-13 20:42:07.970
51.0, -197.8911963053979, -167.871019361075, -183.67209667386487, -228.8444782886654, 0.01600000075995922, -0.19200000911951065, 1.0400000493973494, 0.0, 0.0, 0.0, 0.0, 0.0, 1.7103877279704127E9, 0.0, 2024-03-13 20:42:07.970
52.0, -31.703131924383342, -251.82429356640205, 7.158168515190482, -308.50434734486043, 0.01600000075995922, -0.19200000911951065, 1.0400000493973494, 0.0, 0.0, 0.0, 0.0, 0.0, 1.7103877279710653E9, 0.0, 2024-03-13 20:42:07.971
52.0, -107.78765662293881, -229.00342403678223, -125.29038841556758, -227.60283150337636, 0.01600000075995922, -0.19200000911951065, 1.0400000493973494, 0.0, 0.0, 0.0, 0.0, 0.0, 1.7103877279710653E9, 0.0, 2024-03-13 20:42:07.971
53.0, -226.91655986150727, -151.1237473594956, -226.3817541678436, -187.1969523821026, 0.01600000075995922, -0.19200000911951065, 1.0400000493973494, 0.0, 0.0, 0.0, 0.0, 0.0, 1.71038772798465E9, 0.0, 2024-03-13 20:42:07.984
53.0, -383.8652014019899, -49.347979915328324, -345.8902572519146, -118.34726414782926, 0.01600000075995922, -0.19200000911951065, 1.0400000493973494, 0.0, 0.0, 0.0, 0.0, 0.0, 1.71038772798465E9, 0.0, 2024-03-13 20:42:07.984
54.0, -178.5989223839715, 110.28403984336182, -159.28981891274452, 103.28855697624385, 0.01600000075995922, -0.19200000911951065, 1.0400000493973494, 0.0, 0.0, 0.0, 0.0, 0.0, 1.7103877280004091E9, 0.0, 2024-03-13 20:42:08.000
54.0, -334.8725119824521, 221.84151562163606, -339.5399071271531, 203.54779498837888, 0.01600000075995922, -0.19200000911951065, 1.0400000493973494, 0.0, 0.0, 0.0, 0.0, 0.0, 1.7103877280004091E9, 0.0, 2024-03-13 20:42:08.000
55.0, -250.100199686829, 173.24151569744572, -222.57827591290697, 108.21400521788746, 0.01600000075995922, -0.19200000911951065, 1.0400000493973494, 0.0, 0.0, 0.0, 0.0, 0.0, 1.7103877280010912E9, 0.0, 2024-03-13 20:42:08.001
55.0, -131.16577124595642, 114.84671778930351, -100.03484401479363, 80.84541734214872, 0.01600000075995922, -0.19200000911951065, 1.0400000493973494, 0.0, 0.0, 0.0, 0.0, 0.0, 1.7103877280010912E9, 0.0, 2024-03-13 20:42:08.001
56.0, 14.854882624000311, 6.170834926888347, 9.69382068514824, 10.593266624491662, 0.01600000075995922, -0.19200000911951065, 1.0400000493973494, 0.0, 0.0, 0.0, 0.0, 0.0, 1.7103877280146298E9, 0.0, 2024-03-13 20:42:08.014
56.0, -184.924963159021, -164.25079620396718, -175.34707937249914, -224.1808230439201, 0.01600000075995922, -0.19200000911951065, 1.0400000493973494, 0.0, 0.0, 0.0, 0.0, 0.0, 1.7103877280146298E9, 0.0, 2024-03-13 20:42:08.014
57.0, -15.038137721829116, -245.0662943464704, 19.077229673974216, -299.87265824712813, 0.01600000075995922, -0.19200000911951065, 1.0400000493973494, 0.0, 0.0, 0.0, 0.0, 0.0, 1.7103877280304475E9, 0.0, 2024-03-13 20:42:08.030
57.0, -120.92218526732177, -227.91885304963216, -120.84364736825228, -225.39255062956363, 0.01600000075995922, -0.19200000911951065, 1.0400000493973494, 0.0, 0.0, 0.0, 0.0, 0.0, 1.7103877280304475E9, 0.0, 2024-03-13 20:42:08.030
58.0, -217.54437057254836, -151.32196205714718, -226.50517086638138, -187.22687158174813, 0.01600000075995922, -0.19200000911951065, 1.0400000493973494, 0.0, 0.0, 0.0, 0.0, 0.0, 1.710387728031093E9, 0.0, 2024-03-13 20:42:08.031
58.0, -368.052904389333, -41.299715210683644, -345.8079794528894, -113.28717950778082, 0.01600000075995922, -0.19200000911951065, 1.0400000493973494, 0.0, 0.0, 0.0, 0.0, 0.0, 1.710387728031093E9, 0.0, 2024-03-13 20:42:08.031
59.0, -168.03744490910321, 121.61967660905793, -160.26967270113528, 109.93809909746051, 0.01600000075995922, -0.19200000911951065, 1.0400000493973494, 0.0, 0.0, 0.0, 0.0, 0.0, 1.7103877280448155E9, 0.0, 2024-03-13 20:42:08.044
59.0, -325.7658555903472, 228.5321966423653, -340.3327659177594, 206.82394734956324, 0.01600000075995922, -0.19200000911951065, 1.0400000493973494, 0.0, 0.0, 0.0, 0.0, 0.0, 1.7103877280448155E9, 0.0, 2024-03-13 20:42:08.044
60.0, -243.49927626503631, 181.81710629584268, -228.5695956419222, 105.98502484429628, 0.01600000075995922, -0.19200000911951065, 1.0400000493973494, 0.0, 0.0, 0.0, 0.0, 0.0, 1.7103877280606883E9, 0.0, 2024-03-13 20:42:08.060
60.0, -130.11485935840756, 117.52448615757748, -114.11182744801044, 79.23352046124637, 0.01600000075995922, -0.19200000911951065, 1.0400000493973494, 0.0, 0.0, 0.0, 0.0, 0.0, 1.7103877280606883E9, 0.0, 2024-03-13 20:42:08.060
61.0, 1.0396921876817942, 2.82362446654588, -7.408741812221706, -0.41699884505942464, 0.01600000075995922, -0.19200000911951065, 1.0400000493973494, 0.0, 0.0, 0.0, 0.0, 0.0, 1.7103877280612907E9, 0.0, 2024-03-13 20:42:08.061
61.0, -195.38546333508566, -167.5082490653731, -189.37918400624767, -233.4782143337652, 0.01600000075995922, -0.19200000911951065, 1.0400000493973494, 0.0, 0.0, 0.0, 0.0, 0.0, 1.7103877280612907E9, 0.0, 2024-03-13 20:42:08.061
62.0, -24.784317006357014, -254.19539013830945, 5.071304339915514, -315.3259248640388, 0.01600000075995922, -0.19200000911951065, 1.0400000493973494, 0.0, 0.0, 0.0, 0.0, 0.0, 1.710387728075056E9, 0.0, 2024-03-13 20:42:08.075
62.0, -114.9458251381293, -224.99051138432696, -122.76595594547689, -225.05221973359585, 0.01600000075995922, -0.19200000911951065, 1.0400000493973494, 0.0, 0.0, 0.0, 0.0, 0.0, 1.710387728075056E9, 0.0, 2024-03-13 20:42:08.075
63.0, -208.80796427605674, -142.61547496030107, -217.7837241697125, -178.96543257962912, 0.01600000075995922, -0.19200000911951065, 1.0400000493973494, 0.0, 0.0, 0.0, 0.0, 0.0, 1.7103877280903845E9, 0.0, 2024-03-13 20:42:08.090
63.0, -357.4914269144647, -35.4617313798517, -336.04684056853876, -103.70181592134759, 0.01600000075995922, -0.19200000911951065, 1.0400000493973494, 0.0, 0.0, 0.0, 0.0, 0.0, 1.7103877280903845E9, 0.0, 2024-03-13 20:42:08.090
64.0, -159.58527100924402, 121.40650231158361, -159.60023060906678, 112.41391286812723, 0.01600000075995922, -0.19200000911951065, 1.0400000493973494, 0.0, 0.0, 0.0, 0.0, 0.0, 1.7103877280911016E9, 0.0, 2024-03-13 20:42:08.091
64.0, -323.4583373176865, 224.09667529491708, -344.68974936613813, 210.15619821008295, 0.01600000075995922, -0.19200000911951065, 1.0400000493973494, 0.0, 0.0, 0.0, 0.0, 0.0, 1.7103877280911016E9, 0.0, 2024-03-13 20:42:08.091
65.0, -239.30684841470793, 180.71009590895846, -223.33747560391203, 109.91191979777068, 0.01600000075995922, -0.19200000911951065, 1.0400000493973494, 0.0, 0.0, 0.0, 0.0, 0.0, 1.7103877281049683E9, 0.0, 2024-03-13 20:42:08.104
65.0, -122.58270084764808, 120.34811062412336, -108.03075012005866, 80.36671014782041, 0.01600000075995922, -0.19200000911951065, 1.0400000493973494, 0.0, 0.0, 0.0, 0.0, 0.0, 1.7103877281049683E9, 0.0, 2024-03-13 20:42:08.104
66.0, 7.154428615234792, 8.42599460016936, -0.4226086949929595, 3.1920046121813357, 0.01600000075995922, -0.19200000911951065, 1.0400000493973494, 0.0, 0.0, 0.0, 0.0, 0.0, 1.7103877281206663E9, 0.0, 2024-03-13 20:42:08.120
66.0, -194.80577884195372, -167.23149646865204, -181.12896470399573, -232.21412814874202, 0.01600000075995922, -0.19200000911951065, 1.0400000493973494, 0.0, 0.0, 0.0, 0.0, 0.0, 1.7103877281206663E9, 0.0, 2024-03-13 20:42:08.120
67.0, -20.618068455718458, -254.78629433130845, 1.9597075767815113, -312.97726769186556, 0.01600000075995922, -0.19200000911951065, 1.0400000493973494, 0.0, 0.0, 0.0, 0.0, 0.0, 1.7103877281213915E9, 0.0, 2024-03-13 20:42:08.121
67.0, -107.55204292573035, -225.2336048814468, -126.41983820218593, -226.5519196158275, 0.01600000075995922, -0.19200000911951065, 1.0400000493973494, 0.0, 0.0, 0.0, 0.0, 0.0, 1.7103877281213915E9, 0.0, 2024-03-13 20:42:08.121
68.0, -203.39258914021775, -136.36984203429893, -223.54317010147497, -183.22517862915993, 0.01600000075995922, -0.19200000911951065, 1.0400000493973494, 0.0, 0.0, 0.0, 0.0, 0.0, 1.7103877281347237E9, 0.0, 2024-03-13 20:42:08.134
68.0, -355.20634804153815, -35.95539817400277, -343.83705217624083, -107.81570587260649, 0.01600000075995922, -0.19200000911951065, 1.0400000493973494, 0.0, 0.0, 0.0, 0.0, 0.0, 1.7103877281347237E9, 0.0, 2024-03-13 20:42:08.134
69.0, -160.32951110042632, 120.87543651787564, -155.46764115802944, 114.19410524703562, 0.01600000075995922, -0.19200000911951065, 1.0400000493973494, 0.0, 0.0, 0.0, 0.0, 0.0, 1.7103877281504953E9, 0.0, 2024-03-13 20:42:08.150
69.0, -321.27049584360793, 224.40708699123934, -339.53242732724175, 206.8015079498291, 0.01600000075995922, -0.19200000911951065, 1.0400000493973494, 0.0, 0.0, 0.0, 0.0, 0.0, 1.7103877281504953E9, 0.0, 2024-03-13 20:42:08.150
70.0, -240.23060370376334, 181.9554825942032, -228.34146174462512, 105.49883785005659, 0.01600000075995922, -0.19200000911951065, 1.0400000493973494, 0.0, 0.0, 0.0, 0.0, 0.0, 1.7103877281511045E9, 0.0, 2024-03-13 20:42:08.151
70.0, -136.42033068370074, 106.11405139276758, -113.34514795709401, 67.81934579648077, 0.01600000075995922, -0.19200000911951065, 1.0400000493973494, 0.0, 0.0, 0.0, 0.0, 0.0, 1.7103877281511045E9, 0.0, 2024-03-13 20:42:08.151
71.0, 11.821823759935796, -1.8288110783323646, -7.300284713506699, -2.5076029202900827, 0.01600000075995922, -0.19200000911951065, 1.0400000493973494, 0.0, 0.0, 0.0, 0.0, 0.0, 1.710387728164798E9, 0.0, 2024-03-13 20:42:08.164
71.0, -184.71178886154667, -172.11206591082737, -184.42007666500285, -231.7391608543694, 0.01600000075995922, -0.19200000911951065, 1.0400000493973494, 0.0, 0.0, 0.0, 0.0, 0.0, 1.710387728164798E9, 0.0, 2024-03-13 20:42:08.164
72.0, -24.51130430959165, -249.99922238802537, 9.170234691351652, -309.185009136796, 0.01600000075995922, -0.19200000911951065, 1.0400000493973494, 0.0, 0.0, 0.0, 0.0, 0.0, 1.7103877281803827E9, 0.0, 2024-03-13 20:42:08.180
72.0, -134.45314330700785, -218.43446676200256, -117.56001520715654, -221.0355671811849, 0.01600000075995922, -0.19200000911951065, 1.0400000493973494, 0.0, 0.0, 0.0, 0.0, 0.0, 1.7103877281803827E9, 0.0, 2024-03-13 20:42:08.180
73.0, -209.77285846462473, -143.943139444571, -219.33204275136814, -186.1983990939334, 0.01600000075995922, -0.19200000911951065, 1.0400000493973494, 0.0, 0.0, 0.0, 0.0, 0.0, 1.7103877281811004E9, 0.0, 2024-03-13 20:42:08.181
73.0, -367.80607099225745, -35.35327428113669, -336.7349821603857, -105.57176589919254, 0.01600000075995922, -0.19200000911951065, 1.0400000493973494, 0.0, 0.0, 0.0, 0.0, 0.0, 1.7103877281811004E9, 0.0, 2024-03-13 20:42:08.181
74.0, -175.8650555163622, 121.25690631335601, -164.8585299467668, 104.77329725865275, 0.01600000075995922, -0.19200000911951065, 1.0400000493973494, 0.0, 0.0, 0.0, 0.0, 0.0, 1.710387728194694E9, 0.0, 2024-03-13 20:42:08.194
74.0, -329.92836424103007, 221.0523967309855, -340.2953669182025, 203.5365752885118, 0.01600000075995922, -0.19200000911951065, 1.0400000493973494, 0.0, 0.0, 0.0, 0.0, 0.0, 1.710387728194694E9, 0.0, 2024-03-13 20:42:08.194
75.0, -247.56454751687124, 176.51766805863008, -225.62255447683856, 104.84061545785517, 0.01600000075995922, -0.19200000911951065, 1.0400000493973494, 0.0, 0.0, 0.0, 0.0, 0.0, 1.7103877282104068E9, 0.0, 2024-03-13 20:42:08.210
75.0, -136.75692167971283, 106.86951118381694, -113.8687339508906, 73.43667552992702, 0.01600000075995922, -0.19200000911951065, 1.0400000493973494, 0.0, 0.0, 0.0, 0.0, 0.0, 1.7103877282104068E9, 0.0, 2024-03-13 20:42:08.210
76.0, 4.790811843238771, 1.0396921876817942, -1.084570987150073, 2.664678718429059, 0.01600000075995922, -0.19200000911951065, 1.0400000493973494, 0.0, 0.0, 0.0, 0.0, 0.0, 1.7103877282110643E9, 0.0, 2024-03-13 20:42:08.211
76.0, -196.75052681891248, -167.57182736461982, -185.06333945738152, -227.65145020280033, 0.01600000075995922, -0.19200000911951065, 1.0400000493973494, 0.0, 0.0, 0.0, 0.0, 0.0, 1.7103877282110643E9, 0.0, 2024-03-13 20:42:08.211
77.0, -29.896760245785117, -253.68676374433562, -2.939561365172267, -310.68844891898334, 0.01600000075995922, -0.19200000911951065, 1.0400000493973494, 0.0, 0.0, 0.0, 0.0, 0.0, 1.710387728224906E9, 0.0, 2024-03-13 20:42:08.224
77.0, -127.16033839341253, -219.73595194658265, -127.56050768867135, -228.35829129442573, 0.01600000075995922, -0.19200000911951065, 1.0400000493973494, 0.0, 0.0, 0.0, 0.0, 0.0, 1.710387728224906E9, 0.0, 2024-03-13 20:42:08.224
78.0, -215.31913009891286, -149.59412827761844, -231.02670991281047, -191.84564802702516, 0.01600000075995922, -0.19200000911951065, 1.0400000493973494, 0.0, 0.0, 0.0, 0.0, 0.0, 1.7103877282407253E9, 0.0, 2024-03-13 20:42:08.240
78.0, -360.008379584644, -36.22093107085675, -349.90690980432555, -116.89618296502158, 0.01600000075995922, -0.19200000911951065, 1.0400000493973494, 0.0, 0.0, 0.0, 0.0, 0.0, 1.7103877282407253E9, 0.0, 2024-03-13 20:42:08.240
79.0, -179.4142205743119, 122.23676010174677, -169.43990739248693, 105.95884554460645, 0.01600000075995922, -0.19200000911951065, 1.0400000493973494, 0.0, 0.0, 0.0, 0.0, 0.0, 1.710387728241226E9, 0.0, 2024-03-13 20:42:08.241
79.0, -343.49298138031736, 227.9076333497651, -337.20246965484694, 212.04858758766204, 0.01600000075995922, -0.19200000911951065, 1.0400000493973494, 0.0, 0.0, 0.0, 0.0, 0.0, 1.710387728241226E9, 0.0, 2024-03-13 20:42:08.241
80.0, -260.5831392626278, 180.38846451276913, -225.61881457688287, 111.38170048035681, 0.01600000075995922, -0.19200000911951065, 1.0400000493973494, 0.0, 0.0, 0.0, 0.0, 0.0, 1.710387728255207E9, 0.0, 2024-03-13 20:42:08.255
80.0, -150.033566522412, 113.01042691105977, -110.18119259458035, 78.20878787338734, 0.01600000075995922, -0.19200000911951065, 1.0400000493973494, 0.0, 0.0, 0.0, 0.0, 0.0, 1.710387728255207E9, 0.0, 2024-03-13 20:42:08.255
81.0, 25.71929199527949, 3.4107887595891953, 2.1579222744330764, 4.845040392596275, 0.01600000075995922, -0.19200000911951065, 1.0400000493973494, 0.0, 0.0, 0.0, 0.0, 0.0, 1.7103877282707736E9, 0.0, 2024-03-13 20:42:08.270
81.0, -148.47963809082285, -167.1379989697598, -175.7322890679352, -224.4426160408184, 0.01600000075995922, -0.19200000911951065, 1.0400000493973494, 0.0, 0.0, 0.0, 0.0, 0.0, 1.7103877282707736E9, 0.0, 2024-03-13 20:42:08.270
82.0, 11.963939958252013, -257.19105000281706, 2.9283416653051972, -311.9263558043167, 0.01600000075995922, -0.19200000911951065, 1.0400000493973494, 0.0, 0.0, 0.0, 0.0, 0.0, 1.7103877282712715E9, 0.0, 2024-03-13 20:42:08.271
82.0, -125.86259310878813, -234.74791036872193, -131.1695111459121, -230.78174646571279, 0.01600000075995922, -0.19200000911951065, 1.0400000493973494, 0.0, 0.0, 0.0, 0.0, 0.0, 1.7103877282712715E9, 0.0, 2024-03-13 20:42:08.271
83.0, -204.31260452931747, -144.33208903996274, -218.06421666638926, -182.72403203509748, 0.01600000075995922, -0.19200000911951065, 1.0400000493973494, 0.0, 0.0, 0.0, 0.0, 0.0, 1.710387728284753E9, 0.0, 2024-03-13 20:42:08.284
83.0, -385.9819847769104, -51.748995686881244, -349.2225081124343, -116.79146576626226, 0.01600000075995922, -0.19200000911951065, 1.0400000493973494, 0.0, 0.0, 0.0, 0.0, 0.0, 1.710387728284753E9, 0.0, 2024-03-13 20:42:08.284
84.0, -210.67978420387954, 104.73776820907369, -168.75924560055137, 98.64360123127699, 0.01600000075995922, -0.19200000911951065, 1.0400000493973494, 0.0, 0.0, 0.0, 0.0, 0.0, 1.710387728300382E9, 0.0, 2024-03-13 20:42:08.300
84.0, -340.8413923117332, 212.9742128266953, -348.32119222311303, 198.42039214912802, 0.01600000075995922, -0.19200000911951065, 1.0400000493973494, 0.0, 0.0, 0.0, 0.0, 0.0, 1.710387728300382E9, 0.0, 2024-03-13 20:42:08.300
85.0, -242.54934167629108, 168.60777965234593, -233.82415507966653, 102.03943039104342, 0.01600000075995922, -0.19200000911951065, 1.0400000493973494, 0.0, 0.0, 0.0, 0.0, 0.0, 1.7103877283010972E9, 0.0, 2024-03-13 20:42:08.301
85.0, -125.39884551428258, 95.30200062086806, -121.99553655460477, 66.80583290848881, 0.01600000075995922, -0.19200000911951065, 1.0400000493973494, 0.0, 0.0, 0.0, 0.0, 0.0, 1.7103877283010972E9, 0.0, 2024-03-13 20:42:08.301
86.0, 19.155767573043704, -1.1743285860866308, -10.03415158111602, -4.1643786006607115, 0.01600000075995922, -0.19200000911951065, 1.0400000493973494, 0.0, 0.0, 0.0, 0.0, 0.0, 1.7103877283146985E9, 0.0, 2024-03-13 20:42:08.314
86.0, -172.16068461025134, -172.2878412087448, -189.4801613050513, -232.6629161434248, 0.01600000075995922, -0.19200000911951065, 1.0400000493973494, 0.0, 0.0, 0.0, 0.0, 0.0, 1.7103877283146985E9, 0.0, 2024-03-13 20:42:08.314
87.0, -31.295482829213142, -255.8484259187244, 4.798291643150151, -309.52907993271947, 0.01600000075995922, -0.19200000911951065, 1.0400000493973494, 0.0, 0.0, 0.0, 0.0, 0.0, 1.710387728330402E9, 0.0, 2024-03-13 20:42:08.330
87.0, -126.01592900697142, -218.51300466107205, -118.66328569408506, -217.45274302363396, 0.01600000075995922, -0.19200000911951065, 1.0400000493973494, 0.0, 0.0, 0.0, 0.0, 0.0, 1.710387728330402E9, 0.0, 2024-03-13 20:42:08.330
88.0, -224.39586729137227, -147.11457460699603, -218.40828746231273, -178.77095778193325, 0.01600000075995922, -0.19200000911951065, 1.0400000493973494, 0.0, 0.0, 0.0, 0.0, 0.0, 1.710387728331102E9, 0.0, 2024-03-13 20:42:08.331
88.0, -369.6012229709886, -36.97265096195042, -331.00919532822445, -99.30369357345626, 0.01600000075995922, -0.19200000911951065, 1.0400000493973494, 0.0, 0.0, 0.0, 0.0, 0.0, 1.710387728331102E9, 0.0, 2024-03-13 20:42:08.331
89.0, -187.10345488321036, 104.47223531221971, -169.72787968907505, 97.16634074877948, 0.01600000075995922, -0.19200000911951065, 1.0400000493973494, 0.0, 0.0, 0.0, 0.0, 0.0, 1.7103877283447533E9, 0.0, 2024-03-13 20:42:08.344
89.0, -334.7977139833383, 218.1614540652372, -344.0016077742912, 200.11830672901124, 0.01600000075995922, -0.19200000911951065, 1.0400000493973494, 0.0, 0.0, 0.0, 0.0, 0.0, 1.7103877283447533E9, 0.0, 2024-03-13 20:42:08.344
90.0, -246.44257753016427, 176.00156186474487, -225.72727167559788, 109.44817220326513, 0.01600000075995922, -0.19200000911951065, 1.0400000493973494, 0.0, 0.0, 0.0, 0.0, 0.0, 1.710387728360634E9, 0.0, 2024-03-13 20:42:08.360
90.0, -128.7310963748023, 106.67877628607675, -117.14488631207496, 71.772420049645, 0.01600000075995922, -0.19200000911951065, 1.0400000493973494, 0.0, 0.0, 0.0, 0.0, 0.0, 1.710387728360634E9, 0.0, 2024-03-13 20:42:08.360
91.0, 9.596583286300302, 8.190380902960896, -1.245386685244739, 7.818260857369751, 0.01600000075995922, -0.19200000911951065, 1.0400000493973494, 0.0, 0.0, 0.0, 0.0, 0.0, 1.710387728361196E9, 0.0, 2024-03-13 20:42:08.361
91.0, -205.05310472054407, -172.33272000821307, -183.09615208068863, -229.13619048520923, 0.01600000075995922, -0.19200000911951065, 1.0400000493973494, 0.0, 0.0, 0.0, 0.0, 0.0, 1.710387728361196E9, 0.0, 2024-03-13 20:42:08.361
92.0, -15.471966116689146, -252.2917810608633, 8.257699102163315, -307.35619805846363, 0.01600000075995922, -0.19200000911951065, 1.0400000493973494, 0.0, 0.0, 0.0, 0.0, 0.0, 1.710387728374652E9, 0.0, 2024-03-13 20:42:08.374
92.0, -116.06405522488058, -224.74741788720712, -124.50874932482839, -220.2202689908445, 0.01600000075995922, -0.19200000911951065, 1.0400000493973494, 0.0, 0.0, 0.0, 0.0, 0.0, 1.710387728374652E9, 0.0, 2024-03-13 20:42:08.374
93.0, -205.86466301092878, -140.52113098511472, -221.85273532150313, -181.7553979465738, 0.01600000075995922, -0.19200000911951065, 1.0400000493973494, 0.0, 0.0, 0.0, 0.0, 0.0, 1.7103877283904676E9, 0.0, 2024-03-13 20:42:08.390
93.0, -352.2219078768976, -30.9775913329795, -340.68057661363855, -106.34592519002035, 0.01600000075995922, -0.19200000911951065, 1.0400000493973494, 0.0, 0.0, 0.0, 0.0, 0.0, 1.7103877283904676E9, 0.0, 2024-03-13 20:42:08.390
94.0, -158.68769501987845, 127.39034224068746, -160.04901860374957, 114.41849924437702, 0.01600000075995922, -0.19200000911951065, 1.0400000493973494, 0.0, 0.0, 0.0, 0.0, 0.0, 1.7103877283911755E9, 0.0, 2024-03-13 20:42:08.391
94.0, -316.6554592982866, 228.85382803855464, -338.94152313424274, 211.59605969302356, 0.01600000075995922, -0.19200000911951065, 1.0400000493973494, 0.0, 0.0, 0.0, 0.0, 0.0, 1.7103877283911755E9, 0.0, 2024-03-13 20:42:08.391
95.0, -234.48611737182364, 181.51791429938748, -230.15905312309042, 109.05548270791769, 0.01600000075995922, -0.19200000911951065, 1.0400000493973494, 0.0, 0.0, 0.0, 0.0, 0.0, 1.7103877284049625E9, 0.0, 2024-03-13 20:42:08.404
95.0, -128.40946497861296, 118.41458234703168, -116.65121951792389, 79.08018456306309, 0.01600000075995922, -0.19200000911951065, 1.0400000493973494, 0.0, 0.0, 0.0, 0.0, 0.0, 1.7103877284049625E9, 0.0, 2024-03-13 20:42:08.404
96.0, 11.29823776613921, 16.743532101623714, -4.177468250505626, 7.937937655951828, 0.01600000075995922, -0.19200000911951065, 1.0400000493973494, 0.0, 0.0, 0.0, 0.0, 0.0, 1.7103877284203725E9, 0.0, 2024-03-13 20:42:08.420
96.0, -191.50718708103523, -156.8383144917898, -185.3999304533936, -223.14861065614969, 0.01600000075995922, -0.19200000911951065, 1.0400000493973494, 0.0, 0.0, 0.0, 0.0, 0.0, 1.7103877284203725E9, 0.0, 2024-03-13 20:42:08.420
97.0, -13.343963041901588, -244.9129584482871, 8.246479402296245, -305.5199071802199, 0.01600000075995922, -0.19200000911951065, 1.0400000493973494, 0.0, 0.0, 0.0, 0.0, 0.0, 1.710387728421055E9, 0.0, 2024-03-13 20:42:08.421
97.0, -100.00492481514812, -215.84645599266514, -119.80769508052617, -219.12821820378304, 0.01600000075995922, -0.19200000911951065, 1.0400000493973494, 0.0, 0.0, 0.0, 0.0, 0.0, 1.710387728421055E9, 0.0, 2024-03-13 20:42:08.421
98.0, -211.36605584574863, -135.77893784129992, -211.96443983865902, -175.70423981826752, 0.01600000075995922, -0.19200000911951065, 1.0400000493973494, 0.0, 0.0, 0.0, 0.0, 0.0, 1.7103877284347417E9, 0.0, 2024-03-13 20:42:08.434
98.0, -362.43183475593105, -32.50347051490098, -334.6256785853766, -100.3620852609165, 0.01600000075995922, -0.19200000911951065, 1.0400000493973494, 0.0, 0.0, 0.0, 0.0, 0.0, 1.7103877284347417E9, 0.0, 2024-03-13 20:42:08.434
99.0, -156.37643684726208, 134.79908405290917, -146.439522664994, 121.74496325757354, 0.01600000075995922, -0.19200000911951065, 1.0400000493973494, 0.0, 0.0, 0.0, 0.0, 0.0, 1.7103877284509492E9, 0.0, 2024-03-13 20:42:08.450
99.0, -323.52191561693326, 240.499876500573, -323.1367059214972, 220.46710238792002, 0.01600000075995922, -0.19200000911951065, 1.0400000493973494, 0.0, 0.0, 0.0, 0.0, 0.0, 1.7103877284509492E9, 0.0, 2024-03-13 20:42:08.450
100.0, -237.48551713628694, 184.5472332634963, -220.21839904086664, 112.56350886635482, 0.01600000075995922, -0.19200000911951065, 1.0400000493973494, 0.0, 0.0, 0.0, 0.0, 0.0, 1.7103877284512944E9, 0.0, 2024-03-13 20:42:08.451
100.0, -118.59970739483833, 117.82367815403268, -102.83228918164968, 85.9279413819313, 0.01600000075995922, -0.19200000911951065, 1.0400000493973494, 0.0, 0.0, 0.0, 0.0, 0.0, 1.7103877284512944E9, 0.0, 2024-03-13 20:42:08.451
0.0, -516.9214920755476, -25.463108848314732, -296.0074716429226, -141.50472467346117, 0.01600000075995922, -0.19200000911951065, 1.0400000493973494, 0.0, 0.0, 0.0, 0.0, 0.0, 1.710387728465417E9, 0.0, 2024-03-13 20:42:08.465
1.0, -708.7465706528164, -196.49060377199203, -479.68704811669886, -373.0998993795365, 0.01600000075995922, -0.19200000911951065, 1.0400000493973494, 0.0, 0.0, 0.0, 0.0, 0.0, 1.71038772846608E9, 0.0, 2024-03-13 20:42:08.466
1.0, -549.443662090227, -279.37800648994744, -288.43043433269486, -449.5771135734394, 0.01600000075995922, -0.19200000911951065, 1.0400000493973494, 0.0, 0.0, 0.0, 0.0, 0.0, 1.71038772846608E9, 0.0, 2024-03-13 20:42:08.466
2.0, -651.3933348823339, -251.46713312063366, -422.7040624418296, -371.71239649597555, 0.01600000075995922, -0.19200000911951065, 1.0400000493973494, 0.0, 0.0, 0.0, 0.0, 0.0, 1.7103877284796455E9, 0.0, 2024-03-13 20:42:08.479
2.0, -744.8814840246923, -174.40275463368744, -520.5379753326997, -327.95182711444795, 0.01600000075995922, -0.19200000911951065, 1.0400000493973494, 0.0, 0.0, 0.0, 0.0, 0.0, 1.7103877284796455E9, 0.0, 2024-03-13 20:42:08.479
3.0, -898.0827458095737, -62.764871006365865, -641.2694257022813, -250.01044208789244, 0.01600000075995922, -0.19200000911951065, 1.0400000493973494, 0.0, 0.0, 0.0, 0.0, 0.0, 1.710387728495476E9, 0.0, 2024-03-13 20:42:08.495
3.0, -710.8951431773603, 87.54357816278934, -467.32854871312156, -42.36932659801096, 0.01600000075995922, -0.19200000911951065, 1.0400000493973494, 0.0, 0.0, 0.0, 0.0, 0.0, 1.710387728495476E9, 0.0, 2024-03-13 20:42:08.495
4.0, -845.1893407362513, 190.47684464324266, -644.5567977633327, 56.30045393295586, 0.01600000075995922, -0.19200000911951065, 1.0400000493973494, 0.0, 0.0, 0.0, 0.0, 0.0, 1.7103877284962668E9, 0.0, 2024-03-13 20:42:08.496
4.0, -748.2810530844145, 144.59949188679457, -527.7746817469597, -43.79422848112881, 0.01600000075995922, -0.19200000911951065, 1.0400000493973494, 0.0, 0.0, 0.0, 0.0, 0.0, 1.7103877284962668E9, 0.0, 2024-03-13 20:42:08.496
5.0, -638.595397233963, 80.56866474542767, -419.1511574839242, -74.4053096184507, 0.01600000075995922, -0.19200000911951065, 1.0400000493973494, 0.0, 0.0, 0.0, 0.0, 0.0, 1.7103877285100183E9, 0.0, 2024-03-13 20:42:08.510
5.0, -495.80601692572236, -29.737814497668296, -306.531550118234, -150.62634066538885, 0.01600000075995922, -0.19200000911951065, 1.0400000493973494, 0.0, 0.0, 0.0, 0.0, 0.0, 1.7103877285100183E9, 0.0, 2024-03-13 20:42:08.510
6.0, -700.2382982536219, -206.03856835886836, -486.6694413339719, -380.3590451935306, 0.01600000075995922, -0.19200000911951065, 1.0400000493973494, 0.0, 0.0, 0.0, 0.0, 0.0, 1.7103877285256E9, 0.0, 2024-03-13 20:42:08.525
6.0, -536.9673558380455, -289.0531276753172, -304.77379713905975, -464.91070339176804, 0.01600000075995922, -0.19200000911951065, 1.0400000493973494, 0.0, 0.0, 0.0, 0.0, 0.0, 1.7103877285256E9, 0.0, 2024-03-13 20:42:08.525
7.0, -634.6460628807545, -259.3770215269178, -428.24285427620634, -377.89819102268666, 0.01600000075995922, -0.19200000911951065, 1.0400000493973494, 0.0, 0.0, 0.0, 0.0, 0.0, 1.7103877285261393E9, 0.0, 2024-03-13 20:42:08.526
7.0, -736.8219996201806, -179.18608667701483, -529.2295028297231, -339.1341279819608, 0.01600000075995922, -0.19200000911951065, 1.0400000493973494, 0.0, 0.0, 0.0, 0.0, 0.0, 1.7103877285261393E9, 0.0, 2024-03-13 20:42:08.526
8.0, -884.9033383657224, -78.79408221645281, -652.6387215675786, -264.1397841204889, 0.01600000075995922, -0.19200000911951065, 1.0400000493973494, 0.0, 0.0, 0.0, 0.0, 0.0, 1.7103877285399785E9, 0.0, 2024-03-13 20:42:08.539
8.0, -686.5708338655531, 82.25535962544382, -469.7669634842314, -54.494082254357636, 0.01600000075995922, -0.19200000911951065, 1.0400000493973494, 0.0, 0.0, 0.0, 0.0, 0.0, 1.7103877285399785E9, 0.0, 2024-03-13 20:42:08.539
9.0, -833.7302872720174, 194.717891192995, -643.1281559802592, 52.38103877939284, 0.01600000075995922, -0.19200000911951065, 1.0400000493973494, 0.0, 0.0, 0.0, 0.0, 0.0, 1.7103877285555847E9, 0.0, 2024-03-13 20:42:08.555
9.0, -758.1132500679232, 142.56872621085495, -539.6825232058764, -53.66382446419448, 0.01600000075995922, -0.19200000911951065, 1.0400000493973494, 0.0, 0.0, 0.0, 0.0, 0.0, 1.7103877285555847E9, 0.0, 2024-03-13 20:42:08.555
10.0, -643.4909262759611, 83.96075400523841, -418.45927599212155, -75.27296640817076, 0.01600000075995922, -0.19200000911951065, 1.0400000493973494, 0.0, 0.0, 0.0, 0.0, 0.0, 1.7103877285561855E9, 0.0, 2024-03-13 20:42:08.556
10.0, -511.82026853598654, -31.716221574228257, -306.5427698181011, -152.61596744181588, 0.01600000075995922, -0.19200000911951065, 1.0400000493973494, 0.0, 0.0, 0.0, 0.0, 0.0, 1.7103877285561855E9, 0.0, 2024-03-13 20:42:08.556
11.0, -726.7803682391532, -201.02710241824389, -486.57968373503536, -378.86682511121035, 0.01600000075995922, -0.19200000911951065, 1.0400000493973494, 0.0, 0.0, 0.0, 0.0, 0.0, 1.7103877285697412E9, 0.0, 2024-03-13 20:42:08.569
11.0, -561.3926424486563, -282.1417925572023, -297.40619422635064, -457.04569378495216, 0.01600000075995922, -0.19200000911951065, 1.0400000493973494, 0.0, 0.0, 0.0, 0.0, 0.0, 1.7103877285697412E9, 0.0, 2024-03-13 20:42:08.569
12.0, -641.7855318961665, -257.1630007531494, -423.4857015325688, -370.42213101126254, 0.01600000075995922, -0.19200000911951065, 1.0400000493973494, 0.0, 0.0, 0.0, 0.0, 0.0, 1.7103877285856404E9, 0.0, 2024-03-13 20:42:08.585
12.0, -726.5821535415016, -183.32615592796355, -538.3286794219166, -340.1289413701743, 0.01600000075995922, -0.19200000911951065, 1.0400000493973494, 0.0, 0.0, 0.0, 0.0, 0.0, 1.7103877285856404E9, 0.0, 2024-03-13 20:42:08.585
13.0, -876.2080709687434, -74.9793842616491, -653.5923960562795, -266.86991108814254, 0.01600000075995922, -0.19200000911951065, 1.0400000493973494, 0.0, 0.0, 0.0, 0.0, 0.0, 1.7103877285861945E9, 0.0, 2024-03-13 20:42:08.586
13.0, -694.533080871217, 83.79619840718806, -476.5361824040301, -50.526048401370645, 0.01600000075995922, -0.19200000911951065, 1.0400000493973494, 0.0, 0.0, 0.0, 0.0, 0.0, 1.7103877285861945E9, 0.0, 2024-03-13 20:42:08.586
14.0, -850.5186981731094, 193.6520197056234, -652.7172594666481, 55.11864554695785, 0.01600000075995922, -0.19200000911951065, 1.0400000493973494, 0.0, 0.0, 0.0, 0.0, 0.0, 1.7103877285997343E9, 0.0, 2024-03-13 20:42:08.599
14.0, -763.7530192011036, 137.55726027023047, -539.458129208535, -49.04878791887313, 0.01600000075995922, -0.19200000911951065, 1.0400000493973494, 0.0, 0.0, 0.0, 0.0, 0.0, 1.7103877285997343E9, 0.0, 2024-03-13 20:42:08.599
15.0, -646.7932579368353, 73.97896102350205, -421.4100570571609, -77.97691407613456, 0.01600000075995922, -0.19200000911951065, 1.0400000493973494, 0.0, 0.0, 0.0, 0.0, 0.0, 1.7103877286154056E9, 0.0, 2024-03-13 20:42:08.615
15.0, -506.8349818950519, -34.38651014259085, -320.2382834558375, -154.38120022090152, 0.01600000075995922, -0.19200000911951065, 1.0400000493973494, 0.0, 0.0, 0.0, 0.0, 0.0, 1.7103877286154056E9, 0.0, 2024-03-13 20:42:08.615
16.0, -707.0523959728889, -206.70427055098116, -500.96333896461874, -389.0281332908198, 0.01600000075995922, -0.19200000911951065, 1.0400000493973494, 0.0, 0.0, 0.0, 0.0, 0.0, 1.7103877286161249E9, 0.0, 2024-03-13 20:42:08.616
16.0, -542.678183070384, -286.4651169059798, -309.8226620792411, -465.61380458343774, 0.01600000075995922, -0.19200000911951065, 1.0400000493973494, 0.0, 0.0, 0.0, 0.0, 0.0, 1.7103877286161249E9, 0.0, 2024-03-13 20:42:08.616
17.0, -648.6669478146359, -261.06371640693396, -433.011226719711, -379.7344819009304, 0.01600000075995922, -0.19200000911951065, 1.0400000493973494, 0.0, 0.0, 0.0, 0.0, 0.0, 1.7103877286296332E9, 0.0, 2024-03-13 20:42:08.629
17.0, -746.6654163035564, -181.25051145255566, -535.3180599575862, -338.0832160944119, 0.01600000075995922, -0.19200000911951065, 1.0400000493973494, 0.0, 0.0, 0.0, 0.0, 0.0, 1.7103877286296332E9, 0.0, 2024-03-13 20:42:08.629
18.0, -893.6023456626572, -74.95320496195927, -653.2932040598243, -257.82309309532866, 0.01600000075995922, -0.19200000911951065, 1.0400000493973494, 0.0, 0.0, 0.0, 0.0, 0.0, 1.7103877286453753E9, 0.0, 2024-03-13 20:42:08.645
18.0, -698.4225768251345, 77.08307798672467, -469.2097183908336, -46.6889110468328, 0.01600000075995922, -0.19200000911951065, 1.0400000493973494, 0.0, 0.0, 0.0, 0.0, 0.0, 1.7103877286453753E9, 0.0, 2024-03-13 20:42:08.645
19.0, -864.2329113106243, 184.13397431839257, -653.8467092532665, 46.845986844971776, 0.01600000075995922, -0.19200000911951065, 1.0400000493973494, 0.0, 0.0, 0.0, 0.0, 0.0, 1.710387728646085E9, 0.0, 2024-03-13 20:42:08.646
19.0, -761.5763974268921, 142.9165369067341, -535.0787063604221, -49.647171911783516, 0.01600000075995922, -0.19200000911951065, 1.0400000493973494, 0.0, 0.0, 0.0, 0.0, 0.0, 1.710387728646085E9, 0.0, 2024-03-13 20:42:08.646
20.0, -640.2746123140678, 82.39747582376003, -419.225955483038, -75.42630230635405, 0.01600000075995922, -0.19200000911951065, 1.0400000493973494, 0.0, 0.0, 0.0, 0.0, 0.0, 1.710387728659958E9, 0.0, 2024-03-13 20:42:08.659
20.0, -492.18205386865884, -26.117591340560466, -309.66184638114646, -151.61741415364668, 0.01600000075995922, -0.19200000911951065, 1.0400000493973494, 0.0, 0.0, 0.0, 0.0, 0.0, 1.710387728659958E9, 0.0, 2024-03-13 20:42:08.659
21.0, -700.7880635471083, -205.97125015966594, -490.10640939325094, -383.34348535817116, 0.01600000075995922, -0.19200000911951065, 1.0400000493973494, 0.0, 0.0, 0.0, 0.0, 0.0, 1.7103877286754217E9, 0.0, 2024-03-13 20:42:08.675
21.0, -541.3617382859811, -285.56006111670285, -300.8618617854081, -459.543946955353, 0.01600000075995922, -0.19200000911951065, 1.0400000493973494, 0.0, 0.0, 0.0, 0.0, 0.0, 1.7103877286754217E9, 0.0, 2024-03-13 20:42:08.675
22.0, -642.3240774897859, -255.09483607765287, -429.7762132580392, -374.22560926619917, 0.01600000075995922, -0.19200000911951065, 1.0400000493973494, 0.0, 0.0, 0.0, 0.0, 0.0, 1.7103877286761584E9, 0.0, 2024-03-13 20:42:08.676
22.0, -756.1946813906543, -180.4950516615063, -535.0338275609538, -338.3936277907342, 0.01600000075995922, -0.19200000911951065, 1.0400000493973494, 0.0, 0.0, 0.0, 0.0, 0.0, 1.7103877286761584E9, 0.0, 2024-03-13 20:42:08.676
23.0, -874.2147042923607, -74.72881096461788, -658.3570285998285, -270.27322004782036, 0.01600000075995922, -0.19200000911951065, 1.0400000493973494, 0.0, 0.0, 0.0, 0.0, 0.0, 1.7103877286897702E9, 0.0, 2024-03-13 20:42:08.689
23.0, -688.9344506375492, 88.45237385202199, -474.59143442707136, -49.617252712138, 0.01600000075995922, -0.19200000911951065, 1.0400000493973494, 0.0, 0.0, 0.0, 0.0, 0.0, 1.7103877286897702E9, 0.0, 2024-03-13 20:42:08.689
24.0, -849.8081171815284, 192.48143101949245, -658.3233695002273, 44.6132665714249, 0.01600000075995922, -0.19200000911951065, 1.0400000493973494, 0.0, 0.0, 0.0, 0.0, 0.0, 1.710387728705881E9, 0.0, 2024-03-13 20:42:08.705
24.0, -765.5855701793917, 139.78250074386597, -548.9873942956328, -58.81366670317948, 0.01600000075995922, -0.19200000911951065, 1.0400000493973494, 0.0, 0.0, 0.0, 0.0, 0.0, 1.710387728705881E9, 0.0, 2024-03-13 20:42:08.705
25.0, -655.5969824325293, 77.16535578574985, -429.98938755551353, -89.06945734471083, 0.01600000075995922, -0.19200000911951065, 1.0400000493973494, 0.0, 0.0, 0.0, 0.0, 0.0, 1.710387728706283E9, 0.0, 2024-03-13 20:42:08.706
25.0, -513.6939584137872, -31.996714070905, -321.07228114595637, -163.74964960990474, 0.01600000075995922, -0.19200000911951065, 1.0400000493973494, 0.0, 0.0, 0.0, 0.0, 0.0, 1.710387728706283E9, 0.0, 2024-03-13 20:42:08.706
26.0, -706.689625677187, -204.8044013734907, -492.9711727593094, -383.60901825502515, 0.01600000075995922, -0.19200000911951065, 1.0400000493973494, 0.0, 0.0, 0.0, 0.0, 0.0, 1.710387728720163E9, 0.0, 2024-03-13 20:42:08.720
26.0, -538.3548587216064, -279.4004458896816, -304.7924966388382, -458.75482806470245, 0.01600000075995922, -0.19200000911951065, 1.0400000493973494, 0.0, 0.0, 0.0, 0.0, 0.0, 1.710387728720163E9, 0.0, 2024-03-13 20:42:08.720
27.0, -624.918583096005, -246.3434701813385, -420.8864710633643, -363.26022259611636, 0.01600000075995922, -0.19200000911951065, 1.0400000493973494, 0.0, 0.0, 0.0, 0.0, 0.0, 1.7103877287353745E9, 0.0, 2024-03-13 20:42:08.735
27.0, -732.7941273679025, -176.62799510732293, -527.819560546428, -333.69631344638765, 0.01600000075995922, -0.19200000911951065, 1.0400000493973494, 0.0, 0.0, 0.0, 0.0, 0.0, 1.7103877287353745E9, 0.0, 2024-03-13 20:42:08.735
28.0, -880.639852416236, -67.21535195363685, -643.0346584813669, -256.6300650094636, 0.01600000075995922, -0.19200000911951065, 1.0400000493973494, 0.0, 0.0, 0.0, 0.0, 0.0, 1.7103877287361042E9, 0.0, 2024-03-13 20:42:08.736
28.0, -684.8168207863346, 90.03809143323451, -457.69456642726436, -40.18896492384374, 0.01600000075995922, -0.19200000911951065, 1.0400000493973494, 0.0, 0.0, 0.0, 0.0, 0.0, 1.7103877287361042E9, 0.0, 2024-03-13 20:42:08.736
29.0, -849.4416069858707, 190.97051143739372, -632.8583907019347, 63.9560291422531, 0.01600000075995922, -0.19200000911951065, 1.0400000493973494, 0.0, 0.0, 0.0, 0.0, 0.0, 1.7103877287496877E9, 0.0, 2024-03-13 20:42:08.749
29.0, -749.8817302654497, 156.16700244974345, -505.7204917082563, -20.46099265757948, 0.01600000075995922, -0.19200000911951065, 1.0400000493973494, 0.0, 0.0, 0.0, 0.0, 0.0, 1.7103877287496877E9, 0.0, 2024-03-13 20:42:08.749
30.0, -659.9876249805093, 71.16281635686755, -409.34139990014955, -70.7028086623177, 0.01600000075995922, -0.19200000911951065, 1.0400000493973494, 0.0, 0.0, 0.0, 0.0, 0.0, 1.7103877287653964E9, 0.0, 2024-03-13 20:42:08.765
30.0, -527.4792296504602, -48.2278798785992, -312.36579404911026, -159.19071156391874, 0.01600000075995922, -0.19200000911951065, 1.0400000493973494, 0.0, 0.0, 0.0, 0.0, 0.0, 1.7103877287653964E9, 0.0, 2024-03-13 20:42:08.765
31.0, -713.2494101994671, -210.42173110693693, -492.7505186619237, -384.4018770456314, 0.01600000075995922, -0.19200000911951065, 1.0400000493973494, 0.0, 0.0, 0.0, 0.0, 0.0, 1.7103877287661304E9, 0.0, 2024-03-13 20:42:08.766
31.0, -540.0041546020657, -279.63231968693435, -300.9703188841231, -454.24076881818473, 0.01600000075995922, -0.19200000911951065, 1.0400000493973494, 0.0, 0.0, 0.0, 0.0, 0.0, 1.7103877287661304E9, 0.0, 2024-03-13 20:42:08.766
32.0, -630.1357435341924, -256.9834855552763, -429.9183294563554, -373.5898262737319, 0.01600000075995922, -0.19200000911951065, 1.0400000493973494, 0.0, 0.0, 0.0, 0.0, 0.0, 1.7103877287797122E9, 0.0, 2024-03-13 20:42:08.779
32.0, -737.6522574103437, -179.39926097448915, -535.4863554555923, -343.6444473285228, 0.01600000075995922, -0.19200000911951065, 1.0400000493973494, 0.0, 0.0, 0.0, 0.0, 0.0, 1.7103877287797122E9, 0.0, 2024-03-13 20:42:08.779
33.0, -887.1136192395352, -66.5683492613025, -655.0846161385998, -262.8794378354214, 0.01600000075995922, -0.19200000911951065, 1.0400000493973494, 0.0, 0.0, 0.0, 0.0, 0.0, 1.7103877287954023E9, 0.0, 2024-03-13 20:42:08.795
33.0, -701.7099488861859, 86.76193907205015, -480.41071875812486, -55.0251480480656, 0.01600000075995922, -0.19200000911951065, 1.0400000493973494, 0.0, 0.0, 0.0, 0.0, 0.0, 1.7103877287954023E9, 0.0, 2024-03-13 20:42:08.795
34.0, -838.5023996154778, 191.65491312928498, -660.7954433709383, 46.57297414820641, 0.01600000075995922, -0.19200000911951065, 1.0400000493973494, 0.0, 0.0, 0.0, 0.0, 0.0, 1.7103877287961235E9, 0.0, 2024-03-13 20:42:08.796
34.0, -754.3471708125435, 148.58622523956, -542.1246778769419, -50.38767210301012, 0.01600000075995922, -0.19200000911951065, 1.0400000493973494, 0.0, 0.0, 0.0, 0.0, 0.0, 1.7103877287961235E9, 0.0, 2024-03-13 20:42:08.796
35.0, -655.6792602315545, 73.27211993187666, -429.851011257153, -83.4820468109101, 0.01600000075995922, -0.19200000911951065, 1.0400000493973494, 0.0, 0.0, 0.0, 0.0, 0.0, 1.7103877288097768E9, 0.0, 2024-03-13 20:42:08.809
35.0, -495.6152820279822, -32.76713346177712, -316.41236580116674, -154.45225832005963, 0.01600000075995922, -0.19200000911951065, 1.0400000493973494, 0.0, 0.0, 0.0, 0.0, 0.0, 1.7103877288097768E9, 0.0, 2024-03-13 20:42:08.809
36.0, -686.849456412252, -204.03398198261857, -491.10870258137584, -382.00834107398987, 0.01600000075995922, -0.19200000911951065, 1.0400000493973494, 0.0, 0.0, 0.0, 0.0, 0.0, 1.7103877288256361E9, 0.0, 2024-03-13 20:42:08.825
36.0, -553.0526655474678, -283.2375832442194, -296.62829503556713, -458.2985602701083, 0.01600000075995922, -0.19200000911951065, 1.0400000493973494, 0.0, 0.0, 0.0, 0.0, 0.0, 1.7103877288256361E9, 0.0, 2024-03-13 20:42:08.825
37.0, -628.0451394589618, -249.61962254252285, -419.79816017625853, -364.2550359843299, 0.01600000075995922, -0.19200000911951065, 1.0400000493973494, 0.0, 0.0, 0.0, 0.0, 0.0, 1.710387728826132E9, 0.0, 2024-03-13 20:42:08.826
37.0, -742.364531354513, -171.80726406443864, -520.9942431272939, -327.51051891967654, 0.01600000075995922, -0.19200000911951065, 1.0400000493973494, 0.0, 0.0, 0.0, 0.0, 0.0, 1.710387728826132E9, 0.0, 2024-03-13 20:42:08.826
38.0, -895.184323343914, -60.03474403871223, -638.2849855376408, -249.24002269702032, 0.01600000075995922, -0.19200000911951065, 1.0400000493973494, 0.0, 0.0, 0.0, 0.0, 0.0, 1.7103877288396704E9, 0.0, 2024-03-13 20:42:08.839
38.0, -678.1934579648077, 89.49954583961517, -462.1001685750671, -37.89266635105014, 0.01600000075995922, -0.19200000911951065, 1.0400000493973494, 0.0, 0.0, 0.0, 0.0, 0.0, 1.7103877288396704E9, 0.0, 2024-03-13 20:42:08.839
39.0, -827.8549044416286, 205.99368955940008, -634.1112571870908, 70.2914196671918, 0.01600000075995922, -0.19200000911951065, 1.0400000493973494, 0.0, 0.0, 0.0, 0.0, 0.0, 1.7103877288559697E9, 0.0, 2024-03-13 20:42:08.855
39.0, -773.8956278809346, 155.97252765204757, -528.2982677407563, -30.857914534397423, 0.01600000075995922, -0.19200000911951065, 1.0400000493973494, 0.0, 0.0, 0.0, 0.0, 0.0, 1.7103877288559697E9, 0.0, 2024-03-13 20:42:08.855
40.0, -666.1210609078407, 88.72912644874305, -411.04305437998846, -63.14447085186839, 0.01600000075995922, -0.19200000911951065, 1.0400000493973494, 0.0, 0.0, 0.0, 0.0, 0.0, 1.7103877288563645E9, 0.0, 2024-03-13 20:42:08.856
40.0, -527.8457398461178, -24.273820662405342, -308.1658863988705, -147.03603670792654, 0.01600000075995922, -0.19200000911951065, 1.0400000493973494, 0.0, 0.0, 0.0, 0.0, 0.0, 1.7103877288563645E9, 0.0, 2024-03-13 20:42:08.856
41.0, -707.437605668325, -195.62668688222766, -488.54313121177256, -377.15769083146006, 0.01600000075995922, -0.19200000911951065, 1.0400000493973494, 0.0, 0.0, 0.0, 0.0, 0.0, 1.7103877288696873E9, 0.0, 2024-03-13 20:42:08.869
41.0, -541.6833696821705, -283.82474753726274, -294.72842585807666, -461.1034852368757, 0.01600000075995922, -0.19200000911951065, 1.0400000493973494, 0.0, 0.0, 0.0, 0.0, 0.0, 1.7103877288696873E9, 0.0, 2024-03-13 20:42:08.869
42.0, -640.091357216239, -256.74039205815643, -423.5978985312395, -369.8798455176875, 0.01600000075995922, -0.19200000911951065, 1.0400000493973494, 0.0, 0.0, 0.0, 0.0, 0.0, 1.71038772888573E9, 0.0, 2024-03-13 20:42:08.885
42.0, -747.140383597929, -183.77120402269065, -529.1397452307865, -339.02567088324577, 0.01600000075995922, -0.19200000911951065, 1.0400000493973494, 0.0, 0.0, 0.0, 0.0, 0.0, 1.71038772888573E9, 0.0, 2024-03-13 20:42:08.885
43.0, -888.7965742195956, -78.64074631826952, -653.7756511541083, -263.75831432500854, 0.01600000075995922, -0.19200000911951065, 1.0400000493973494, 0.0, 0.0, 0.0, 0.0, 0.0, 1.7103877288862095E9, 0.0, 2024-03-13 20:42:08.886
43.0, -691.7879943037406, 80.31435154844075, -470.9038930707611, -48.951550520025194, 0.01600000075995922, -0.19200000911951065, 1.0400000493973494, 0.0, 0.0, 0.0, 0.0, 0.0, 1.7103877288862095E9, 0.0, 2024-03-13 20:42:08.886
44.0, -864.1132345120423, 181.415067050606, -653.0875095622614, 50.84767979755998, 0.01600000075995922, -0.19200000911951065, 1.0400000493973494, 0.0, 0.0, 0.0, 0.0, 0.0, 1.7103877288996832E9, 0.0, 2024-03-13 20:42:08.899
44.0, -779.86076831026, 128.55906097684056, -544.0918652536348, -57.19802992232144, 0.01600000075995922, -0.19200000911951065, 1.0400000493973494, 0.0, 0.0, 0.0, 0.0, 0.0, 1.7103877288996832E9, 0.0, 2024-03-13 20:42:08.899
45.0, -653.2258858606219, 67.55755279958248, -421.3689181576483, -81.05111183971167, 0.01600000075995922, -0.19200000911951065, 1.0400000493973494, 0.0, 0.0, 0.0, 0.0, 0.0, 1.7103877289154284E9, 0.0, 2024-03-13 20:42:08.915
45.0, -518.8625001525506, -40.269372772891074, -314.6097340225242, -158.03134257765487, 0.01600000075995922, -0.19200000911951065, 1.0400000493973494, 0.0, 0.0, 0.0, 0.0, 0.0, 1.7103877289154284E9, 0.0, 2024-03-13 20:42:08.915
46.0, -724.4466706668027, -213.93723706528544, -495.3534890310839, -386.94874891545624, 0.01600000075995922, -0.19200000911951065, 1.0400000493973494, 0.0, 0.0, 0.0, 0.0, 0.0, 1.7103877289161687E9, 0.0, 2024-03-13 20:42:08.916
46.0, -554.208294633776, -304.42785639315844, -308.89142699027434, -473.2955590924248, 0.01600000075995922, -0.19200000911951065, 1.0400000493973494, 0.0, 0.0, 0.0, 0.0, 0.0, 1.7103877289161687E9, 0.0, 2024-03-13 20:42:08.916
47.0, -634.7470401795581, -270.6565597932786, -431.46290813805535, -384.0652860496193, 0.01600000075995922, -0.19200000911951065, 1.0400000493973494, 0.0, 0.0, 0.0, 0.0, 0.0, 1.7103877289297452E9, 0.0, 2024-03-13 20:42:08.929
47.0, -745.5658857165836, -198.92527864314616, -538.867225015536, -353.22233111504465, 0.01600000075995922, -0.19200000911951065, 1.0400000493973494, 0.0, 0.0, 0.0, 0.0, 0.0, 1.7103877289297452E9, 0.0, 2024-03-13 20:42:08.929
48.0, -896.6279247268103, -93.0244015478529, -659.9165668813512, -272.786432818044, 0.01600000075995922, -0.19200000911951065, 1.0400000493973494, 0.0, 0.0, 0.0, 0.0, 0.0, 1.710387728945428E9, 0.0, 2024-03-13 20:42:08.945
48.0, -701.683769586496, 67.6622699983418, -484.85371990548447, -59.16895719897002, 0.01600000075995922, -0.19200000911951065, 1.0400000493973494, 0.0, 0.0, 0.0, 0.0, 0.0, 1.710387728945428E9, 0.0, 2024-03-13 20:42:08.945
49.0, -853.8135500340723, 179.81438986957073, -655.9485330283642, 41.84200070425868, 0.01600000075995922, -0.19200000911951065, 1.0400000493973494, 0.0, 0.0, 0.0, 0.0, 0.0, 1.7103877289462707E9, 0.0, 2024-03-13 20:42:08.946
49.0, -782.8900872743689, 130.4364907545969, -543.7440545577556, -55.331819844432175, 0.01600000075995922, -0.19200000911951065, 1.0400000493973494, 0.0, 0.0, 0.0, 0.0, 0.0, 1.7103877289462707E9, 0.0, 2024-03-13 20:42:08.946
50.0, -668.3837003810331, 69.4424623772502, -423.253827735316, -82.65178902074695, 0.01600000075995922, -0.19200000911951065, 1.0400000493973494, 0.0, 0.0, 0.0, 0.0, 0.0, 1.7103877289598868E9, 0.0, 2024-03-13 20:42:08.959
50.0, -515.1637390963733, -36.05824542278424, -313.0651553408243, -157.5002767839469, 0.01600000075995922, -0.19200000911951065, 1.0400000493973494, 0.0, 0.0, 0.0, 0.0, 0.0, 1.7103877289598868E9, 0.0, 2024-03-13 20:42:08.959
51.0, -706.8878403748386, -205.47384346555918, -486.10845634061843, -376.82109983544797, 0.01600000075995922, -0.19200000911951065, 1.0400000493973494, 0.0, 0.0, 0.0, 0.0, 0.0, 1.7103877289754307E9, 0.0, 2024-03-13 20:42:08.975
51.0, -533.9006378743798, -287.23553629685193, -293.3147436748259, -451.04689425602555, 0.01600000075995922, -0.19200000911951065, 1.0400000493973494, 0.0, 0.0, 0.0, 0.0, 0.0, 1.7103877289754307E9, 0.0, 2024-03-13 20:42:08.975
52.0, -647.6758743263781, -264.2725505689159, -427.7379677821882, -379.4726889040321, 0.01600000075995922, -0.19200000911951065, 1.0400000493973494, 0.0, 0.0, 0.0, 0.0, 0.0, 1.7103877289761176E9, 0.0, 2024-03-13 20:42:08.976
52.0, -755.1288099032827, -184.33592891599983, -526.9032850572839, -338.7264788867906, 0.01600000075995922, -0.19200000911951065, 1.0400000493973494, 0.0, 0.0, 0.0, 0.0, 0.0, 1.7103877289761176E9, 0.0, 2024-03-13 20:42:08.976
53.0, -899.0476399981417, -68.93570593325421, -644.336143665947, -258.3990376885049, 0.01600000075995922, -0.19200000911951065, 1.0400000493973494, 0.0, 0.0, 0.0, 0.0, 0.0, 1.7103877289900396E9, 0.0, 2024-03-13 20:42:08.990
53.0, -674.5059166084975, 90.7112734252587, -464.73305814387277, -43.73065018188208, 0.01600000075995922, -0.19200000911951065, 1.0400000493973494, 0.0, 0.0, 0.0, 0.0, 0.0, 1.7103877289900396E9, 0.0, 2024-03-13 20:42:08.990
54.0, -841.5242387796752, 191.1612463351339, -646.8418766362593, 55.57865324150771, 0.01600000075995922, -0.19200000911951065, 1.0400000493973494, 0.0, 0.0, 0.0, 0.0, 0.0, 1.7103877290054235E9, 0.0, 2024-03-13 20:42:09.005
54.0, -788.7841696045361, 146.34976506605744, -533.560306978412, -40.14034622441977, 0.01600000075995922, -0.19200000911951065, 1.0400000493973494, 0.0, 0.0, 0.0, 0.0, 0.0, 1.7103877290054235E9, 0.0, 2024-03-13 20:42:09.005
55.0, -671.4765976443887, 81.58217763341963, -415.23922213027254, -69.95108877122402, 0.01600000075995922, -0.19200000911951065, 1.0400000493973494, 0.0, 0.0, 0.0, 0.0, 0.0, 1.7103877290061264E9, 0.0, 2024-03-13 20:42:09.006
55.0, -490.76463178545237, -29.479761400725693, -303.2815770567395, -142.92588665662333, 0.01600000075995922, -0.19200000911951065, 1.0400000493973494, 0.0, 0.0, 0.0, 0.0, 0.0, 1.7103877290061264E9, 0.0, 2024-03-13 20:42:09.006
56.0, -685.0206453339197, -199.02625594194978, -491.35553597845137, -375.78514754772186, 0.01600000075995922, -0.19200000911951065, 1.0400000493973494, 0.0, 0.0, 0.0, 0.0, 0.0, 1.710387729020033E9, 0.0, 2024-03-13 20:42:09.020
56.0, -523.6196528961882, -278.82450129650533, -298.99191180756316, -457.59919897839427, 0.01600000075995922, -0.19200000911951065, 1.0400000493973494, 0.0, 0.0, 0.0, 0.0, 0.0, 1.710387729020033E9, 0.0, 2024-03-13 20:42:09.020
57.0, -624.1481637051329, -254.83304308075458, -427.53227328462526, -374.7753745596856, 0.01600000075995922, -0.19200000911951065, 1.0400000493973494, 0.0, 0.0, 0.0, 0.0, 0.0, 1.7103877290358467E9, 0.0, 2024-03-13 20:42:09.035
57.0, -746.5606991047971, -186.28815669286996, -531.9671095972881, -340.2336585689336, 0.01600000075995922, -0.19200000911951065, 1.0400000493973494, 0.0, 0.0, 0.0, 0.0, 0.0, 1.7103877290358467E9, 0.0, 2024-03-13 20:42:09.035
58.0, -891.867032083217, -74.90084636257961, -647.6945738261566, -256.5477872104384, 0.01600000075995922, -0.19200000911951065, 1.0400000493973494, 0.0, 0.0, 0.0, 0.0, 0.0, 1.7103877290363595E9, 0.0, 2024-03-13 20:42:09.036
58.0, -696.9976749420166, 83.77749890740961, -466.0607226281427, -43.73065018188208, 0.01600000075995922, -0.19200000911951065, 1.0400000493973494, 0.0, 0.0, 0.0, 0.0, 0.0, 1.7103877290363595E9, 0.0, 2024-03-13 20:42:09.036
59.0, -856.7568512992002, 179.21600587666035, -655.9672325281426, 47.02924194280058, 0.01600000075995922, -0.19200000911951065, 1.0400000493973494, 0.0, 0.0, 0.0, 0.0, 0.0, 1.7103877290496836E9, 0.0, 2024-03-13 20:42:09.049
59.0, -770.7765513178892, 130.57486705295742, -544.3237390508875, -54.42302415519953, 0.01600000075995922, -0.19200000911951065, 1.0400000493973494, 0.0, 0.0, 0.0, 0.0, 0.0, 1.7103877290496836E9, 0.0, 2024-03-13 20:42:09.049
60.0, -658.229872001335, 68.35041159018874, -422.8536584400572, -79.19986136164516, 0.01600000075995922, -0.19200000911951065, 1.0400000493973494, 0.0, 0.0, 0.0, 0.0, 0.0, 1.7103877290654583E9, 0.0, 2024-03-13 20:42:09.065
60.0, -511.07228854484856, -29.5134205003269, -303.47605185443535, -148.00093089649454, 0.01600000075995922, -0.19200000911951065, 1.0400000493973494, 0.0, 0.0, 0.0, 0.0, 0.0, 1.7103877290654583E9, 0.0, 2024-03-13 20:42:09.065
61.0, -719.9887099196203, -204.8380604730919, -488.95078030694276, -378.30584011785686, 0.01600000075995922, -0.19200000911951065, 1.0400000493973494, 0.0, 0.0, 0.0, 0.0, 0.0, 1.7103877290661352E9, 0.0, 2024-03-13 20:42:09.066
61.0, -556.4858937067911, -281.939837959595, -299.10784870618954, -456.45478959195316, 0.01600000075995922, -0.19200000911951065, 1.0400000493973494, 0.0, 0.0, 0.0, 0.0, 0.0, 1.7103877290661352E9, 0.0, 2024-03-13 20:42:09.066
62.0, -655.323969735764, -262.62325468845665, -429.34986466309056, -377.7672945242375, 0.01600000075995922, -0.19200000911951065, 1.0400000493973494, 0.0, 0.0, 0.0, 0.0, 0.0, 1.710387729079743E9, 0.0, 2024-03-13 20:42:09.079
62.0, -742.9516956475563, -185.14374730642885, -536.2792142461985, -341.1948128575459, 0.01600000075995922, -0.19200000911951065, 1.0400000493973494, 0.0, 0.0, 0.0, 0.0, 0.0, 1.710387729079743E9, 0.0, 2024-03-13 20:42:09.079
63.0, -877.4945965535007, -68.4233396393247, -643.7601990727708, -254.3636856363155, 0.01600000075995922, -0.19200000911951065, 1.0400000493973494, 0.0, 0.0, 0.0, 0.0, 0.0, 1.7103877290954146E9, 0.0, 2024-03-13 20:42:09.095
63.0, -689.2822613334283, 81.4101422354579, -465.1257476392202, -47.242416240274906, 0.01600000075995922, -0.19200000911951065, 1.0400000493973494, 0.0, 0.0, 0.0, 0.0, 0.0, 1.7103877290954146E9, 0.0, 2024-03-13 20:42:09.095
64.0, -840.9258547867648, 184.63138101249933, -647.810510724783, 54.576360053382814, 0.01600000075995922, -0.19200000911951065, 1.0400000493973494, 0.0, 0.0, 0.0, 0.0, 0.0, 1.710387729096074E9, 0.0, 2024-03-13 20:42:09.096
64.0, -751.7591600432061, 142.8417389076203, -529.1808841302991, -37.09606766048819, 0.01600000075995922, -0.19200000911951065, 1.0400000493973494, 0.0, 0.0, 0.0, 0.0, 0.0, 1.710387729096074E9, 0.0, 2024-03-13 20:42:09.096
65.0, -654.901361040771, 70.42979596555233, -418.6986295892857, -75.80777210183442, 0.01600000075995922, -0.19200000911951065, 1.0400000493973494, 0.0, 0.0, 0.0, 0.0, 0.0, 1.710387729109876E9, 0.0, 2024-03-13 20:42:09.109
65.0, -515.3095951946452, -24.606671758461744, -301.4976447778754, -143.70752574736252, 0.01600000075995922, -0.19200000911951065, 1.0400000493973494, 0.0, 0.0, 0.0, 0.0, 0.0, 1.710387729109876E9, 0.0, 2024-03-13 20:42:09.109
66.0, -707.9649315620773, -201.93589810747653, -485.58113044686615, -379.12487820815295, 0.01600000075995922, -0.19200000911951065, 1.0400000493973494, 0.0, 0.0, 0.0, 0.0, 0.0, 1.7103877291253817E9, 0.0, 2024-03-13 20:42:09.125
66.0, -526.5704339612275, -278.5066098002717, -294.5638702600263, -452.6999300364405, 0.01600000075995922, -0.19200000911951065, 1.0400000493973494, 0.0, 0.0, 0.0, 0.0, 0.0, 1.7103877291253817E9, 0.0, 2024-03-13 20:42:09.125
67.0, -624.2715804036707, -249.88889533933252, -422.20665574772283, -369.00470892805606, 0.01600000075995922, -0.19200000911951065, 1.0400000493973494, 0.0, 0.0, 0.0, 0.0, 0.0, 1.7103877291261876E9, 0.0, 2024-03-13 20:42:09.126
67.0, -755.715974196326, -176.13432831317186, -532.3149202931672, -338.18419339321554, 0.01600000075995922, -0.19200000911951065, 1.0400000493973494, 0.0, 0.0, 0.0, 0.0, 0.0, 1.7103877291261876E9, 0.0, 2024-03-13 20:42:09.126
68.0, -902.0395599626936, -64.33562898775563, -642.2417996907607, -250.81452057836577, 0.01600000075995922, -0.19200000911951065, 1.0400000493973494, 0.0, 0.0, 0.0, 0.0, 0.0, 1.7103877291397872E9, 0.0, 2024-03-13 20:42:09.139
68.0, -706.6914956271648, 93.81165048852563, -462.836928866338, -41.15385911241174, 0.01600000075995922, -0.19200000911951065, 1.0400000493973494, 0.0, 0.0, 0.0, 0.0, 0.0, 1.7103877291397872E9, 0.0, 2024-03-13 20:42:09.139
69.0, -865.0182903013192, 194.4224390964955, -646.5987831391394, 55.60483254119754, 0.01600000075995922, -0.19200000911951065, 1.0400000493973494, 0.0, 0.0, 0.0, 0.0, 0.0, 1.710387729155517E9, 0.0, 2024-03-13 20:42:09.155
69.0, -756.8903027824126, 149.79421292524785, -537.3563054334372, -42.62363979499787, 0.01600000075995922, -0.19200000911951065, 1.0400000493973494, 0.0, 0.0, 0.0, 0.0, 0.0, 1.710387729155517E9, 0.0, 2024-03-13 20:42:09.155
70.0, -635.6670555686578, 83.20155431423336, -413.79562074737623, -69.3302653785795, 0.01600000075995922, -0.19200000911951065, 1.0400000493973494, 0.0, 0.0, 0.0, 0.0, 0.0, 1.7103877291561348E9, 0.0, 2024-03-13 20:42:09.156
70.0, -481.1605686992407, -28.297953014727682, -307.55254280613735, -145.41292012715712, 0.01600000075995922, -0.19200000911951065, 1.0400000493973494, 0.0, 0.0, 0.0, 0.0, 0.0, 1.7103877291561348E9, 0.0, 2024-03-13 20:42:09.156
71.0, -666.504400653299, -195.87726017925888, -481.57943749427795, -372.2060632901266, 0.01600000075995922, -0.19200000911951065, 1.0400000493973494, 0.0, 0.0, 0.0, 0.0, 0.0, 1.7103877291698868E9, 0.0, 2024-03-13 20:42:09.169
71.0, -522.4902031095698, -271.48307768348604, -291.1867406000383, -447.2508958010003, 0.01600000075995922, -0.19200000911951065, 1.0400000493973494, 0.0, 0.0, 0.0, 0.0, 0.0, 1.7103877291698868E9, 0.0, 2024-03-13 20:42:09.169
72.0, -631.732680815272, -245.56931089051068, -415.49727522721514, -360.7619694257155, 0.01600000075995922, -0.19200000911951065, 1.0400000493973494, 0.0, 0.0, 0.0, 0.0, 0.0, 1.7103877291855109E9, 0.0, 2024-03-13 20:42:09.185
72.0, -736.0740196290426, -167.68589431326836, -522.0713343145326, -325.7752053402364, 0.01600000075995922, -0.19200000911951065, 1.0400000493973494, 0.0, 0.0, 0.0, 0.0, 0.0, 1.7103877291855109E9, 0.0, 2024-03-13 20:42:09.185
73.0, -886.8219070429914, -56.83338967664167, -648.5472710160539, -252.25812196126208, 0.01600000075995922, -0.19200000911951065, 1.0400000493973494, 0.0, 0.0, 0.0, 0.0, 0.0, 1.7103877291864157E9, 0.0, 2024-03-13 20:42:09.186
73.0, -693.459729583934, 94.43247388117015, -467.7511574081145, -45.0957136657089, 0.01600000075995922, -0.19200000911951065, 1.0400000493973494, 0.0, 0.0, 0.0, 0.0, 0.0, 1.7103877291864157E9, 0.0, 2024-03-13 20:42:09.186
74.0, -845.3651160341688, 200.0622082296759, -646.1125961448997, 53.81716036237776, 0.01600000075995922, -0.19200000911951065, 1.0400000493973494, 0.0, 0.0, 0.0, 0.0, 0.0, 1.710387729199667E9, 0.0, 2024-03-13 20:42:09.199
74.0, -760.4656471400522, 153.93054227624089, -537.4086640328169, -44.72920347005129, 0.01600000075995922, -0.19200000911951065, 1.0400000493973494, 0.0, 0.0, 0.0, 0.0, 0.0, 1.710387729199667E9, 0.0, 2024-03-13 20:42:09.199
75.0, -651.8533425768837, 83.79993830714375, -422.53950684377924, -74.74564051441848, 0.01600000075995922, -0.19200000911951065, 1.0400000493973494, 0.0, 0.0, 0.0, 0.0, 0.0, 1.7103877292153764E9, 0.0, 2024-03-13 20:42:09.215
75.0, -507.5717421863228, -22.3627317850478, -308.1995454984717, -145.46901862649247, 0.01600000075995922, -0.19200000911951065, 1.0400000493973494, 0.0, 0.0, 0.0, 0.0, 0.0, 1.7103877292153764E9, 0.0, 2024-03-13 20:42:09.215
76.0, -709.9844775381498, -201.48711011279374, -490.9104878837243, -382.1018385728821, 0.01600000075995922, -0.19200000911951065, 1.0400000493973494, 0.0, 0.0, 0.0, 0.0, 0.0, 1.7103877292160997E9, 0.0, 2024-03-13 20:42:09.216
76.0, -539.1738968119025, -281.240476667881, -297.7951438217424, -456.7053628889844, 0.01600000075995922, -0.19200000911951065, 1.0400000493973494, 0.0, 0.0, 0.0, 0.0, 0.0, 1.7103877292160997E9, 0.0, 2024-03-13 20:42:09.216
77.0, -627.9441621601582, -257.0508037544787, -421.0622463612817, -369.68163082003593, 0.01600000075995922, -0.19200000911951065, 1.0400000493973494, 0.0, 0.0, 0.0, 0.0, 0.0, 1.7103877292298691E9, 0.0, 2024-03-13 20:42:09.229
77.0, -703.8996603102423, -183.72632522322237, -529.4800761267543, -331.4112345734611, 0.01600000075995922, -0.19200000911951065, 1.0400000493973494, 0.0, 0.0, 0.0, 0.0, 0.0, 1.7103877292298691E9, 0.0, 2024-03-13 20:42:09.229
78.0, -865.8148889918812, -62.390881010796875, -630.7864861264825, -241.15809889277443, 0.01600000075995922, -0.19200000911951065, 1.0400000493973494, 0.0, 0.0, 0.0, 0.0, 0.0, 1.7103877292453997E9, 0.0, 2024-03-13 20:42:09.245
78.0, -672.5162898320705, 93.75555198919028, -456.58007624046877, -34.436998791992664, 0.01600000075995922, -0.19200000911951065, 1.0400000493973494, 0.0, 0.0, 0.0, 0.0, 0.0, 1.7103877292453997E9, 0.0, 2024-03-13 20:42:09.245
79.0, -860.5528497542255, 184.17137331794947, -650.6416149912402, 47.51542893704027, 0.01600000075995922, -0.19200000911951065, 1.0400000493973494, 0.0, 0.0, 0.0, 0.0, 0.0, 1.710387729246076E9, 0.0, 2024-03-13 20:42:09.246
79.0, -762.047624821309, 152.56173889245838, -524.4648702861741, -33.11681410763413, 0.01600000075995922, -0.19200000911951065, 1.0400000493973494, 0.0, 0.0, 0.0, 0.0, 0.0, 1.710387729246076E9, 0.0, 2024-03-13 20:42:09.246
80.0, -650.2713648956269, 87.0798305682838, -406.41679813480005, -66.2149287154898, 0.01600000075995922, -0.19200000911951065, 1.0400000493973494, 0.0, 0.0, 0.0, 0.0, 0.0, 1.7103877292596831E9, 0.0, 2024-03-13 20:42:09.259
80.0, -513.0282562216744, -26.921669831033796, -301.84919537371024, -141.18309327727184, 0.01600000075995922, -0.19200000911951065, 1.0400000493973494, 0.0, 0.0, 0.0, 0.0, 0.0, 1.7103877292596831E9, 0.0, 2024-03-13 20:42:09.259
81.0, -719.3716264269315, -195.1704190876335, -475.32632476836443, -365.23114987276495, 0.01600000075995922, -0.19200000911951065, 1.0400000493973494, 0.0, 0.0, 0.0, 0.0, 0.0, 1.7103877292753704E9, 0.0, 2024-03-13 20:42:09.275
81.0, -550.1953819813207, -286.2369830086827, -290.1545282122679, -452.9654629332945, 0.01600000075995922, -0.19200000911951065, 1.0400000493973494, 0.0, 0.0, 0.0, 0.0, 0.0, 1.7103877292753704E9, 0.0, 2024-03-13 20:42:09.275
82.0, -642.3502567894757, -258.2026929408312, -414.883931634482, -368.1071329386905, 0.01600000075995922, -0.19200000911951065, 1.0400000493973494, 0.0, 0.0, 0.0, 0.0, 0.0, 1.7103877292760656E9, 0.0, 2024-03-13 20:42:09.276
82.0, -737.9402297069319, -187.7579373754561, -523.0848472025245, -336.89018800854683, 0.01600000075995922, -0.19200000911951065, 1.0400000493973494, 0.0, 0.0, 0.0, 0.0, 0.0, 1.7103877292760656E9, 0.0, 2024-03-13 20:42:09.276
83.0, -887.1210990394466, -73.46846467955038, -644.769972060807, -256.67494380893186, 0.01600000075995922, -0.19200000911951065, 1.0400000493973494, 0.0, 0.0, 0.0, 0.0, 0.0, 1.7103877292896466E9, 0.0, 2024-03-13 20:42:09.289
83.0, -688.2425691457465, 80.00767975207418, -467.3622078127228, -46.65899184718728, 0.01600000075995922, -0.19200000911951065, 1.0400000493973494, 0.0, 0.0, 0.0, 0.0, 0.0, 1.7103877292896466E9, 0.0, 2024-03-13 20:42:09.289
84.0, -845.724146429915, 183.00452453177422, -647.7357127256691, 51.01597529556602, 0.01600000075995922, -0.19200000911951065, 1.0400000493973494, 0.0, 0.0, 0.0, 0.0, 0.0, 1.7103877293055787E9, 0.0, 2024-03-13 20:42:09.305
84.0, -755.0951508036815, 146.27496706694365, -531.3126271050423, -43.3903192859143, 0.01600000075995922, -0.19200000911951065, 1.0400000493973494, 0.0, 0.0, 0.0, 0.0, 0.0, 1.7103877293055787E9, 0.0, 2024-03-13 20:42:09.305
85.0, -641.4751201998442, 87.21820686664432, -407.8005611184053, -65.28743352647871, 0.01600000075995922, -0.19200000911951065, 1.0400000493973494, 0.0, 0.0, 0.0, 0.0, 0.0, 1.7103877293062608E9, 0.0, 2024-03-13 20:42:09.306
85.0, -510.5300030512735, -23.89983066683635, -298.7936971099116, -140.47999208560213, 0.01600000075995922, -0.19200000911951065, 1.0400000493973494, 0.0, 0.0, 0.0, 0.0, 0.0, 1.7103877293062608E9, 0.0, 2024-03-13 20:42:09.306
86.0, -716.0692947660573, -189.76252375170588, -478.57629782985896, -367.2170367492363, 0.01600000075995922, -0.19200000911951065, 1.0400000493973494, 0.0, 0.0, 0.0, 0.0, 0.0, 1.710387729319682E9, 0.0, 2024-03-13 20:42:09.319
86.0, -543.0185139663517, -266.8306421386078, -285.124362771865, -442.49000315740705, 0.01600000075995922, -0.19200000911951065, 1.0400000493973494, 0.0, 0.0, 0.0, 0.0, 0.0, 1.710387729319682E9, 0.0, 2024-03-13 20:42:09.319
87.0, -632.0056935120374, -246.75485917646438, -411.3609458762221, -362.6244396036491, 0.01600000075995922, -0.19200000911951065, 1.0400000493973494, 0.0, 0.0, 0.0, 0.0, 0.0, 1.7103877293356276E9, 0.0, 2024-03-13 20:42:09.335
87.0, -733.1120188641362, -170.79375117644668, -520.3509803349152, -324.84397025126964, 0.01600000075995922, -0.19200000911951065, 1.0400000493973494, 0.0, 0.0, 0.0, 0.0, 0.0, 1.7103877293356276E9, 0.0, 2024-03-13 20:42:09.335
88.0, -879.6487789279781, -60.14694103738293, -638.4645007355139, -245.4365444420837, 0.01600000075995922, -0.19200000911951065, 1.0400000493973494, 0.0, 0.0, 0.0, 0.0, 0.0, 1.710387729336308E9, 0.0, 2024-03-13 20:42:09.336
88.0, -698.2655010269955, 84.03555200435221, -467.74741750815883, -42.16363210044801, 0.01600000075995922, -0.19200000911951065, 1.0400000493973494, 0.0, 0.0, 0.0, 0.0, 0.0, 1.710387729336308E9, 0.0, 2024-03-13 20:42:09.336
89.0, -850.7580517702736, 184.33966881595552, -651.5055318810046, 53.22251626942307, 0.01600000075995922, -0.19200000911951065, 1.0400000493973494, 0.0, 0.0, 0.0, 0.0, 0.0, 1.7103877293496945E9, 0.0, 2024-03-13 20:42:09.349
89.0, -784.0681557604112, 144.01606749370694, -536.7429618407041, -43.86528658028692, 0.01600000075995922, -0.19200000911951065, 1.0400000493973494, 0.0, 0.0, 0.0, 0.0, 0.0, 1.7103877293496945E9, 0.0, 2024-03-13 20:42:09.349
90.0, -670.9791909502819, 82.01600602827966, -415.7665480240248, -70.2540206676349, 0.01600000075995922, -0.19200000911951065, 1.0400000493973494, 0.0, 0.0, 0.0, 0.0, 0.0, 1.7103877293654308E9, 0.0, 2024-03-13 20:42:09.365
90.0, -534.8318729633465, -36.00962672336027, -316.0608152053319, -155.47699090791866, 0.01600000075995922, -0.19200000911951065, 1.0400000493973494, 0.0, 0.0, 0.0, 0.0, 0.0, 1.7103877293654308E9, 0.0, 2024-03-13 20:42:09.365
91.0, -730.5053085950203, -204.43789117783308, -498.26313119661063, -386.9674484152347, 0.01600000075995922, -0.19200000911951065, 1.0400000493973494, 0.0, 0.0, 0.0, 0.0, 0.0, 1.7103877293661845E9, 0.0, 2024-03-13 20:42:09.366
91.0, -566.4078482892364, -281.7603227617219, -310.14429347543046, -463.90467030368745, 0.01600000075995922, -0.19200000911951065, 1.0400000493973494, 0.0, 0.0, 0.0, 0.0, 0.0, 1.7103877293661845E9, 0.0, 2024-03-13 20:42:09.366
92.0, -629.0249932473525, -257.65292764734477, -433.50489351386204, -381.0621463852003, 0.01600000075995922, -0.19200000911951065, 1.0400000493973494, 0.0, 0.0, 0.0, 0.0, 0.0, 1.7103877293797288E9, 0.0, 2024-03-13 20:42:09.379
92.0, -726.0997064472176, -177.21141950041056, -530.5235082143918, -340.91806026082486, 0.01600000075995922, -0.19200000911951065, 1.0400000493973494, 0.0, 0.0, 0.0, 0.0, 0.0, 1.7103877293797288E9, 0.0, 2024-03-13 20:42:09.379
93.0, -863.9000602145679, -56.05923038581386, -635.6296565691009, -244.96905694762245, 0.01600000075995922, -0.19200000911951065, 1.0400000493973494, 0.0, 0.0, 0.0, 0.0, 0.0, 1.7103877293954432E9, 0.0, 2024-03-13 20:42:09.395
93.0, -660.2456780774519, 101.27649080008268, -450.50647871242836, -30.450265439227223, 0.01600000075995922, -0.19200000911951065, 1.0400000493973494, 0.0, 0.0, 0.0, 0.0, 0.0, 1.7103877293954432E9, 0.0, 2024-03-13 20:42:09.395
94.0, -835.158929055091, 200.51099622435868, -637.3724499484524, 66.70485560968518, 0.01600000075995922, -0.19200000911951065, 1.0400000493973494, 0.0, 0.0, 0.0, 0.0, 0.0, 1.7103877293961787E9, 0.0, 2024-03-13 20:42:09.396
94.0, -756.1946813906543, 155.0375526631251, -524.8463400816545, -34.91570598632097, 0.01600000075995922, -0.19200000911951065, 1.0400000493973494, 0.0, 0.0, 0.0, 0.0, 0.0, 1.7103877293961787E9, 0.0, 2024-03-13 20:42:09.396
95.0, -643.4497873764485, 89.79499793611467, -412.4754360630177, -66.50290101207793, 0.01600000075995922, -0.19200000911951065, 1.0400000493973494, 0.0, 0.0, 0.0, 0.0, 0.0, 1.7103877294096875E9, 0.0, 2024-03-13 20:42:09.409
95.0, -496.84944901335984, -18.144124635029584, -304.92339313728735, -145.5325969257392, 0.01600000075995922, -0.19200000911951065, 1.0400000493973494, 0.0, 0.0, 0.0, 0.0, 0.0, 1.7103877294096875E9, 0.0, 2024-03-13 20:42:09.409
96.0, -699.7147122598253, -188.5358365662396, -484.859329755418, -371.4393837992102, 0.01600000075995922, -0.19200000911951065, 1.0400000493973494, 0.0, 0.0, 0.0, 0.0, 0.0, 1.7103877294254897E9, 0.0, 2024-03-13 20:42:09.425
96.0, -527.4156513512135, -268.25554402172565, -294.3806151621975, -451.45080345124006, 0.01600000075995922, -0.19200000911951065, 1.0400000493973494, 0.0, 0.0, 0.0, 0.0, 0.0, 1.7103877294254897E9, 0.0, 2024-03-13 20:42:09.425
97.0, -630.1581829339266, -247.35324316937476, -428.2316345763393, -377.97298902180046, 0.01600000075995922, -0.19200000911951065, 1.0400000493973494, 0.0, 0.0, 0.0, 0.0, 0.0, 1.710387729426732E9, 0.0, 2024-03-13 20:42:09.426
97.0, -730.5127883949317, -169.8213771879673, -532.3710187925026, -339.73251197487116, 0.01600000075995922, -0.19200000911951065, 1.0400000493973494, 0.0, 0.0, 0.0, 0.0, 0.0, 1.710387729426732E9, 0.0, 2024-03-13 20:42:09.426
98.0, -871.6528728227131, -53.03365132166073, -646.1649547442794, -255.2163828262128, 0.01600000075995922, -0.19200000911951065, 1.0400000493973494, 0.0, 0.0, 0.0, 0.0, 0.0, 1.7103877294397469E9, 0.0, 2024-03-13 20:42:09.439
98.0, -677.9354048678651, 101.66170049551874, -459.67671340378, -43.07616768963635, 0.01600000075995922, -0.19200000911951065, 1.0400000493973494, 0.0, 0.0, 0.0, 0.0, 0.0, 1.7103877294397469E9, 0.0, 2024-03-13 20:42:09.439
99.0, -842.7135269655846, 197.8743667555973, -643.0047392817214, 58.74260860402137, 0.01600000075995922, -0.19200000911951065, 1.0400000493973494, 0.0, 0.0, 0.0, 0.0, 0.0, 1.7103877294557164E9, 0.0, 2024-03-13 20:42:09.455
99.0, -749.6124574686401, 162.91004206985235, -520.8558668289334, -31.3852404281497, 0.01600000075995922, -0.19200000911951065, 1.0400000493973494, 0.0, 0.0, 0.0, 0.0, 0.0, 1.7103877294557164E9, 0.0, 2024-03-13 20:42:09.455
100.0, -639.8632233189419, 93.95002678688616, -406.0241086394526, -58.611712105572224, 0.01600000075995922, -0.19200000911951065, 1.0400000493973494, 0.0, 0.0, 0.0, 0.0, 0.0, 1.7103877294562683E9, 0.0, 2024-03-13 20:42:09.456
100.0, -500.95959906466305, -21.311819897498935, -302.6457940642722, -140.6370678837411, 0.01600000075995922, -0.19200000911951065, 1.0400000493973494, 0.0, 0.0, 0.0, 0.0, 0.0, 1.7103877294562683E9, 0.0, 2024-03-13 20:42:09.456
0.0, -207.61493619019166, 303.07214265922084, 12.528664851561189, 124.58915717387572, 0.01600000075995922, -0.19200000911951065, 1.0400000493973494, 0.0, 0.0, 0.0, 0.0, 0.0, 1.7103877294704697E9, 0.0, 2024-03-13 20:42:09.470
1.0, -38.27039624657482, 228.91740633780137, 206.60516320215538, 47.842670183163136, 0.01600000075995922, -0.19200000911951065, 1.0400000493973494, 0.0, 0.0, 0.0, 0.0, 0.0, 1.7103877294712856E9, 0.0, 2024-03-13 20:42:09.471
1.0, -138.28654076159, 244.78954174974933, 78.610827118624, 129.29395131813362, 0.01600000075995922, -0.19200000911951065, 1.0400000493973494, 0.0, 0.0, 0.0, 0.0, 0.0, 1.7103877294712856E9, 0.0, 2024-03-13 20:42:09.471
2.0, -243.5815540640615, 322.9048321242444, -28.277383564971387, 166.11700628185645, 0.01600000075995922, -0.19200000911951065, 1.0400000493973494, 0.0, 0.0, 0.0, 0.0, 0.0, 1.7103877294847524E9, 0.0, 2024-03-13 20:42:09.484
2.0, -391.78630950814113, 435.2084179436788, -145.11559808067977, 248.46773335617036, 0.01600000075995922, -0.19200000911951065, 1.0400000493973494, 0.0, 0.0, 0.0, 0.0, 0.0, 1.7103877294847524E9, 0.0, 2024-03-13 20:42:09.484
3.0, -188.8724275622517, 584.5220537246205, 30.998160782735795, 450.6336353109218, 0.01600000075995922, -0.19200000911951065, 1.0400000493973494, 0.0, 0.0, 0.0, 0.0, 0.0, 1.710387729500386E9, 0.0, 2024-03-13 20:42:09.500
3.0, -350.673589295242, 684.8673094357364, -158.403462623246, 544.4639852992259, 0.01600000075995922, -0.19200000911951065, 1.0400000493973494, 0.0, 0.0, 0.0, 0.0, 0.0, 1.710387729500386E9, 0.0, 2024-03-13 20:42:09.500
4.0, -263.67977642593905, 646.5258550900035, -39.77383602876216, 445.1509419758804, 0.01600000075995922, -0.19200000911951065, 1.0400000493973494, 0.0, 0.0, 0.0, 0.0, 0.0, 1.710387729501144E9, 0.0, 2024-03-13 20:42:09.501
4.0, -149.91762962378561, 575.9876020257361, 74.66149276541546, 411.78729447117075, 0.01600000075995922, -0.19200000911951065, 1.0400000493973494, 0.0, 0.0, 0.0, 0.0, 0.0, 1.710387729501144E9, 0.0, 2024-03-13 20:42:09.501
5.0, -14.05828393343836, 462.2628542231396, 177.63215824542567, 326.28757163416594, 0.01600000075995922, -0.19200000911951065, 1.0400000493973494, 0.0, 0.0, 0.0, 0.0, 0.0, 1.7103877295147529E9, 0.0, 2024-03-13 20:42:09.514
5.0, -207.1511885956861, 293.7410922697745, -2.9881800645962358, 107.1425238805823, 0.01600000075995922, -0.19200000911951065, 1.0400000493973494, 0.0, 0.0, 0.0, 0.0, 0.0, 1.7103877295147529E9, 0.0, 2024-03-13 20:42:09.514
6.0, -36.407926068641245, 216.41118088597432, 196.1521428260021, 36.245240420568734, 0.01600000075995922, -0.19200000911951065, 1.0400000493973494, 0.0, 0.0, 0.0, 0.0, 0.0, 1.7103877295304313E9, 0.0, 2024-03-13 20:42:09.530
6.0, -139.9881952414289, 236.21769105130807, 64.31692948797718, 114.90281628863886, 0.01600000075995922, -0.19200000911951065, 1.0400000493973494, 0.0, 0.0, 0.0, 0.0, 0.0, 1.7103877295304313E9, 0.0, 2024-03-13 20:42:09.530
7.0, -236.9432316427119, 322.62807952752337, -32.039722920395434, 161.18407824030146, 0.01600000075995922, -0.19200000911951065, 1.0400000493973494, 0.0, 0.0, 0.0, 0.0, 0.0, 1.7103877295311303E9, 0.0, 2024-03-13 20:42:09.531
7.0, -396.4761440525763, 418.33024944365025, -157.6293033324182, 229.08009198587388, 0.01600000075995922, -0.19200000911951065, 1.0400000493973494, 0.0, 0.0, 0.0, 0.0, 0.0, 1.7103877295311303E9, 0.0, 2024-03-13 20:42:09.531
8.0, -198.28575575072318, 572.5955127659254, 23.368764873128384, 451.06746370578185, 0.01600000075995922, -0.19200000911951065, 1.0400000493973494, 0.0, 0.0, 0.0, 0.0, 0.0, 1.7103877295449436E9, 0.0, 2024-03-13 20:42:09.544
8.0, -365.1918809232302, 673.4942736704834, -161.84791048243642, 537.4928117818199, 0.01600000075995922, -0.19200000911951065, 1.0400000493973494, 0.0, 0.0, 0.0, 0.0, 0.0, 1.7103877295449436E9, 0.0, 2024-03-13 20:42:09.544
9.0, -272.32268522353843, 642.6101798363961, -35.36823388095945, 453.50587847689167, 0.01600000075995922, -0.19200000911951065, 1.0400000493973494, 0.0, 0.0, 0.0, 0.0, 0.0, 1.7103877295605116E9, 0.0, 2024-03-13 20:42:09.560
9.0, -155.38536335900426, 573.4706493555568, 83.15106566483155, 420.2207688712515, 0.01600000075995922, -0.19200000911951065, 1.0400000493973494, 0.0, 0.0, 0.0, 0.0, 0.0, 1.7103877295605116E9, 0.0, 2024-03-13 20:42:09.560
10.0, -19.473659069277346, 456.97089578583837, 182.07889929274097, 332.99321225471795, 0.01600000075995922, -0.19200000911951065, 1.0400000493973494, 0.0, 0.0, 0.0, 0.0, 0.0, 1.710387729561202E9, 0.0, 2024-03-13 20:42:09.561
10.0, -209.84017666382715, 295.0463173543103, 5.164801838807762, 119.48793363431469, 0.01600000075995922, -0.19200000911951065, 1.0400000493973494, 0.0, 0.0, 0.0, 0.0, 0.0, 1.710387729561202E9, 0.0, 2024-03-13 20:42:09.561
11.0, -45.8362138569355, 210.50213895598426, 194.151296349708, 35.033512834925205, 0.01600000075995922, -0.19200000911951065, 1.0400000493973494, 0.0, 0.0, 0.0, 0.0, 0.0, 1.7103877295747063E9, 0.0, 2024-03-13 20:42:09.574
11.0, -149.79047302529216, 231.6849323050119, 62.30112341186032, 111.19657543255016, 0.01600000075995922, -0.19200000911951065, 1.0400000493973494, 0.0, 0.0, 0.0, 0.0, 0.0, 1.7103877295747063E9, 0.0, 2024-03-13 20:42:09.574
12.0, -252.44137705909088, 307.9452323014848, -49.14602531772107, 142.4247400625609, 0.01600000075995922, -0.19200000911951065, 1.0400000493973494, 0.0, 0.0, 0.0, 0.0, 0.0, 1.7103877295907128E9, 0.0, 2024-03-13 20:42:09.590
12.0, -394.81188857229427, 425.21540526207536, -161.01391279231757, 228.68366259057075, 0.01600000075995922, -0.19200000911951065, 1.0400000493973494, 0.0, 0.0, 0.0, 0.0, 0.0, 1.7103877295907128E9, 0.0, 2024-03-13 20:42:09.590
13.0, -199.49000353645533, 577.4686024081893, 20.967749101575464, 439.6420693411492, 0.01600000075995922, -0.19200000911951065, 1.0400000493973494, 0.0, 0.0, 0.0, 0.0, 0.0, 1.710387729591092E9, 0.0, 2024-03-13 20:42:09.591
13.0, -359.5296723903157, 677.9746738173999, -162.12092317920178, 534.6392681156285, 0.01600000075995922, -0.19200000911951065, 1.0400000493973494, 0.0, 0.0, 0.0, 0.0, 0.0, 1.710387729591092E9, 0.0, 2024-03-13 20:42:09.591
14.0, -275.42680218676105, 631.4203991689719, -49.78180831018835, 435.4159823912196, 0.01600000075995922, -0.19200000911951065, 1.0400000493973494, 0.0, 0.0, 0.0, 0.0, 0.0, 1.7103877296052268E9, 0.0, 2024-03-13 20:42:09.605
14.0, -157.53206593357027, 573.395851356443, 73.2739898818545, 410.93833718122914, 0.01600000075995922, -0.19200000911951065, 1.0400000493973494, 0.0, 0.0, 0.0, 0.0, 0.0, 1.7103877296052268E9, 0.0, 2024-03-13 20:42:09.605
15.0, -15.823516712523997, 465.7334813820198, 182.93533638259396, 338.29639039188623, 0.01600000075995922, -0.19200000911951065, 1.0400000493973494, 0.0, 0.0, 0.0, 0.0, 0.0, 1.7103877296207004E9, 0.0, 2024-03-13 20:42:09.620
15.0, -218.21755256457254, 299.6127352002077, 3.466887258924544, 116.40999597078189, 0.01600000075995922, -0.19200000911951065, 1.0400000493973494, 0.0, 0.0, 0.0, 0.0, 0.0, 1.7103877296207004E9, 0.0, 2024-03-13 20:42:09.620
16.0, -49.40407841466367, 218.15397426532581, 191.91857607616112, 34.79415923776105, 0.01600000075995922, -0.19200000911951065, 1.0400000493973494, 0.0, 0.0, 0.0, 0.0, 0.0, 1.7103877296213264E9, 0.0, 2024-03-13 20:42:09.621
16.0, -155.4078027587384, 236.29622895037755, 60.341415835078806, 112.67383591504768, 0.01600000075995922, -0.19200000911951065, 1.0400000493973494, 0.0, 0.0, 0.0, 0.0, 0.0, 1.7103877296213264E9, 0.0, 2024-03-13 20:42:09.621
17.0, -244.14253905741498, 314.2881026263349, -33.999430497176945, 158.2781759747304, 0.01600000075995922, -0.19200000911951065, 1.0400000493973494, 0.0, 0.0, 0.0, 0.0, 0.0, 1.710387729634822E9, 0.0, 2024-03-13 20:42:09.634
17.0, -394.8642471716739, 427.4556053355336, -156.32407824788243, 238.16804887820035, 0.01600000075995922, -0.19200000911951065, 1.0400000493973494, 0.0, 0.0, 0.0, 0.0, 0.0, 1.710387729634822E9, 0.0, 2024-03-13 20:42:09.634
18.0, -192.89655991457403, 584.275220327545, 36.00962672336027, 450.87672880804166, 0.01600000075995922, -0.19200000911951065, 1.0400000493973494, 0.0, 0.0, 0.0, 0.0, 0.0, 1.710387729650406E9, 0.0, 2024-03-13 20:42:09.650
18.0, -358.86771009815857, 684.2240466433577, -158.0706115271896, 544.8828540942632, 0.01600000075995922, -0.19200000911951065, 1.0400000493973494, 0.0, 0.0, 0.0, 0.0, 0.0, 1.710387729650406E9, 0.0, 2024-03-13 20:42:09.650
19.0, -266.53705999208614, 650.8230001390912, -36.23589067067951, 457.44025323027745, 0.01600000075995922, -0.19200000911951065, 1.0400000493973494, 0.0, 0.0, 0.0, 0.0, 0.0, 1.7103877296521318E9, 0.0, 2024-03-13 20:42:09.652
19.0, -147.72978814970702, 590.1767824576236, 86.95454391976818, 427.68186928285286, 0.01600000075995922, -0.19200000911951065, 1.0400000493973494, 0.0, 0.0, 0.0, 0.0, 0.0, 1.7103877296521318E9, 0.0, 2024-03-13 20:42:09.652
20.0, -8.399815300479531, 473.06368529517204, 187.53167342813686, 345.4956978065893, 0.01600000075995922, -0.19200000911951065, 1.0400000493973494, 0.0, 0.0, 0.0, 0.0, 0.0, 1.7103877296647968E9, 0.0, 2024-03-13 20:42:09.664
20.0, -211.96069993870333, 302.4999379660003, 6.6196229215711355, 125.01550576882437, 0.01600000075995922, -0.19200000911951065, 1.0400000493973494, 0.0, 0.0, 0.0, 0.0, 0.0, 1.7103877296647968E9, 0.0, 2024-03-13 20:42:09.664
21.0, -40.61905341874808, 224.57912238920107, 202.50249295076355, 45.909141906071454, 0.01600000075995922, -0.19200000911951065, 1.0400000493973494, 0.0, 0.0, 0.0, 0.0, 0.0, 1.7103877296803951E9, 0.0, 2024-03-13 20:42:09.680
21.0, -146.11415136884898, 240.64573259884492, 64.87791448133066, 119.41313563520089, 0.01600000075995922, -0.19200000911951065, 1.0400000493973494, 0.0, 0.0, 0.0, 0.0, 0.0, 1.7103877296803951E9, 0.0, 2024-03-13 20:42:09.680
22.0, -247.1718580215238, 322.19051123270765, -35.0540822846815, 160.44731794903055, 0.01600000075995922, -0.19200000911951065, 1.0400000493973494, 0.0, 0.0, 0.0, 0.0, 0.0, 1.7103877296810799E9, 0.0, 2024-03-13 20:42:09.681
22.0, -390.3950667246245, 437.14568612072617, -151.46220830548555, 245.47955329157412, 0.01600000075995922, -0.19200000911951065, 1.0400000493973494, 0.0, 0.0, 0.0, 0.0, 0.0, 1.7103877296810799E9, 0.0, 2024-03-13 20:42:09.681
23.0, -192.93769881408662, 590.0197066594847, 33.74324735021219, 458.22189232101664, 0.01600000075995922, -0.19200000911951065, 1.0400000493973494, 0.0, 0.0, 0.0, 0.0, 0.0, 1.7103877296948853E9, 0.0, 2024-03-13 20:42:09.694
23.0, -355.64765623630956, 687.4328808053397, -156.57465154491365, 548.4806378516369, 0.01600000075995922, -0.19200000911951065, 1.0400000493973494, 0.0, 0.0, 0.0, 0.0, 0.0, 1.7103877296948853E9, 0.0, 2024-03-13 20:42:09.694
24.0, -258.26814119005576, 652.453596519772, -35.81328197568655, 461.47560528246686, 0.01600000075995922, -0.19200000911951065, 1.0400000493973494, 0.0, 0.0, 0.0, 0.0, 0.0, 1.710387729710413E9, 0.0, 2024-03-13 20:42:09.710
24.0, -152.76743339002132, 575.531334231142, 79.03343581361696, 421.9224233510904, 0.01600000075995922, -0.19200000911951065, 1.0400000493973494, 0.0, 0.0, 0.0, 0.0, 0.0, 1.710387729710413E9, 0.0, 2024-03-13 20:42:09.710
25.0, -22.738591730594635, 460.6584371421486, 179.22161572659388, 340.7572445627302, 0.01600000075995922, -0.19200000911951065, 1.0400000493973494, 0.0, 0.0, 0.0, 0.0, 0.0, 1.7103877297110984E9, 0.0, 2024-03-13 20:42:09.711
25.0, -213.3444629223086, 301.76691757468507, 3.814697954803705, 114.83549808943644, 0.01600000075995922, -0.19200000911951065, 1.0400000493973494, 0.0, 0.0, 0.0, 0.0, 0.0, 1.7103877297110984E9, 0.0, 2024-03-13 20:42:09.711
26.0, -33.172912606969476, 223.4234933028929, 200.99531326862052, 41.19312806194648, 0.01600000075995922, -0.19200000911951065, 1.0400000493973494, 0.0, 0.0, 0.0, 0.0, 0.0, 1.7103877297248683E9, 0.0, 2024-03-13 20:42:09.724
26.0, -136.89529797807336, 236.96567104244605, 65.03873017942533, 116.13698327401653, 0.01600000075995922, -0.19200000911951065, 1.0400000493973494, 0.0, 0.0, 0.0, 0.0, 0.0, 1.7103877297248683E9, 0.0, 2024-03-13 20:42:09.724
27.0, -237.97544403048232, 315.215597815346, -39.32130813412368, 156.41944569675252, 0.01600000075995922, -0.19200000911951065, 1.0400000493973494, 0.0, 0.0, 0.0, 0.0, 0.0, 1.7103877297405744E9, 0.0, 2024-03-13 20:42:09.740
27.0, -371.8900417438708, 436.9175522234291, -146.56293936353177, 245.04946479666978, 0.01600000075995922, -0.19200000911951065, 1.0400000493973494, 0.0, 0.0, 0.0, 0.0, 0.0, 1.7103877297405744E9, 0.0, 2024-03-13 20:42:09.740
28.0, -190.2748900456354, 573.4669094556011, 19.07535972399637, 443.32213089754805, 0.01600000075995922, -0.19200000911951065, 1.0400000493973494, 0.0, 0.0, 0.0, 0.0, 0.0, 1.7103877297412255E9, 0.0, 2024-03-13 20:42:09.741
28.0, -357.43532841512933, 673.378336771857, -169.10705629643053, 533.8239699252881, 0.01600000075995922, -0.19200000911951065, 1.0400000493973494, 0.0, 0.0, 0.0, 0.0, 0.0, 1.7103877297412255E9, 0.0, 2024-03-13 20:42:09.741
29.0, -259.71174257295206, 639.7865553698502, -43.58479408361018, 446.2242932631634, 0.01600000075995922, -0.19200000911951065, 1.0400000493973494, 0.0, 0.0, 0.0, 0.0, 0.0, 1.710387729754707E9, 0.0, 2024-03-13 20:42:09.754
29.0, -151.4098497061059, 570.7330425879918, 73.16927268309519, 415.19060343084857, 0.01600000075995922, -0.19200000911951065, 1.0400000493973494, 0.0, 0.0, 0.0, 0.0, 0.0, 1.710387729754707E9, 0.0, 2024-03-13 20:42:09.754
30.0, -7.072150816209614, 461.1857630359009, 178.74290853226557, 336.88644810859114, 0.01600000075995922, -0.19200000911951065, 1.0400000493973494, 0.0, 0.0, 0.0, 0.0, 0.0, 1.7103877297708275E9, 0.0, 2024-03-13 20:42:09.770
30.0, -205.7113271127455, 299.10410880623385, -4.098930351436138, 112.16894942102954, 0.01600000075995922, -0.19200000911951065, 1.0400000493973494, 0.0, 0.0, 0.0, 0.0, 0.0, 1.7103877297708275E9, 0.0, 2024-03-13 20:42:09.770
31.0, -40.102947224862874, 211.24263914721087, 182.16865689167753, 27.359238125849515, 0.01600000075995922, -0.19200000911951065, 1.0400000493973494, 0.0, 0.0, 0.0, 0.0, 0.0, 1.7103877297714636E9, 0.0, 2024-03-13 20:42:09.771
31.0, -140.807233331725, 224.73619818734005, 54.42863400513306, 102.90895713074133, 0.01600000075995922, -0.19200000911951065, 1.0400000493973494, 0.0, 0.0, 0.0, 0.0, 0.0, 1.7103877297714636E9, 0.0, 2024-03-13 20:42:09.771
32.0, -245.74321623845026, 303.28531695669517, -51.24036929290742, 145.8317889221944, 0.01600000075995922, -0.19200000911951065, 1.0400000493973494, 0.0, 0.0, 0.0, 0.0, 0.0, 1.710387729784737E9, 0.0, 2024-03-13 20:42:09.784
32.0, -391.00467041740194, 422.5264171939343, -169.559584191069, 228.00674069859087, 0.01600000075995922, -0.19200000911951065, 1.0400000493973494, 0.0, 0.0, 0.0, 0.0, 0.0, 1.710387729784737E9, 0.0, 2024-03-13 20:42:09.784
33.0, -192.9077796144411, 575.6659706295468, 16.34897265629843, 442.72374690463766, 0.01600000075995922, -0.19200000911951065, 1.0400000493973494, 0.0, 0.0, 0.0, 0.0, 0.0, 1.710387729800397E9, 0.0, 2024-03-13 20:42:09.800
33.0, -355.8907497334294, 672.0544121875428, -166.23481313046068, 535.3199299075641, 0.01600000075995922, -0.19200000911951065, 1.0400000493973494, 0.0, 0.0, 0.0, 0.0, 0.0, 1.710387729800397E9, 0.0, 2024-03-13 20:42:09.800
34.0, -265.8900572997518, 637.606193695683, -46.520615548826754, 446.9722732543014, 0.01600000075995922, -0.19200000911951065, 1.0400000493973494, 0.0, 0.0, 0.0, 0.0, 0.0, 1.7103877298010983E9, 0.0, 2024-03-13 20:42:09.801
34.0, -154.82437836565077, 568.4404839151539, 73.55822227848694, 416.78380081197247, 0.01600000075995922, -0.19200000911951065, 1.0400000493973494, 0.0, 0.0, 0.0, 0.0, 0.0, 1.7103877298010983E9, 0.0, 2024-03-13 20:42:09.801
35.0, -18.94633317552507, 454.9588296096772, 178.23802203824744, 337.9336200961843, 0.01600000075995922, -0.19200000911951065, 1.0400000493973494, 0.0, 0.0, 0.0, 0.0, 0.0, 1.7103877298147063E9, 0.0, 2024-03-13 20:42:09.814
35.0, -217.22273917635903, 293.99914536671713, 0.2094343975186348, 117.08691786276177, 0.01600000075995922, -0.19200000911951065, 1.0400000493973494, 0.0, 0.0, 0.0, 0.0, 0.0, 1.7103877298147063E9, 0.0, 2024-03-13 20:42:09.814
36.0, -59.378391596488655, 213.80447061685845, 196.08108472684398, 44.648795621003956, 0.01600000075995922, -0.19200000911951065, 1.0400000493973494, 0.0, 0.0, 0.0, 0.0, 0.0, 1.7103877298303907E9, 0.0, 2024-03-13 20:42:09.830
36.0, -143.23816830292344, 229.69530552858487, 64.29449008824304, 115.09729108633474, 0.01600000075995922, -0.19200000911951065, 1.0400000493973494, 0.0, 0.0, 0.0, 0.0, 0.0, 1.7103877298303907E9, 0.0, 2024-03-13 20:42:09.830
37.0, -248.3910654070787, 311.70757165690884, -40.99304341431707, 157.91540567902848, 0.01600000075995922, -0.19200000911951065, 1.0400000493973494, 0.0, 0.0, 0.0, 0.0, 0.0, 1.7103877298323565E9, 0.0, 2024-03-13 20:42:09.832
37.0, -389.9387989300303, 431.3563209893182, -154.3307115714997, 241.9640473332256, 0.01600000075995922, -0.19200000911951065, 1.0400000493973494, 0.0, 0.0, 0.0, 0.0, 0.0, 1.7103877298323565E9, 0.0, 2024-03-13 20:42:09.832
38.0, -193.84275460336357, 584.0022076307796, 22.138337787706405, 447.7202532454394, 0.01600000075995922, -0.19200000911951065, 1.0400000493973494, 0.0, 0.0, 0.0, 0.0, 0.0, 1.7103877298447232E9, 0.0, 2024-03-13 20:42:09.844
38.0, -360.4496877794154, 680.2186137908138, -172.69362035393715, 537.8368825777434, 0.01600000075995922, -0.19200000911951065, 1.0400000493973494, 0.0, 0.0, 0.0, 0.0, 0.0, 1.7103877298447232E9, 0.0, 2024-03-13 20:42:09.844
39.0, -258.33919928921387, 649.6000528535806, -44.056021478027105, 454.91956066014245, 0.01600000075995922, -0.19200000911951065, 1.0400000493973494, 0.0, 0.0, 0.0, 0.0, 0.0, 1.7103877298603635E9, 0.0, 2024-03-13 20:42:09.860
39.0, -147.75222754944116, 580.8831310677342, 75.06540196062997, 423.7063556299545, 0.01600000075995922, -0.19200000911951065, 1.0400000493973494, 0.0, 0.0, 0.0, 0.0, 0.0, 1.7103877298603635E9, 0.0, 2024-03-13 20:42:09.860
40.0, -22.529157333076, 466.2869865754619, 180.65025750966743, 339.4557593781501, 0.01600000075995922, -0.19200000911951065, 1.0400000493973494, 0.0, 0.0, 0.0, 0.0, 0.0, 1.7103877298610525E9, 0.0, 2024-03-13 20:42:09.861
40.0, -206.85199659923092, 306.3595147202723, 6.728080020286143, 126.5226854509674, 0.01600000075995922, -0.19200000911951065, 1.0400000493973494, 0.0, 0.0, 0.0, 0.0, 0.0, 1.7103877298610525E9, 0.0, 2024-03-13 20:42:09.861
41.0, -26.22417848929763, 230.55922241834924, 203.7852786355652, 50.6363754500635, 0.01600000075995922, -0.19200000911951065, 1.0400000493973494, 0.0, 0.0, 0.0, 0.0, 0.0, 1.710387729874733E9, 0.0, 2024-03-13 20:42:09.874
41.0, -130.9189378488809, 244.8755594487302, 68.64025383675471, 121.52243921021, 0.01600000075995922, -0.19200000911951065, 1.0400000493973494, 0.0, 0.0, 0.0, 0.0, 0.0, 1.710387729874733E9, 0.0, 2024-03-13 20:42:09.874
42.0, -247.19429742125794, 322.3139279312454, -35.0914812842384, 168.51802205340937, 0.01600000075995922, -0.19200000911951065, 1.0400000493973494, 0.0, 0.0, 0.0, 0.0, 0.0, 1.7103877298904383E9, 0.0, 2024-03-13 20:42:09.890
42.0, -389.33667503716424, 444.19539753720164, -145.6952825738117, 249.5597841432318, 0.01600000075995922, -0.19200000911951065, 1.0400000493973494, 0.0, 0.0, 0.0, 0.0, 0.0, 1.7103877298904383E9, 0.0, 2024-03-13 20:42:09.890
43.0, -189.10430135950446, 590.0084869596176, 33.6647094511427, 457.59358912846074, 0.01600000075995922, -0.19200000911951065, 1.0400000493973494, 0.0, 0.0, 0.0, 0.0, 0.0, 1.7103877298911903E9, 0.0, 2024-03-13 20:42:09.891
43.0, -374.03300441848114, 680.734719984699, -160.5239858981222, 542.8146894187666, 0.01600000075995922, -0.19200000911951065, 1.0400000493973494, 0.0, 0.0, 0.0, 0.0, 0.0, 1.7103877298911903E9, 0.0, 2024-03-13 20:42:09.891
44.0, -284.32402418134734, 640.6766515593044, -36.49394376762211, 455.5254244529642, 0.01600000075995922, -0.19200000911951065, 1.0400000493973494, 0.0, 0.0, 0.0, 0.0, 0.0, 1.7103877299050076E9, 0.0, 2024-03-13 20:42:09.905
44.0, -116.74471701681614, 578.859845191706, 85.38378593837842, 424.60393161932006, 0.01600000075995922, -0.19200000911951065, 1.0400000493973494, 0.0, 0.0, 0.0, 0.0, 0.0, 1.7103877299050076E9, 0.0, 2024-03-13 20:42:09.905
45.0, -22.790950329974294, 456.7726810881868, 180.26878771418706, 335.91781402006745, 0.01600000075995922, -0.19200000911951065, 1.0400000493973494, 0.0, 0.0, 0.0, 0.0, 0.0, 1.7103877299204383E9, 0.0, 2024-03-13 20:42:09.920
45.0, -219.59757564822212, 291.5981295951642, 1.6605155803263187, 113.24230070831254, 0.01600000075995922, -0.19200000911951065, 1.0400000493973494, 0.0, 0.0, 0.0, 0.0, 0.0, 1.7103877299204383E9, 0.0, 2024-03-13 20:42:09.920
46.0, -40.34978062193841, 215.9736125911586, 197.59948410885409, 40.36661017173901, 0.01600000075995922, -0.19200000911951065, 1.0400000493973494, 0.0, 0.0, 0.0, 0.0, 0.0, 1.7103877299213345E9, 0.0, 2024-03-13 20:42:09.921
46.0, -146.13659076858312, 226.11622127098963, 54.17806070810184, 105.29875320242718, 0.01600000075995922, -0.19200000911951065, 1.0400000493973494, 0.0, 0.0, 0.0, 0.0, 0.0, 1.7103877299213345E9, 0.0, 2024-03-13 20:42:09.921
47.0, -258.2606613901444, 302.65701376413926, -51.61435928847641, 143.56166964909062, 0.01600000075995922, -0.19200000911951065, 1.0400000493973494, 0.0, 0.0, 0.0, 0.0, 0.0, 1.710387729934698E9, 0.0, 2024-03-13 20:42:09.934
47.0, -407.63226562039927, 424.5646626697853, -159.00932641606778, 233.42959563434124, 0.01600000075995922, -0.19200000911951065, 1.0400000493973494, 0.0, 0.0, 0.0, 0.0, 0.0, 1.710387729934698E9, 0.0, 2024-03-13 20:42:09.934
48.0, -203.8731662845239, 573.0592603604309, 24.879684455227107, 442.8920424026437, 0.01600000075995922, -0.19200000911951065, 1.0400000493973494, 0.0, 0.0, 0.0, 0.0, 0.0, 1.7103877299503832E9, 0.0, 2024-03-13 20:42:09.950
48.0, -365.17318142345175, 668.7782598263584, -162.45751417521387, 535.8360361014493, 0.01600000075995922, -0.19200000911951065, 1.0400000493973494, 0.0, 0.0, 0.0, 0.0, 0.0, 1.7103877299503832E9, 0.0, 2024-03-13 20:42:09.950
49.0, -275.97656748024747, 640.0520882667042, -35.259776782244444, 455.9405533480458, 0.01600000075995922, -0.19200000911951065, 1.0400000493973494, 0.0, 0.0, 0.0, 0.0, 0.0, 1.7103877299511485E9, 0.0, 2024-03-13 20:42:09.951
49.0, -156.5148131456226, 566.473296538461, 76.7969756401144, 413.12991855526343, 0.01600000075995922, -0.19200000911951065, 1.0400000493973494, 0.0, 0.0, 0.0, 0.0, 0.0, 1.7103877299511485E9, 0.0, 2024-03-13 20:42:09.951
50.0, -23.942839516326785, 447.92781769298017, 179.22909552650526, 333.0904496535659, 0.01600000075995922, -0.19200000911951065, 1.0400000493973494, 0.0, 0.0, 0.0, 0.0, 0.0, 1.7103877299647698E9, 0.0, 2024-03-13 20:42:09.964
50.0, -217.1554209771566, 290.14330851240084, 4.226086949929595, 116.91488246480003, 0.01600000075995922, -0.19200000911951065, 1.0400000493973494, 0.0, 0.0, 0.0, 0.0, 0.0, 1.7103877299647698E9, 0.0, 2024-03-13 20:42:09.964
51.0, -43.72691028192639, 213.25470532337204, 199.8583836820908, 39.09878408676013, 0.01600000075995922, -0.19200000911951065, 1.0400000493973494, 0.0, 0.0, 0.0, 0.0, 0.0, 1.7103877299803798E9, 0.0, 2024-03-13 20:42:09.980
51.0, -156.47367424611002, 218.59154256014153, 63.939199592452496, 104.01970741758123, 0.01600000075995922, -0.19200000911951065, 1.0400000493973494, 0.0, 0.0, 0.0, 0.0, 0.0, 1.7103877299803798E9, 0.0, 2024-03-13 20:42:09.980
52.0, -260.52704076329246, 297.55205032462254, -44.493589772842824, 144.36200823960826, 0.01600000075995922, -0.19200000911951065, 1.0400000493973494, 0.0, 0.0, 0.0, 0.0, 0.0, 1.7103877299811149E9, 0.0, 2024-03-13 20:42:09.981
52.0, -403.3313806713559, 418.5359439412132, -160.12007670290768, 227.9581219991669, 0.01600000075995922, -0.19200000911951065, 1.0400000493973494, 0.0, 0.0, 0.0, 0.0, 0.0, 1.7103877299811149E9, 0.0, 2024-03-13 20:42:09.981
53.0, -203.97414358332753, 571.5857397778891, 23.353805273305625, 440.83883732696995, 0.01600000075995922, -0.19200000911951065, 1.0400000493973494, 0.0, 0.0, 0.0, 0.0, 0.0, 1.710387729994712E9, 0.0, 2024-03-13 20:42:09.994
53.0, -367.29370469832793, 670.6220305045135, -165.02682544477284, 534.8300030133687, 0.01600000075995922, -0.19200000911951065, 1.0400000493973494, 0.0, 0.0, 0.0, 0.0, 0.0, 1.710387729994712E9, 0.0, 2024-03-13 20:42:09.994
54.0, -271.57844513235614, 645.8788523976691, -40.1665255241096, 451.14600160485134, 0.01600000075995922, -0.19200000911951065, 1.0400000493973494, 0.0, 0.0, 0.0, 0.0, 0.0, 1.7103877300103912E9, 0.0, 2024-03-13 20:42:10.010
54.0, -157.49092703405768, 576.4027309208177, 76.9091726387851, 419.19603628339246, 0.01600000075995922, -0.19200000911951065, 1.0400000493973494, 0.0, 0.0, 0.0, 0.0, 0.0, 1.7103877300103912E9, 0.0, 2024-03-13 20:42:10.010
55.0, -25.648233896121383, 453.22725593019277, 174.4756826828234, 334.43681363761425, 0.01600000075995922, -0.19200000911951065, 1.0400000493973494, 0.0, 0.0, 0.0, 0.0, 0.0, 1.7103877300113833E9, 0.0, 2024-03-13 20:42:10.011
55.0, -210.99580575013533, 295.3118502511643, -2.337437472306192, 117.2963522602804, 0.01600000075995922, -0.19200000911951065, 1.0400000493973494, 0.0, 0.0, 0.0, 0.0, 0.0, 1.7103877300113833E9, 0.0, 2024-03-13 20:42:10.011
56.0, -35.55896877869964, 220.57368953665718, 190.35903779463843, 36.585571316536516, 0.01600000075995922, -0.19200000911951065, 1.0400000493973494, 0.0, 0.0, 0.0, 0.0, 0.0, 1.7103877300246794E9, 0.0, 2024-03-13 20:42:10.024
56.0, -147.60637145116925, 231.21744481055066, 54.81758360052481, 104.2889802143909, 0.01600000075995922, -0.19200000911951065, 1.0400000493973494, 0.0, 0.0, 0.0, 0.0, 0.0, 1.7103877300246794E9, 0.0, 2024-03-13 20:42:10.024
57.0, -242.14917238103226, 318.7161441738717, -45.20043086446822, 148.7900497871451, 0.01600000075995922, -0.19200000911951065, 1.0400000493973494, 0.0, 0.0, 0.0, 0.0, 0.0, 1.7103877300405684E9, 0.0, 2024-03-13 20:42:10.040
57.0, -381.0565365352668, 435.26825634296983, -151.26773350778967, 239.30871836468577, 0.01600000075995922, -0.19200000911951065, 1.0400000493973494, 0.0, 0.0, 0.0, 0.0, 0.0, 1.7103877300405684E9, 0.0, 2024-03-13 20:42:10.040
58.0, -194.19430519919842, 580.4642622726969, 24.142924163956195, 440.43118823179975, 0.01600000075995922, -0.19200000911951065, 1.0400000493973494, 0.0, 0.0, 0.0, 0.0, 0.0, 1.7103877300411487E9, 0.0, 2024-03-13 20:42:10.041
58.0, -367.41338149691, 676.7031078324653, -165.95806053373963, 535.1553743095137, 0.01600000075995922, -0.19200000911951065, 1.0400000493973494, 0.0, 0.0, 0.0, 0.0, 0.0, 1.7103877300411487E9, 0.0, 2024-03-13 20:42:10.041
59.0, -275.31834508804604, 650.4078712440096, -38.831381239928305, 454.4595529655926, 0.01600000075995922, -0.19200000911951065, 1.0400000493973494, 0.0, 0.0, 0.0, 0.0, 0.0, 1.710387730055266E9, 0.0, 2024-03-13 20:42:10.055
59.0, -168.2655788064003, 571.8325731749646, 67.12933425465599, 410.60922598512843, 0.01600000075995922, -0.19200000911951065, 1.0400000493973494, 0.0, 0.0, 0.0, 0.0, 0.0, 1.710387730055266E9, 0.0, 2024-03-13 20:42:10.055
60.0, -19.840169264934957, 452.3969981400296, 175.1376449749805, 326.29131153412163, 0.01600000075995922, -0.19200000911951065, 1.0400000493973494, 0.0, 0.0, 0.0, 0.0, 0.0, 1.7103877300704296E9, 0.0, 2024-03-13 20:42:10.070
60.0, -215.98857219098136, 289.54118461953476, 2.3523970721289515, 109.03865315811709, 0.01600000075995922, -0.19200000911951065, 1.0400000493973494, 0.0, 0.0, 0.0, 0.0, 0.0, 1.7103877300704296E9, 0.0, 2024-03-13 20:42:10.070
61.0, -43.86528658028692, 202.4875333509408, 194.86561724124476, 34.173335845116526, 0.01600000075995922, -0.19200000911951065, 1.0400000493973494, 0.0, 0.0, 0.0, 0.0, 0.0, 1.7103877300713587E9, 0.0, 2024-03-13 20:42:10.071
61.0, -151.12935720942914, 215.27799119940028, 59.75425154203549, 100.39574436051771, 0.01600000075995922, -0.19200000911951065, 1.0400000493973494, 0.0, 0.0, 0.0, 0.0, 0.0, 1.7103877300713587E9, 0.0, 2024-03-13 20:42:10.071
62.0, -250.5863866810687, 297.353835626971, -49.51627541333437, 141.95725256809965, 0.01600000075995922, -0.19200000911951065, 1.0400000493973494, 0.0, 0.0, 0.0, 0.0, 0.0, 1.7103877300846944E9, 0.0, 2024-03-13 20:42:10.084
62.0, -406.4317577346228, 419.4522194303572, -160.28089240100235, 232.8499111412093, 0.01600000075995922, -0.19200000911951065, 1.0400000493973494, 0.0, 0.0, 0.0, 0.0, 0.0, 1.7103877300846944E9, 0.0, 2024-03-13 20:42:10.084
63.0, -216.1026391396299, 577.943569702562, 26.79825313249603, 441.5942971180193, 0.01600000075995922, -0.19200000911951065, 1.0400000493973494, 0.0, 0.0, 0.0, 0.0, 0.0, 1.7103877301004376E9, 0.0, 2024-03-13 20:42:10.100
63.0, -387.7285180562176, 674.9490947532468, -162.35279697645456, 542.1153281270526, 0.01600000075995922, -0.19200000911951065, 1.0400000493973494, 0.0, 0.0, 0.0, 0.0, 0.0, 1.7103877301004376E9, 0.0, 2024-03-13 20:42:10.100
64.0, -287.9741665381007, 643.8106877221726, -39.78505572862923, 453.5993759757839, 0.01600000075995922, -0.19200000911951065, 1.0400000493973494, 0.0, 0.0, 0.0, 0.0, 0.0, 1.71038773010118E9, 0.0, 2024-03-13 20:42:10.101
64.0, -163.31395126506686, 572.8348663630895, 82.21609067590907, 421.9523425507359, 0.01600000075995922, -0.19200000911951065, 1.0400000493973494, 0.0, 0.0, 0.0, 0.0, 0.0, 1.71038773010118E9, 0.0, 2024-03-13 20:42:10.101
65.0, -43.10608688928187, 455.4711959036067, 174.67389738047495, 330.99236577842385, 0.01600000075995922, -0.19200000911951065, 1.0400000493973494, 0.0, 0.0, 0.0, 0.0, 0.0, 1.7103877301147027E9, 0.0, 2024-03-13 20:42:10.114
65.0, -230.58166181808338, 292.35358938621357, 1.1967679858207703, 115.65827607968822, 0.01600000075995922, -0.19200000911951065, 1.0400000493973494, 0.0, 0.0, 0.0, 0.0, 0.0, 1.7103877301147027E9, 0.0, 2024-03-13 20:42:10.114
66.0, -60.71727578062564, 210.7527122530155, 196.4849939220585, 40.39278947142884, 0.01600000075995922, -0.19200000911951065, 1.0400000493973494, 0.0, 0.0, 0.0, 0.0, 0.0, 1.7103877301304543E9, 0.0, 2024-03-13 20:42:10.130
66.0, -178.13143488951027, 216.5981758837588, 60.59198913211003, 103.79157352028415, 0.01600000075995922, -0.19200000911951065, 1.0400000493973494, 0.0, 0.0, 0.0, 0.0, 0.0, 1.7103877301304543E9, 0.0, 2024-03-13 20:42:10.130
