%OpenBCI Raw EXG Data
%Number of channels = 4
%Sample Rate = 200 Hz
%Board = OpenBCI_GUI$BoardGanglionBLE
Sample Index, EXG Channel 0, EXG Channel 1, EXG Channel 2, EXG Channel 3, Accel Channel 0, Accel Channel 1, Accel Channel 2, Other, Other, Other, Other, Other, Timestamp, Other, Timestamp (Formatted)
2.0, -154.8842167649418, -63.821392743848264, -193.51738330721855, -19.69057326670736, 0.01600000075995922, 0.0, 0.0, 0.0, 0.0, 0.0, 0.0, 0.0, 1.7103881434194336E9, 0.0, 2024-03-13 20:49:03.419
2.0, -334.7790144835599, -259.82393957162276, -357.6784219122492, 213.96715626493096, 0.01600000075995922, 0.0, 0.0, 0.0, 0.0, 0.0, 0.0, 0.0, 1.7103881434194336E9, 0.0, 2024-03-13 20:49:03.419
3.0, -188.82006896287203, -186.66214668843895, -214.71513625606894, 341.7464481010102, 0.01600000075995922, 0.0, 0.0, 0.0, 0.0, 0.0, 0.0, 0.0, 1.710388143433884E9, 0.0, 2024-03-13 20:49:03.433
3.0, 55.335559744387865, -120.83242766838521, -448.98433943046257, 415.23548223031685, 0.01600000075995922, 0.0, 0.0, 0.0, 0.0, 0.0, 0.0, 0.0, 1.710388143433884E9, 0.0, 2024-03-13 20:49:03.433
4.0, 237.7043012836948, -66.54403991159052, -269.4055632581003, 410.67654418433085, 0.01600000075995922, 0.0, 0.0, 0.0, 0.0, 0.0, 0.0, 0.0, 1.7103881434345844E9, 0.0, 2024-03-13 20:49:03.434
4.0, 359.31275819288567, -156.97856074012816, -138.9185838541016, 349.97796790348366, 0.01600000075995922, 0.0, 0.0, 0.0, 0.0, 0.0, 0.0, 0.0, 1.7103881434345844E9, 0.0, 2024-03-13 20:49:03.434
5.0, 422.1468173484318, -349.8582911049016, -101.77015759423375, 188.69665226433426, 0.01600000075995922, 0.0, 0.0, 0.0, 0.0, 0.0, 0.0, 0.0, 1.7103881434481192E9, 0.0, 2024-03-13 20:49:03.448
5.0, 271.9019464785233, -432.4334121765569, -241.8425005846657, 55.83857628842816, 0.01600000075995922, 0.0, 0.0, 0.0, 0.0, 0.0, 0.0, 0.0, 1.7103881434481192E9, 0.0, 2024-03-13 20:49:03.448
6.0, 465.8251089309342, -511.66693263780326, -18.86405537649989, -18.132904935162514, 0.01600000075995922, 0.0, 0.0, 0.0, 0.0, 0.0, 0.0, 0.0, 1.7103881434644198E9, 0.0, 2024-03-13 20:49:03.464
6.0, 313.1025543403812, -569.4222076535225, -199.40398583747447, -22.022400889080018, 0.01600000075995922, 0.0, 0.0, 0.0, 0.0, 0.0, 0.0, 0.0, 1.7103881434644198E9, 0.0, 2024-03-13 20:49:03.464
7.0, 197.32460146211088, -469.20036864094436, -315.37641351344064, 45.19108111457899, 0.01600000075995922, 0.0, 0.0, 0.0, 0.0, 0.0, 0.0, 0.0, 1.7103881434648328E9, 0.0, 2024-03-13 20:49:03.464
7.0, 134.64761810470372, -268.2611538716592, -347.89858352812007, 216.97403582930565, 0.01600000075995922, 0.0, 0.0, 0.0, 0.0, 0.0, 0.0, 0.0, 1.7103881434648328E9, 0.0, 2024-03-13 20:49:03.464
8.0, 282.6335894013755, -203.65999198704958, -212.4375371830538, 330.48560933442786, 0.01600000075995922, 0.0, 0.0, 0.0, 0.0, 0.0, 0.0, 0.0, 1.7103881434786005E9, 0.0, 2024-03-13 20:49:03.478
8.0, 63.66805684566498, -128.9180913725868, -434.9971135961823, 410.82988008251414, 0.01600000075995922, 0.0, 0.0, 0.0, 0.0, 0.0, 0.0, 0.0, 1.7103881434786005E9, 0.0, 2024-03-13 20:49:03.478
9.0, 220.01083459332585, -84.60775669757277, -266.9933277866803, 402.4712036815472, 0.01600000075995922, 0.0, 0.0, 0.0, 0.0, 0.0, 0.0, 0.0, 1.7103881434939935E9, 0.0, 2024-03-13 20:49:03.493
9.0, 347.7676870296709, -175.66684081871063, -148.57874543964863, 333.5074484986253, 0.01600000075995922, 0.0, 0.0, 0.0, 0.0, 0.0, 0.0, 0.0, 1.7103881434939935E9, 0.0, 2024-03-13 20:49:03.493
10.0, 396.9548512469046, -365.90994171472266, -100.85014220513403, 186.59108858928084, 0.01600000075995922, 0.0, 1.0400000493973494, 0.0, 0.0, 0.0, 0.0, 0.0, 1.710388143494782E9, 0.0, 2024-03-13 20:49:03.494
10.0, 268.4313193196431, -428.2447242261842, -222.40998041490093, 70.24093101778999, 0.01600000075995922, 0.0, 1.0400000493973494, 0.0, 0.0, 0.0, 0.0, 0.0, 1.710388143494782E9, 0.0, 2024-03-13 20:49:03.494
11.0, 469.52013008715585, -500.96707886457443, -0.7741592908278108, 0.23000384727492929, 0.01600000075995922, -0.19200000911951065, 1.0400000493973494, 0.0, 0.0, 0.0, 0.0, 0.0, 1.710388143508177E9, 0.0, 2024-03-13 20:49:03.508
11.0, 293.9654862671159, -585.0213303687051, -209.69993041548878, -30.00334739452228, 0.01600000075995922, -0.19200000911951065, 1.0400000493973494, 0.0, 0.0, 0.0, 0.0, 0.0, 1.710388143508177E9, 0.0, 2024-03-13 20:49:03.508
12.0, 185.96278539672494, -474.57834477722645, -305.0430699358694, 58.16479406086728, 0.01600000075995922, -0.19200000911951065, 1.0400000493973494, 0.0, 0.0, 0.0, 0.0, 0.0, 1.7103881435238874E9, 0.0, 2024-03-13 20:49:03.523
12.0, 132.82628682628274, -271.4512885338627, -343.7360748774372, 224.11350484471768, 0.01600000075995922, -0.19200000911951065, 1.0400000493973494, 0.0, 0.0, 0.0, 0.0, 0.0, 1.7103881435238874E9, 0.0, 2024-03-13 20:49:03.523
13.0, 288.2696186346002, -199.63959953468293, -208.43958413042128, 338.8368059354834, 0.01600000075995922, -0.19200000911951065, 1.0400000493973494, 0.0, 0.0, 0.0, 0.0, 0.0, 1.7103881435245812E9, 0.0, 2024-03-13 20:49:03.524
13.0, 70.80378596112132, -125.03607521858066, -441.06697122426704, 416.64916441356763, 0.01600000075995922, -0.19200000911951065, 1.0400000493973494, 0.0, 0.0, 0.0, 0.0, 0.0, 1.7103881435245812E9, 0.0, 2024-03-13 20:49:03.524
14.0, 230.93882226385176, -65.47068862430751, -245.21589034469798, 428.2278946763836, 0.01600000075995922, -0.19200000911951065, 1.0400000493973494, 0.0, 0.0, 0.0, 0.0, 0.0, 1.7103881435381913E9, 0.0, 2024-03-13 20:49:03.538
14.0, 343.97916837455705, -162.06108477991074, -120.25274317525327, 360.95083437347785, 0.01600000075995922, -0.19200000911951065, 1.0400000493973494, 0.0, 0.0, 0.0, 0.0, 0.0, 1.7103881435381913E9, 0.0, 2024-03-13 20:49:03.538
15.0, 409.0571675035171, -355.80099213449284, -107.94473242107779, 200.6119735231623, 0.01600000075995922, -0.19200000911951065, 1.0400000493973494, 0.0, 0.0, 0.0, 0.0, 0.0, 1.7103881435540228E9, 0.0, 2024-03-13 20:49:03.554
15.0, 278.25977640319616, -426.77868344355375, -229.14554023509845, 78.9062792151235, 0.01600000075995922, -0.19200000911951065, 1.0400000493973494, 0.0, 0.0, 0.0, 0.0, 0.0, 1.7103881435540228E9, 0.0, 2024-03-13 20:49:03.554
16.0, 475.1785987201147, -496.5764363165945, -3.702500956133008, 0.14772604824975133, 0.01600000075995922, -0.19200000911951065, 1.0400000493973494, 0.0, 0.0, 0.0, 0.0, 0.0, 1.710388143554595E9, 0.0, 2024-03-13 20:49:03.554
16.0, 302.3054631683044, -571.7484254259616, -202.07053450588137, -20.885471302550286, 0.01600000075995922, -0.19200000911951065, 1.0400000493973494, 0.0, 0.0, 0.0, 0.0, 0.0, 1.710388143554595E9, 0.0, 2024-03-13 20:49:03.554
17.0, 226.65663681458682, -438.03952221013606, -293.0417309780605, 75.36833385704085, 0.01600000075995922, -0.19200000911951065, 1.0400000493973494, 0.0, 0.0, 0.0, 0.0, 0.0, 1.710388143568202E9, 0.0, 2024-03-13 20:49:03.568
17.0, 132.79262772668153, -261.0955055565573, -345.53122685616836, 221.89574417099357, 0.01600000075995922, -0.19200000911951065, 1.0400000493973494, 0.0, 0.0, 0.0, 0.0, 0.0, 1.710388143568202E9, 0.0, 2024-03-13 20:49:03.568
18.0, 298.43466671416536, -184.83707551006228, -200.26416282728314, 349.19632881274447, 0.01600000075995922, -0.19200000911951065, 1.0400000493973494, 0.0, 0.0, 0.0, 0.0, 0.0, 1.7103881435838375E9, 0.0, 2024-03-13 20:49:03.583
18.0, 80.03011915180832, -113.53962275478989, -434.6044241008349, 425.4902879088186, 0.01600000075995922, -0.19200000911951065, 1.0400000493973494, 0.0, 0.0, 0.0, 0.0, 0.0, 1.7103881435838375E9, 0.0, 2024-03-13 20:49:03.583
19.0, 229.151150085032, -57.57575981784612, -243.15146556915715, 430.441915450152, 0.01600000075995922, -0.19200000911951065, 1.0400000493973494, 0.0, 0.0, 0.0, 0.0, 0.0, 1.7103881435847528E9, 0.0, 2024-03-13 20:49:03.584
19.0, 351.1036777901463, -155.20958806108683, -125.7616158099845, 363.0002995491959, 0.01600000075995922, -0.19200000911951065, 1.0400000493973494, 0.0, 0.0, 0.0, 0.0, 0.0, 1.7103881435847528E9, 0.0, 2024-03-13 20:49:03.584
20.0, 424.6749897184782, -335.3175600771792, -67.87170439586043, 226.42102311737835, 0.01600000075995922, -0.19200000911951065, 1.0400000493973494, 0.0, 0.0, 0.0, 0.0, 0.0, 1.7103881435985832E9, 0.0, 2024-03-13 20:49:03.598
20.0, 264.826055762358, -422.33194239623845, -217.7837241697125, 83.03886866616085, 0.01600000075995922, -0.19200000911951065, 1.0400000493973494, 0.0, 0.0, 0.0, 0.0, 0.0, 1.7103881435985832E9, 0.0, 2024-03-13 20:49:03.598
21.0, 498.2986602461897, -472.9963670959696, 16.291004206985235, 22.605825282167643, 0.01600000075995922, -0.19200000911951065, 1.0400000493973494, 0.0, 0.0, 0.0, 0.0, 0.0, 1.7103881436138284E9, 0.0, 2024-03-13 20:49:03.613
21.0, 315.9037394071929, -560.7157205566764, -188.83876846265048, -6.277422075625509, 0.01600000075995922, -0.19200000911951065, 1.0400000493973494, 0.0, 0.0, 0.0, 0.0, 0.0, 1.7103881436138284E9, 0.0, 2024-03-13 20:49:03.613
22.0, 218.2530816141516, -440.6462324792519, -284.77281217603013, 87.16397831728682, 0.01600000075995922, -0.19200000911951065, 1.0400000493973494, 0.0, 0.0, 0.0, 0.0, 0.0, 1.7103881436145718E9, 0.0, 2024-03-13 20:49:03.614
22.0, 142.37051151320338, -252.5834932574071, -340.6581372139044, 233.95318162813783, 0.01600000075995922, -0.19200000911951065, 1.0400000493973494, 0.0, 0.0, 0.0, 0.0, 0.0, 1.7103881436145718E9, 0.0, 2024-03-13 20:49:03.614
23.0, 310.4659248716198, -164.10681005567312, -197.19370496366173, 364.1484488355927, 0.01600000075995922, -0.19200000911951065, 1.0400000493973494, 0.0, 0.0, 0.0, 0.0, 0.0, 1.7103881436281705E9, 0.0, 2024-03-13 20:49:03.628
23.0, 77.8497574776411, -105.65591364819556, -440.95103432564065, 432.214628029149, 0.01600000075995922, -0.19200000911951065, 1.0400000493973494, 0.0, 0.0, 0.0, 0.0, 0.0, 1.7103881436281705E9, 0.0, 2024-03-13 20:49:03.628
24.0, 246.5603843787685, -47.08160054218024, -240.6120734992437, 437.76837946334854, 0.01600000075995922, -0.19200000911951065, 1.0400000493973494, 0.0, 0.0, 0.0, 0.0, 0.0, 1.710388143643828E9, 0.0, 2024-03-13 20:49:03.643
24.0, 353.65428955992684, -160.03031910397112, -135.74714869167656, 351.9601148799993, 0.01600000075995922, -0.19200000911951065, 1.0400000493973494, 0.0, 0.0, 0.0, 0.0, 0.0, 1.710388143643828E9, 0.0, 2024-03-13 20:49:03.643
25.0, 450.3344433144666, -323.4957363172434, -75.15702950954437, 220.41100388858467, 0.01600000075995922, -0.19200000911951065, 1.0400000493973494, 0.0, 0.0, 0.0, 0.0, 0.0, 1.7103881436445825E9, 0.0, 2024-03-13 20:49:03.644
25.0, 282.10813345760107, -415.3121501794085, -229.2053786343895, 75.0915812603198, 0.01600000075995922, -0.19200000911951065, 1.0400000493973494, 0.0, 0.0, 0.0, 0.0, 0.0, 1.7103881436445825E9, 0.0, 2024-03-13 20:49:03.644
26.0, 469.47525128768757, -492.6420615632087, -0.9948133882135153, 2.257029623258859, 0.01600000075995922, -0.19200000911951065, 1.0400000493973494, 0.0, 0.0, 0.0, 0.0, 0.0, 1.7103881436583312E9, 0.0, 2024-03-13 20:49:03.658
26.0, 314.56111532310024, -564.1863477155566, -191.0939281359315, -14.804393974598497, 0.01600000075995922, -0.19200000911951065, 1.0400000493973494, 0.0, 0.0, 0.0, 0.0, 0.0, 1.7103881436583312E9, 0.0, 2024-03-13 20:49:03.658
27.0, 220.3661250891164, -437.1382063208148, -290.81275060446933, 77.3504808335565, 0.01600000075995922, -0.19200000911951065, 1.0400000493973494, 0.0, 0.0, 0.0, 0.0, 0.0, 1.7103881436738725E9, 0.0, 2024-03-13 20:49:03.673
27.0, 125.15575201716274, -263.41798342904076, -342.1391375963576, 226.83989191241562, 0.01600000075995922, -0.19200000911951065, 1.0400000493973494, 0.0, 0.0, 0.0, 0.0, 0.0, 1.7103881436738725E9, 0.0, 2024-03-13 20:49:03.673
28.0, 289.8889953154139, -186.36295469198376, -208.64527862798423, 347.71532843029127, 0.01600000075995922, -0.19200000911951065, 1.0400000493973494, 0.0, 0.0, 0.0, 0.0, 0.0, 1.7103881436745727E9, 0.0, 2024-03-13 20:49:03.674
28.0, 93.51245849207044, -94.20060008391738, -413.9564364454709, 446.25421246280894, 0.01600000075995922, -0.19200000911951065, 1.0400000493973494, 0.0, 0.0, 0.0, 0.0, 0.0, 1.7103881436745727E9, 0.0, 2024-03-13 20:49:03.674
29.0, 252.43576720915735, -45.81751435715705, -231.45305850775912, 448.50563223613426, 0.01600000075995922, -0.19200000911951065, 1.0400000493973494, 0.0, 0.0, 0.0, 0.0, 0.0, 1.7103881436881735E9, 0.0, 2024-03-13 20:49:03.688
29.0, 352.603377672378, -161.46270078700036, -126.99952269531786, 363.2957516456954, 0.01600000075995922, -0.19200000911951065, 1.0400000493973494, 0.0, 0.0, 0.0, 0.0, 0.0, 1.7103881436881735E9, 0.0, 2024-03-13 20:49:03.688
30.0, 425.49776770872995, -343.68745617801324, -90.3372834296897, 210.33945330791175, 0.01600000075995922, -0.19200000911951065, 1.0400000493973494, 0.0, 0.0, 0.0, 0.0, 0.0, 1.7103881437039073E9, 0.0, 2024-03-13 20:49:03.703
30.0, 283.73872983828187, -413.6142355995253, -209.84017666382715, 92.18666395777836, 0.01600000075995922, -0.19200000911951065, 1.0400000493973494, 0.0, 0.0, 0.0, 0.0, 0.0, 1.7103881437039073E9, 0.0, 2024-03-13 20:49:03.703
31.0, 486.33472028793767, -475.6703955642879, 10.49789917562157, 20.70221620472148, 0.01600000075995922, -0.20800000987946987, 1.0400000493973494, 0.0, 0.0, 0.0, 0.0, 0.0, 1.710388143704609E9, 0.0, 2024-03-13 20:49:03.704
31.0, 305.21136543387547, -568.5882099634036, -201.30759491492063, -12.059307407122105, 0.01600000075995922, -0.20800000987946987, 1.0400000493973494, 0.0, 0.0, 0.0, 0.0, 0.0, 1.710388143704609E9, 0.0, 2024-03-13 20:49:03.704
32.0, 211.6970369918272, -443.38383924681693, -295.47266594925895, 80.39849929744378, 0.01600000075995922, -0.20800000987946987, 1.0400000493973494, 0.0, 0.0, 0.0, 0.0, 0.0, 1.7103881437181814E9, 0.0, 2024-03-13 20:49:03.718
32.0, 146.61155806295574, -249.86458598962054, -327.1421387740411, 237.50608658604324, 0.01600000075995922, -0.20800000987946987, 1.0400000493973494, 0.0, 0.0, 0.0, 0.0, 0.0, 1.7103881437181814E9, 0.0, 2024-03-13 20:49:03.718
33.0, 279.7164674359374, -196.15401277597994, -203.68243138678372, 348.13045732537284, 0.01600000075995922, -0.20800000987946987, 1.0400000493973494, 0.0, 0.0, 0.0, 0.0, 0.0, 1.7103881437341373E9, 0.0, 2024-03-13 20:49:03.734
33.0, 76.46225459408015, -114.71769124083221, -426.38412399822846, 436.69128827610984, 0.01600000075995922, -0.20800000987946987, 1.0400000493973494, 0.0, 0.0, 0.0, 0.0, 0.0, 1.7103881437341373E9, 0.0, 2024-03-13 20:49:03.734
34.0, 248.92026125080884, -50.514828701503575, -232.10006120009348, 441.0894106240012, 0.01600000075995922, -0.20800000987946987, 1.0400000493973494, 0.0, 0.0, 0.0, 0.0, 0.0, 1.7103881437346523E9, 0.0, 2024-03-13 20:49:03.734
34.0, 345.4863480567001, -172.77963805291802, -150.16446302086115, 343.16387018421665, 0.01600000075995922, -0.20800000987946987, 1.0400000493973494, 0.0, 0.0, 0.0, 0.0, 0.0, 1.7103881437346523E9, 0.0, 2024-03-13 20:49:03.734
35.0, 412.0715268678032, -352.7417539707385, -103.66254697181284, 196.36718707345426, 0.01600000075995922, -0.20800000987946987, 1.0400000493973494, 0.0, 0.0, 0.0, 0.0, 0.0, 1.7103881437485688E9, 0.0, 2024-03-13 20:49:03.748
35.0, 272.0964212762192, -424.2093721739948, -225.72727167559788, 79.22043081140146, 0.01600000075995922, -0.20800000987946987, 1.0400000493973494, 0.0, 0.0, 0.0, 0.0, 0.0, 1.7103881437485688E9, 0.0, 2024-03-13 20:49:03.748
36.0, 479.81607466517016, -487.31644402630627, 1.9858868764713407, 4.684224694501609, 0.01600000075995922, -0.20800000987946987, 1.0400000493973494, 0.0, 0.0, 0.0, 0.0, 0.0, 1.7103881437642355E9, 0.0, 2024-03-13 20:49:03.764
36.0, 298.61792181199417, -580.294096824713, -205.72067686263472, -21.708249292802066, 0.01600000075995922, -0.20800000987946987, 1.0400000493973494, 0.0, 0.0, 0.0, 0.0, 0.0, 1.7103881437642355E9, 0.0, 2024-03-13 20:49:03.764
37.0, 200.77652912121266, -456.86991848703474, -301.9464327725582, 68.74123113555834, 0.01600000075995922, -0.20800000987946987, 1.0400000493973494, 0.0, 0.0, 0.0, 0.0, 0.0, 1.7103881437653077E9, 0.0, 2024-03-13 20:49:03.765
37.0, 144.0684260930866, -252.7704882551916, -343.4032237813808, 234.20749482512474, 0.01600000075995922, -0.20800000987946987, 1.0400000493973494, 0.0, 0.0, 0.0, 0.0, 0.0, 1.7103881437653077E9, 0.0, 2024-03-13 20:49:03.765
38.0, 284.43622118001804, -196.87955336738378, -212.16826438624412, 340.11959162028506, 0.01600000075995922, -0.20800000987946987, 1.0400000493973494, 0.0, 0.0, 0.0, 0.0, 0.0, 1.7103881437781613E9, 0.0, 2024-03-13 20:49:03.778
38.0, 73.84432462509722, -123.30076163914055, -450.2746049151756, 416.45842951582745, 0.01600000075995922, -0.20800000987946987, 1.0400000493973494, 0.0, 0.0, 0.0, 0.0, 0.0, 1.7103881437781613E9, 0.0, 2024-03-13 20:49:03.778
39.0, 239.35359716415405, -56.173297334462404, -245.21963024465367, 433.5609920131974, 0.01600000075995922, -0.20800000987946987, 1.0400000493973494, 0.0, 0.0, 0.0, 0.0, 0.0, 1.710388143793917E9, 0.0, 2024-03-13 20:49:03.793
39.0, 341.56319300318137, -169.1182759962976, -140.57909943442792, 350.6698493952863, 0.01600000075995922, -0.20800000987946987, 1.0400000493973494, 0.0, 0.0, 0.0, 0.0, 0.0, 1.710388143793917E9, 0.0, 2024-03-13 20:49:03.793
40.0, 422.09445874905214, -346.8214923408814, -91.60884941462427, 208.41714473068714, 0.01600000075995922, -0.20800000987946987, 1.0400000493973494, 0.0, 0.0, 0.0, 0.0, 0.0, 1.7103881437946663E9, 0.0, 2024-03-13 20:49:03.794
40.0, 277.29862211458385, -419.66539372783154, -230.37970722047612, 76.47908414388075, 0.01600000075995922, -0.20800000987946987, 1.0400000493973494, 0.0, 0.0, 0.0, 0.0, 0.0, 1.7103881437946663E9, 0.0, 2024-03-13 20:49:03.794
41.0, 477.11586689716205, -493.32272335514426, -11.66100806184113, -4.0858407015912235, 0.01600000075995922, -0.19200000911951065, 1.0400000493973494, 0.0, 0.0, 0.0, 0.0, 0.0, 1.7103881438081667E9, 0.0, 2024-03-13 20:49:03.808
41.0, 300.6524273878895, -578.5550433453172, -205.44766416586936, -25.736121545080096, 0.01600000075995922, -0.19200000911951065, 1.0400000493973494, 0.0, 0.0, 0.0, 0.0, 0.0, 1.7103881438081667E9, 0.0, 2024-03-13 20:49:03.808
42.0, 226.364924618043, -428.37188082467765, -286.9681334500201, 94.77467472711578, 0.01600000075995922, -0.19200000911951065, 1.0400000493973494, 0.0, 0.0, 0.0, 0.0, 0.0, 1.7103881438238952E9, 0.0, 2024-03-13 20:49:03.823
42.0, 157.4086492350325, -239.99872990651056, -335.1417847792618, 246.5977833783254, 0.01600000075995922, -0.19200000911951065, 1.0400000493973494, 0.0, 0.0, 0.0, 0.0, 0.0, 1.7103881438238952E9, 0.0, 2024-03-13 20:49:03.823
43.0, 281.45926081528887, -195.11806048825383, -216.02036134060472, 339.3379525295459, 0.01600000075995922, -0.19200000911951065, 1.0400000493973494, 0.0, 0.0, 0.0, 0.0, 0.0, 1.710388143824644E9, 0.0, 2024-03-13 20:49:03.824
43.0, 78.45188137050718, -110.76461698766798, -432.61105742445216, 429.7762132580392, 0.01600000075995922, -0.19200000911951065, 1.0400000493973494, 0.0, 0.0, 0.0, 0.0, 0.0, 1.710388143824644E9, 0.0, 2024-03-13 20:49:03.824
44.0, 263.8686413737014, -36.1648325715214, -240.14458600478247, 443.69986079307273, 0.01600000075995922, -0.19200000911951065, 1.0400000493973494, 0.0, 0.0, 0.0, 0.0, 0.0, 1.7103881438381066E9, 0.0, 2024-03-13 20:49:03.838
44.0, 339.98121532192454, -165.79724483564496, -148.2234549438581, 350.8531044931151, 0.01600000075995922, -0.19200000911951065, 1.0400000493973494, 0.0, 0.0, 0.0, 0.0, 0.0, 1.7103881438381066E9, 0.0, 2024-03-13 20:49:03.838
45.0, 419.8131197760813, -350.0677255024202, -98.72587903030217, 209.84952641371638, 0.01600000075995922, -0.19200000911951065, 1.0400000493973494, 0.0, 0.0, 0.0, 0.0, 0.0, 1.7103881438538368E9, 0.0, 2024-03-13 20:49:03.853
45.0, 290.79218115471303, -416.9053475605324, -226.52387036615983, 96.63340500509366, 0.01600000075995922, -0.19200000911951065, 1.0400000493973494, 0.0, 0.0, 0.0, 0.0, 0.0, 1.7103881438538368E9, 0.0, 2024-03-13 20:49:03.853
46.0, 481.67854484310374, -493.99216544721276, -26.373774487525225, -6.374659474473447, 0.01600000075995922, -0.19200000911951065, 1.0400000493973494, 0.0, 0.0, 0.0, 0.0, 0.0, 1.7103881438545668E9, 0.0, 2024-03-13 20:49:03.854
46.0, 305.26372403325513, -572.503885217011, -217.38916472438723, -22.837699079420418, 0.01600000075995922, -0.19200000911951065, 1.0400000493973494, 0.0, 0.0, 0.0, 0.0, 0.0, 1.7103881438545668E9, 0.0, 2024-03-13 20:49:03.854
47.0, 200.5371755240485, -452.2174829421565, -305.1627467344515, 73.15431308327243, 0.01600000075995922, -0.19200000911951065, 1.0400000493973494, 0.0, 0.0, 0.0, 0.0, 0.0, 1.710388143868709E9, 0.0, 2024-03-13 20:49:03.868
47.0, 153.52663308102638, -244.63994575152174, -345.1385373608209, 237.38266988750547, 0.01600000075995922, -0.19200000911951065, 1.0400000493973494, 0.0, 0.0, 0.0, 0.0, 0.0, 1.710388143868709E9, 0.0, 2024-03-13 20:49:03.868
48.0, 288.1649014358409, -193.22941101063043, -217.01517472881824, 342.2999532944523, 0.01600000075995922, -0.19200000911951065, 1.0400000493973494, 0.0, 0.0, 0.0, 0.0, 0.0, 1.7103881438841095E9, 0.0, 2024-03-13 20:49:03.884
48.0, 87.91382825840265, -111.99130417313427, -436.1452628825791, 424.19628252414986, 0.01600000075995922, -0.19200000911951065, 1.0400000493973494, 0.0, 0.0, 0.0, 0.0, 0.0, 1.7103881438841095E9, 0.0, 2024-03-13 20:49:03.884
49.0, 267.51504383049905, -32.55956901423633, -235.83996115578339, 447.7539123450406, 0.01600000075995922, -0.19200000911951065, 1.0400000493973494, 0.0, 0.0, 0.0, 0.0, 0.0, 1.7103881438845737E9, 0.0, 2024-03-13 20:49:03.884
49.0, 348.0070406268351, -160.03031910397112, -140.60153883416206, 349.53291980875656, 0.01600000075995922, -0.19200000911951065, 1.0400000493973494, 0.0, 0.0, 0.0, 0.0, 0.0, 1.7103881438845737E9, 0.0, 2024-03-13 20:49:03.884
50.0, 422.4834083444439, -348.1454169251956, -96.48193905688822, 205.765555662103, 0.01600000075995922, -0.19200000911951065, 1.0400000493973494, 0.0, 0.0, 0.0, 0.0, 0.0, 1.7103881438983512E9, 0.0, 2024-03-13 20:49:03.898
50.0, 283.3497802428901, -407.7912113685161, -218.48308546142653, 91.7266562632285, 0.01600000075995922, -0.19200000911951065, 1.0400000493973494, 0.0, 0.0, 0.0, 0.0, 0.0, 1.7103881438983512E9, 0.0, 2024-03-13 20:49:03.898
51.0, 491.323746828828, -479.68704811669886, 0.5460253935307264, 16.464909554924816, 0.01600000075995922, -0.19200000911951065, 1.0400000493973494, 0.0, 0.0, 0.0, 0.0, 0.0, 1.7103881439147341E9, 0.0, 2024-03-13 20:49:03.914
51.0, 322.0596147342585, -559.683508168906, -195.58180808275938, -11.737676010932773, 0.01600000075995922, -0.19200000911951065, 1.0400000493973494, 0.0, 0.0, 0.0, 0.0, 0.0, 1.7103881439147341E9, 0.0, 2024-03-13 20:49:03.914
52.0, 214.94701005332172, -439.3484871946275, -294.39557476202026, 82.99024996673688, 0.01600000075995922, -0.19200000911951065, 1.0400000493973494, 0.0, 0.0, 0.0, 0.0, 0.0, 1.7103881439147637E9, 0.0, 2024-03-13 20:49:03.914
52.0, 158.2576065249741, -240.6195532991551, -339.19957623118535, 245.16914159525186, 0.01600000075995922, -0.19200000911951065, 1.0400000493973494, 0.0, 0.0, 0.0, 0.0, 0.0, 1.7103881439147637E9, 0.0, 2024-03-13 20:49:03.914
53.0, 292.6789606823586, -191.00791043695062, -208.0281951352954, 350.8194453935139, 0.01600000075995922, -0.19200000911951065, 1.0400000493973494, 0.0, 0.0, 0.0, 0.0, 0.0, 1.710388143928439E9, 0.0, 2024-03-13 20:49:03.928
53.0, 86.30567127745599, -108.61417451314628, -423.24260803544894, 438.6996145523153, 0.01600000075995922, -0.19200000911951065, 1.0400000493973494, 0.0, 0.0, 0.0, 0.0, 0.0, 1.710388143928439E9, 0.0, 2024-03-13 20:49:03.928
54.0, 241.4442012393847, -47.713643634691834, -249.55791419325396, 438.1087103593163, 0.01600000075995922, -0.19200000911951065, 1.0400000493973494, 0.0, 0.0, 0.0, 0.0, 0.0, 1.710388143944024E9, 0.0, 2024-03-13 20:49:03.944
54.0, 360.7040009764023, -150.1869024205953, -127.83352038543671, 363.54632494272664, 0.01600000075995922, -0.19200000911951065, 1.0400000493973494, 0.0, 0.0, 0.0, 0.0, 0.0, 1.710388143944024E9, 0.0, 2024-03-13 20:49:03.944
55.0, 416.5033083152957, -356.5153130260296, -100.95485940389335, 199.15341254044324, 0.01600000075995922, -0.19200000911951065, 1.0400000493973494, 0.0, 0.0, 0.0, 0.0, 0.0, 1.7103881439446015E9, 0.0, 2024-03-13 20:49:03.944
55.0, 286.5062558054924, -414.07050339411944, -219.44423975003883, 85.88867243239656, 0.01600000075995922, -0.19200000911951065, 1.0400000493973494, 0.0, 0.0, 0.0, 0.0, 0.0, 1.7103881439446015E9, 0.0, 2024-03-13 20:49:03.944
56.0, 485.2127503012307, -488.73386610951275, -2.5917506692931056, 4.706664094235748, 0.01600000075995922, -0.19200000911951065, 1.0400000493973494, 0.0, 0.0, 0.0, 0.0, 0.0, 1.710388143958168E9, 0.0, 2024-03-13 20:49:03.958
56.0, 293.7784912693314, -575.6678405795246, -209.71862991526723, -24.842285455670208, 0.01600000075995922, -0.19200000911951065, 1.0400000493973494, 0.0, 0.0, 0.0, 0.0, 0.0, 1.710388143958168E9, 0.0, 2024-03-13 20:49:03.958
57.0, 217.09371262788773, -443.2005841489881, -300.69730618735775, 72.03234309656546, 0.01600000075995922, -0.19200000911951065, 1.0400000493973494, 0.0, 0.0, 0.0, 0.0, 0.0, 1.710388143973853E9, 0.0, 2024-03-13 20:49:03.973
57.0, 151.93717559985816, -246.07980723446235, -348.08931842586026, 226.94460911117494, 0.01600000075995922, -0.19200000911951065, 1.0400000493973494, 0.0, 0.0, 0.0, 0.0, 0.0, 1.710388143973853E9, 0.0, 2024-03-13 20:49:03.973
58.0, 277.83529775822535, -208.11795273423195, -227.15778340864927, 326.7307497789152, 0.01600000075995922, -0.19200000911951065, 1.0400000493973494, 0.0, 0.0, 0.0, 0.0, 0.0, 1.7103881439745836E9, 0.0, 2024-03-13 20:49:03.974
58.0, 86.62730267364532, -114.7588301403448, -436.65762917650864, 424.13270422490314, 0.01600000075995922, -0.19200000911951065, 1.0400000493973494, 0.0, 0.0, 0.0, 0.0, 0.0, 1.7103881439745836E9, 0.0, 2024-03-13 20:49:03.974
59.0, 263.3450553799048, -32.58200841397047, -238.10260062897578, 441.381122820545, 0.01600000075995922, -0.19200000911951065, 1.0400000493973494, 0.0, 0.0, 0.0, 0.0, 0.0, 1.710388143988192E9, 0.0, 2024-03-13 20:49:03.988
59.0, 355.0417924434878, -164.2638858538121, -137.01497477665544, 346.5933584435843, 0.01600000075995922, -0.19200000911951065, 1.0400000493973494, 0.0, 0.0, 0.0, 0.0, 0.0, 1.710388143988192E9, 0.0, 2024-03-13 20:49:03.988
60.0, 422.2141355476342, -354.7426004470326, -95.98079246282578, 202.59412049967796, 0.01600000075995922, -0.19200000911951065, 1.0400000493973494, 0.0, 0.0, 0.0, 0.0, 0.0, 1.7103881440039012E9, 0.0, 2024-03-13 20:49:04.003
60.0, 266.22477834578604, -429.81174230761826, -232.71340479282662, 71.32176210498437, 0.01600000075995922, -0.19200000911951065, 1.0400000493973494, 0.0, 0.0, 0.0, 0.0, 0.0, 1.7103881440039012E9, 0.0, 2024-03-13 20:49:04.003
61.0, 489.7230696477927, -481.0408919006586, -2.81240476667881, 7.361993062775582, 0.01600000075995922, -0.19200000911951065, 1.0400000493973494, 0.0, 0.0, 0.0, 0.0, 0.0, 1.7103881440048296E9, 0.0, 2024-03-13 20:49:04.004
61.0, 287.271065346431, -595.4481714451686, -220.26514779031277, -41.58581755729392, 0.01600000075995922, -0.19200000911951065, 1.0400000493973494, 0.0, 0.0, 0.0, 0.0, 0.0, 1.7103881440048296E9, 0.0, 2024-03-13 20:49:04.004
62.0, 203.03168879449368, -458.8483255635947, -309.9535585776903, 62.742431606631726, 0.01600000075995922, -0.19200000911951065, 1.0400000493973494, 0.0, 0.0, 0.0, 0.0, 0.0, 1.7103881440181885E9, 0.0, 2024-03-13 20:49:04.018
62.0, 155.4414618583396, -247.48974951775745, -335.60179247381166, 236.66086919605732, 0.01600000075995922, -0.19200000911951065, 1.0400000493973494, 0.0, 0.0, 0.0, 0.0, 0.0, 1.7103881440181885E9, 0.0, 2024-03-13 20:49:04.018
63.0, 287.6076563424431, -205.52620206493884, -210.84807970188558, 334.5060017867945, 0.01600000075995922, -0.19200000911951065, 1.0400000493973494, 0.0, 0.0, 0.0, 0.0, 0.0, 1.7103881440340726E9, 0.0, 2024-03-13 20:49:04.034
63.0, 68.2195150917396, -127.504409189336, -448.0194452418946, 408.1483718142845, 0.01600000075995922, -0.19200000911951065, 1.0400000493973494, 0.0, 0.0, 0.0, 0.0, 0.0, 1.7103881440340726E9, 0.0, 2024-03-13 20:49:04.034
64.0, 243.53480531461537, -52.33242007996887, -254.05327393999323, 430.09036485431716, 0.01600000075995922, -0.19200000911951065, 1.0400000493973494, 0.0, 0.0, 0.0, 0.0, 0.0, 1.7103881440350273E9, 0.0, 2024-03-13 20:49:04.035
64.0, 354.24519375292584, -158.13418982643634, -132.8449863260612, 354.65284284809604, 0.01600000075995922, -0.19200000911951065, 1.0400000493973494, 0.0, 0.0, 0.0, 0.0, 0.0, 1.7103881440350273E9, 0.0, 2024-03-13 20:49:04.035
65.0, 419.94401627453044, -354.2227543531917, -112.24935727007687, 190.21505164634436, 0.01600000075995922, -0.19200000911951065, 1.0400000493973494, 0.0, 0.0, 0.0, 0.0, 0.0, 1.7103881440483844E9, 0.0, 2024-03-13 20:49:04.048
65.0, 285.29452821984887, -416.24712516833097, -227.77673685131595, 77.89650622708723, 0.01600000075995922, -0.19200000911951065, 1.0400000493973494, 0.0, 0.0, 0.0, 0.0, 0.0, 1.7103881440483844E9, 0.0, 2024-03-13 20:49:04.048
66.0, 512.0390526833944, -468.42994925007224, 3.377129659987986, 16.393851455766708, 0.01600000075995922, -0.19200000911951065, 1.0400000493973494, 0.0, 0.0, 0.0, 0.0, 0.0, 1.710388144064101E9, 0.0, 2024-03-13 20:49:04.064
66.0, 323.693951014895, -564.6874943096191, -199.69943793397397, -17.91225083777681, 0.01600000075995922, -0.19200000911951065, 1.0400000493973494, 0.0, 0.0, 0.0, 0.0, 0.0, 1.710388144064101E9, 0.0, 2024-03-13 20:49:04.064
67.0, 228.58268529176712, -447.4752897983417, -308.6745127928443, 63.36699489923194, 0.01600000075995922, -0.19200000911951065, 1.0400000493973494, 0.0, 0.0, 0.0, 0.0, 0.0, 1.7103881440647168E9, 0.0, 2024-03-13 20:49:04.064
67.0, 140.04055384080857, -253.13325855089352, -351.97881437977776, 229.05017278622836, 0.01600000075995922, -0.19200000911951065, 1.0400000493973494, 0.0, 0.0, 0.0, 0.0, 0.0, 1.7103881440647168E9, 0.0, 2024-03-13 20:49:04.064
68.0, 305.3908806317486, -172.25605205912143, -195.3200150858611, 364.7879717280157, 0.01600000075995922, -0.19200000911951065, 1.0400000493973494, 0.0, 0.0, 0.0, 0.0, 0.0, 1.7103881440782251E9, 0.0, 2024-03-13 20:49:04.078
68.0, 84.87702949438244, -116.48292401991785, 45.57442086003721, 422.7377215414308, 0.01600000075995922, -0.19200000911951065, 1.0400000493973494, 0.0, 0.0, 0.0, 0.0, 0.0, 1.7103881440782251E9, 0.0, 2024-03-13 20:49:04.078
69.0, 254.21221968811005, -40.884586315602064, 240.83085764665157, 443.69986079307273, 0.01600000075995922, -0.19200000911951065, 1.0400000493973494, 0.0, 0.0, 0.0, 0.0, 0.0, 1.7103881440938878E9, 0.0, 2024-03-13 20:49:04.093
69.0, 359.65682898880914, -147.6250709509477, 347.93972242763266, 357.0314192199148, 0.01600000075995922, -0.19200000911951065, 1.0400000493973494, 0.0, 0.0, 0.0, 0.0, 0.0, 1.7103881440938878E9, 0.0, 2024-03-13 20:49:04.093
70.0, 421.5185141558759, -349.600238007959, 372.40614793775603, 189.37357415631413, 0.01600000075995922, -0.19200000911951065, 1.0400000493973494, 0.0, 0.0, 0.0, 0.0, 0.0, 1.7103881440945656E9, 0.0, 2024-03-13 20:49:04.094
70.0, 284.3632931308821, -416.80437026172876, 253.14634820073843, 75.24865705845878, 0.01600000075995922, -0.19200000911951065, 1.0400000493973494, 0.0, 0.0, 0.0, 0.0, 0.0, 1.7103881440945656E9, 0.0, 2024-03-13 20:49:04.094
71.0, 513.2545201689936, -452.3595991404727, 8.366156200878322, 26.682316233869642, 0.01600000075995922, -0.20800000987946987, 1.0400000493973494, 0.0, 0.0, 0.0, 0.0, 0.0, 1.7103881441083395E9, 0.0, 2024-03-13 20:49:04.108
71.0, 335.79252737155184, -545.7449010340497, -185.43171960301697, 1.445471332874149, 0.01600000075995922, -0.20800000987946987, 1.0400000493973494, 0.0, 0.0, 0.0, 0.0, 0.0, 1.7103881441083395E9, 0.0, 2024-03-13 20:49:04.108
72.0, 206.30410125572234, -461.4512959327549, -324.44941080594435, 55.184093796182424, 0.01600000075995922, -0.20800000987946987, 1.0400000493973494, 0.0, 0.0, 0.0, 0.0, 0.0, 1.7103881441240048E9, 0.0, 2024-03-13 20:49:04.124
72.0, 145.7027623737231, -251.67095766821876, -366.4821464079432, 219.7303420966491, 0.01600000075995922, -0.20800000987946987, 1.0400000493973494, 0.0, 0.0, 0.0, 0.0, 0.0, 1.7103881441240048E9, 0.0, 2024-03-13 20:49:04.124
73.0, 319.41550546558574, -164.83235064707696, -208.06933403480798, 357.38670971570536, 0.01600000075995922, -0.20800000987946987, 1.0400000493973494, 0.0, 0.0, 0.0, 0.0, 0.0, 1.71038814412478E9, 0.0, 2024-03-13 20:49:04.124
73.0, 77.0344592873007, -133.07686012331396, 27.914613269269466, 401.48387009324506, 0.01600000075995922, -0.20800000987946987, 1.0400000493973494, 0.0, 0.0, 0.0, 0.0, 0.0, 1.71038814412478E9, 0.0, 2024-03-13 20:49:04.124
74.0, 237.57714468520135, -63.9186301426962, 215.60897234547883, 413.5076484507881, 0.01600000075995922, -0.20800000987946987, 1.0400000493973494, 0.0, 0.0, 0.0, 0.0, 0.0, 1.7103881441383195E9, 0.0, 2024-03-13 20:49:04.138
74.0, 395.8777600596659, -114.76257004030049, 366.42604790860787, 382.0251706237905, 0.01600000075995922, -0.20800000987946987, 1.0400000493973494, 0.0, 0.0, 0.0, 0.0, 0.0, 1.7103881441383195E9, 0.0, 2024-03-13 20:49:04.138
75.0, 432.46146142622456, -336.9219771581702, 399.7261171140708, 207.77762183826417, 0.01600000075995922, -0.20800000987946987, 1.0400000493973494, 0.0, 0.0, 0.0, 0.0, 0.0, 1.7103881441538827E9, 0.0, 2024-03-13 20:49:04.153
75.0, 258.09797574207187, -452.1314652431756, 235.16116931382567, 42.55445164581761, 0.01600000075995922, -0.20800000987946987, 1.0400000493973494, 0.0, 0.0, 0.0, 0.0, 0.0, 1.7103881441538827E9, 0.0, 2024-03-13 20:49:04.153
76.0, 498.50435474375263, -472.13245020620525, 476.30430860677734, 11.030834919307381, 0.01600000075995922, -0.20800000987946987, 1.0400000493973494, 0.0, 0.0, 0.0, 0.0, 0.0, 1.710388144154788E9, 0.0, 2024-03-13 20:49:04.154
76.0, 343.39200408151373, -531.2677483055741, 313.2745897383429, 8.397945350501686, 0.01600000075995922, -0.20800000987946987, 1.0400000493973494, 0.0, 0.0, 0.0, 0.0, 0.0, 1.710388144154788E9, 0.0, 2024-03-13 20:49:04.154
77.0, 208.0955133344978, -467.68570915888995, 186.76686388719827, 54.21171980770305, 0.01600000075995922, -0.20800000987946987, 1.0400000493973494, 0.0, 0.0, 0.0, 0.0, 0.0, 1.7103881441681943E9, 0.0, 2024-03-13 20:49:04.168
77.0, 121.75618295744061, -280.35599032836035, 113.55084245465696, 201.17669841647148, 0.01600000075995922, -0.20800000987946987, 1.0400000493973494, 0.0, 0.0, 0.0, 0.0, 0.0, 1.7103881441681943E9, 0.0, 2024-03-13 20:49:04.168
78.0, 294.51525156060234, -169.8924352871254, 280.94315462140366, 361.8259709631093, 0.01600000075995922, -0.20800000987946987, 1.0400000493973494, 0.0, 0.0, 0.0, 0.0, 0.0, 1.7103881441841078E9, 0.0, 2024-03-13 20:49:04.184
78.0, 87.28552506584674, -115.88827992696315, 63.26414765045047, 426.41778309782967, 0.01600000075995922, -0.20800000987946987, 1.0400000493973494, 0.0, 0.0, 0.0, 0.0, 0.0, 1.7103881441841078E9, 0.0, 2024-03-13 20:49:04.184
79.0, 227.21388190798461, -76.813805189915, 210.81068070232868, 404.2551359604113, 0.01600000075995922, -0.20800000987946987, 1.0400000493973494, 0.0, 0.0, 0.0, 0.0, 0.0, 1.7103881441846137E9, 0.0, 2024-03-13 20:49:04.184
79.0, 371.3028774508275, -136.15479778684676, 358.27680590515956, 378.32640956761315, 0.01600000075995922, -0.20800000987946987, 1.0400000493973494, 0.0, 0.0, 0.0, 0.0, 0.0, 1.7103881441846137E9, 0.0, 2024-03-13 20:49:04.184
80.0, 437.79829866299406, -331.22610952565446, 412.49787546275184, 224.42017664108425, 0.01600000075995922, -0.20800000987946987, 1.0400000493973494, 0.0, 0.0, 0.0, 0.0, 0.0, 1.7103881441984544E9, 0.0, 2024-03-13 20:49:04.198
80.0, 255.88769486825913, -447.31073420029134, 258.2662712400779, 59.563516644295305, 0.01600000075995922, -0.20800000987946987, 1.0400000493973494, 0.0, 0.0, 0.0, 0.0, 0.0, 1.7103881441984544E9, 0.0, 2024-03-13 20:49:04.198
81.0, 13.242985743097961, -471.10023781843483, 473.5068634399213, 14.995128872338682, 0.01600000075995922, -0.19200000911951065, 1.0400000493973494, 0.0, 0.0, 0.0, 0.0, 0.0, 1.7103881442141967E9, 0.0, 2024-03-13 20:49:04.214
81.0, -167.786871612072, -551.264993368648, 292.4620464849286, -3.139646012801677, 0.01600000075995922, -0.19200000911951065, 1.0400000493973494, 0.0, 0.0, 0.0, 0.0, 0.0, 1.7103881442141967E9, 0.0, 2024-03-13 20:49:04.214
82.0, -288.32571713393554, -471.84073800966144, 172.46548645664006, 49.28253166610375, 0.01600000075995922, -0.19200000911951065, 1.0400000493973494, 0.0, 0.0, 0.0, 0.0, 0.0, 1.7103881442147355E9, 0.0, 2024-03-13 20:49:04.214
82.0, -373.8310498208739, -280.0418387320824, 102.55553658492863, 196.3522274736315, 0.01600000075995922, -0.19200000911951065, 1.0400000493973494, 0.0, 0.0, 0.0, 0.0, 0.0, 1.7103881442147355E9, 0.0, 2024-03-13 20:49:04.214
83.0, -176.33628291077912, -163.31769116502255, 270.34801804693416, 356.76962622301653, 0.01600000075995922, -0.19200000911951065, 1.0400000493973494, 0.0, 0.0, 0.0, 0.0, 0.0, 1.710388144228161E9, 0.0, 2024-03-13 20:49:04.228
83.0, -400.8106881012209, -116.78959581628442, 43.89520577993244, 415.7254091245122, 0.01600000075995922, -0.19200000911951065, 1.0400000493973494, 0.0, 0.0, 0.0, 0.0, 0.0, 1.710388144228161E9, 0.0, 2024-03-13 20:49:04.228
84.0, -258.08862599218264, -71.23013455606997, 231.4474486578256, 416.67534371325746, 0.01600000075995922, -0.19200000911951065, 1.0400000493973494, 0.0, 0.0, 0.0, 0.0, 0.0, 1.710388144243838E9, 0.0, 2024-03-13 20:49:04.243
84.0, -116.95041151437908, -132.3999382313341, 351.7843395820819, 372.06207714183256, 0.01600000075995922, -0.19200000911951065, 1.0400000493973494, 0.0, 0.0, 0.0, 0.0, 0.0, 1.710388144243838E9, 0.0, 2024-03-13 20:49:04.243
85.0, -46.524355448782444, -329.9994223401882, 399.9430313115008, 217.6920966207981, 0.01600000075995922, -0.19200000911951065, 1.0400000493973494, 0.0, 0.0, 0.0, 0.0, 0.0, 1.7103881442446382E9, 0.0, 2024-03-13 20:49:04.244
85.0, -222.36510161543265, -441.22217707242817, 245.8984220866114, 60.24791833618656, 0.01600000075995922, -0.19200000911951065, 1.0400000493973494, 0.0, 0.0, 0.0, 0.0, 0.0, 1.7103881442446382E9, 0.0, 2024-03-13 20:49:04.244
86.0, -465.3950204360299, -457.83107277564704, 3.1489957626909018, 27.280700226780027, 0.01600000075995922, -0.19200000911951065, 1.0400000493973494, 0.0, 0.0, 0.0, 0.0, 0.0, 1.7103881442582128E9, 0.0, 2024-03-13 20:49:04.258
86.0, -640.8486869572662, -525.8785524694249, -169.0098188975826, 28.956175406929106, 0.01600000075995922, -0.19200000911951065, 1.0400000493973494, 0.0, 0.0, 0.0, 0.0, 0.0, 1.7103881442582128E9, 0.0, 2024-03-13 20:49:04.258
87.0, -782.3758510304615, -475.01591307204217, -314.4713577241637, 48.13438237970695, 0.01600000075995922, -0.19200000911951065, 1.0400000493973494, 0.0, 0.0, 0.0, 0.0, 0.0, 1.7103881442738743E9, 0.0, 2024-03-13 20:49:04.273
87.0, -834.2968821153045, -259.2143358788453, -350.86806409293786, 229.12123088538647, 0.01600000075995922, -0.19200000911951065, 1.0400000493973494, 0.0, 0.0, 0.0, 0.0, 0.0, 1.7103881442738743E9, 0.0, 2024-03-13 20:49:04.273
88.0, -661.9005838078447, -149.91762962378561, -187.76167727541178, 382.84794861404225, 0.01600000075995922, -0.19200000911951065, 1.0400000493973494, 0.0, 0.0, 0.0, 0.0, 0.0, 1.7103881442745993E9, 0.0, 2024-03-13 20:49:04.274
88.0, -890.070010154508, -113.78271625190973, 52.68771057575941, 423.8222925285809, 0.01600000075995922, -0.19200000911951065, 1.0400000493973494, 0.0, 0.0, 0.0, 0.0, 0.0, 1.7103881442745993E9, 0.0, 2024-03-13 20:49:04.274
89.0, -735.0174978915602, -64.94336273055524, 227.00818741042167, 421.1033852607943, 0.01600000075995922, -0.19200000911951065, 1.0400000493973494, 0.0, 0.0, 0.0, 0.0, 0.0, 1.7103881442882066E9, 0.0, 2024-03-13 20:49:04.288
89.0, -597.2526731737889, -122.81083474494517, 363.0002995491959, 379.99814484780654, 0.01600000075995922, -0.19200000911951065, 1.0400000493973494, 0.0, 0.0, 0.0, 0.0, 0.0, 1.7103881442882066E9, 0.0, 2024-03-13 20:49:04.288
90.0, -552.2728964067064, -342.46076899254695, 398.55926832789555, 209.48301621805876, 0.01600000075995922, -0.19200000911951065, 1.0400000493973494, 0.0, 0.0, 0.0, 0.0, 0.0, 1.710388144303889E9, 0.0, 2024-03-13 20:49:04.303
90.0, -704.2830000557005, -432.0182832814753, 251.83364331629127, 62.05429001478478, 0.01600000075995922, -0.19200000911951065, 1.0400000493973494, 0.0, 0.0, 0.0, 0.0, 0.0, 1.710388144303889E9, 0.0, 2024-03-13 20:49:04.303
91.0, -470.4738045758568, -458.46311586815864, 494.63729818956926, 24.430896460544318, 0.01600000075995922, -0.19200000911951065, 1.0400000493973494, 0.0, 0.0, 0.0, 0.0, 0.0, 1.7103881443045757E9, 0.0, 2024-03-13 20:49:04.304
91.0, -646.6754510882311, -542.0124808782712, 300.5402303892188, 1.9653174267150462, 0.01600000075995922, -0.19200000911951065, 1.0400000493973494, 0.0, 0.0, 0.0, 0.0, 0.0, 1.7103881443045757E9, 0.0, 2024-03-13 20:49:04.304
92.0, -776.0442004054785, -470.3036391278729, 167.5288185151294, 46.55240469845012, 0.01600000075995922, -0.19200000911951065, 1.0400000493973494, 0.0, 0.0, 0.0, 0.0, 0.0, 1.710388144318189E9, 0.0, 2024-03-13 20:49:04.318
92.0, -840.6659317398444, -256.6525044091977, 133.0656404234469, 228.17503619659692, 0.01600000075995922, -0.19200000911951065, 1.0400000493973494, 0.0, 0.0, 0.0, 0.0, 0.0, 1.710388144318189E9, 0.0, 2024-03-13 20:49:04.318
93.0, -652.8238466153853, -149.39030373003334, 295.5287644485943, 382.488918218296, 0.01600000075995922, -0.19200000911951065, 1.0400000493973494, 0.0, 0.0, 0.0, 0.0, 0.0, 1.71038814433387E9, 0.0, 2024-03-13 20:49:04.333
93.0, -869.3547042999417, -97.9704192392528, 74.50254701729864, 446.796497956384, 0.01600000075995922, -0.19200000911951065, 1.0400000493973494, 0.0, 0.0, 0.0, 0.0, 0.0, 1.71038814433387E9, 0.0, 2024-03-13 20:49:04.333
94.0, -733.5290177091956, -58.948303101584315, 224.31171954236925, 422.8125195405446, 0.01600000075995922, -0.19200000911951065, 1.0400000493973494, 0.0, 0.0, 0.0, 0.0, 0.0, 1.7103881443345668E9, 0.0, 2024-03-13 20:49:04.334
94.0, -607.9263476473279, -132.08578663505614, 361.8147512632422, 380.9779986361973, 0.01600000075995922, -0.19200000911951065, 1.0400000493973494, 0.0, 0.0, 0.0, 0.0, 0.0, 1.7103881443345668E9, 0.0, 2024-03-13 20:49:04.334
95.0, -546.573288874235, -333.4326504995115, 404.3224541596137, 217.02265452872962, 0.01600000075995922, -0.19200000911951065, 1.0400000493973494, 0.0, 0.0, 0.0, 0.0, 0.0, 1.710388144348569E9, 0.0, 2024-03-13 20:49:04.348
95.0, -718.1692485911772, -452.7672482356429, 233.09674453828484, 46.98623309331015, 0.01600000075995922, -0.19200000911951065, 1.0400000493973494, 0.0, 0.0, 0.0, 0.0, 0.0, 1.710388144348569E9, 0.0, 2024-03-13 20:49:04.348
96.0, -487.6511650723405, -474.668102376163, -11.26831856649369, 15.234482469502836, 0.01600000075995922, -0.19200000911951065, 1.0400000493973494, 0.0, 0.0, 0.0, 0.0, 0.0, 1.7103881443639812E9, 0.0, 2024-03-13 20:49:04.363
96.0, -651.2680482338183, -543.3588448623195, -199.51618283614516, -6.284901875536889, 0.01600000075995922, -0.19200000911951065, 1.0400000493973494, 0.0, 0.0, 0.0, 0.0, 0.0, 1.7103881443639812E9, 0.0, 2024-03-13 20:49:04.363
97.0, -767.173157710582, -464.04678650200367, -316.5432622996159, 48.14186217961833, 0.01600000075995922, -0.19200000911951065, 1.0400000493973494, 0.0, 0.0, 0.0, 0.0, 0.0, 1.7103881443647168E9, 0.0, 2024-03-13 20:49:04.364
97.0, -832.0753815416247, -254.45344323525205, -363.65104214148596, 218.03616741672158, 0.01600000075995922, -0.19200000911951065, 1.0400000493973494, 0.0, 0.0, 0.0, 0.0, 0.0, 1.7103881443647168E9, 0.0, 2024-03-13 20:49:04.364
98.0, -669.6571363159455, -159.06916481535882, -199.8340743323788, 370.7082333578728, 0.01600000075995922, -0.19200000911951065, 1.0400000493973494, 0.0, 0.0, 0.0, 0.0, 0.0, 1.710388144378183E9, 0.0, 2024-03-13 20:49:04.378
98.0, -886.5844233958051, -113.3152287574485, -442.5704110064544, 422.1842163479887, 0.01600000075995922, -0.19200000911951065, 1.0400000493973494, 0.0, 0.0, 0.0, 0.0, 0.0, 1.710388144378183E9, 0.0, 2024-03-13 20:49:04.378
99.0, -732.5865629203618, -63.08837235253304, -281.2348668179475, 413.35057265264913, 0.01600000075995922, -0.19200000911951065, 1.0400000493973494, 0.0, 0.0, 0.0, 0.0, 0.0, 1.71038814439412E9, 0.0, 2024-03-13 20:49:04.394
99.0, -602.8326039076783, -135.55267389398068, -136.86537877842784, 377.1633006813936, 0.01600000075995922, -0.19200000911951065, 1.0400000493973494, 0.0, 0.0, 0.0, 0.0, 0.0, 1.71038814439412E9, 0.0, 2024-03-13 20:49:04.394
100.0, -565.2129502533935, -353.83754465775564, -101.49714489746839, 195.60424748249352, 0.01600000075995922, -0.19200000911951065, 1.0400000493973494, 0.0, 0.0, 0.0, 0.0, 0.0, 1.7103881443947544E9, 0.0, 2024-03-13 20:49:04.394
100.0, -730.8175902413204, -464.2150820000097, -265.68062290223315, 32.606317763682455, 0.01600000075995922, -0.19200000911951065, 1.0400000493973494, 0.0, 0.0, 0.0, 0.0, 0.0, 1.7103881443947544E9, 0.0, 2024-03-13 20:49:04.394
0.0, -571.8494027247652, -273.93271215446293, -300.6748667876236, -442.28243870986626, 0.01600000075995922, -0.19200000911951065, 1.0400000493973494, 0.0, 0.0, 0.0, 0.0, 0.0, 1.7103881444088602E9, 0.0, 2024-03-13 20:49:04.408
1.0, -704.8963436484337, -322.6262095775455, -463.1996991620399, -435.1878484939225, 0.01600000075995922, -0.19200000911951065, 1.0400000493973494, 0.0, 0.0, 0.0, 0.0, 0.0, 1.710388144409548E9, 0.0, 2024-03-13 20:49:04.409
1.0, -833.3226381768472, -248.5574909551069, -585.6047547617927, -384.5421232939698, 0.01600000075995922, -0.19200000911951065, 1.0400000493973494, 0.0, 0.0, 0.0, 0.0, 0.0, 1.710388144409548E9, 0.0, 2024-03-13 20:49:04.409
2.0, -902.2265549604781, -45.471573611255735, -641.1684484034777, -221.72744867298752, 0.01600000075995922, -0.19200000911951065, 1.0400000493973494, 0.0, 0.0, 0.0, 0.0, 0.0, 1.7103881444234505E9, 0.0, 2024-03-13 20:49:04.423
2.0, -737.3549353638664, 50.21189680509269, -468.26352370204404, -69.866941022221, 0.01600000075995922, -0.19200000911951065, 1.0400000493973494, 0.0, 0.0, 0.0, 0.0, 0.0, 1.7103881444234505E9, 0.0, 2024-03-13 20:49:04.423
3.0, -969.6906102611683, 86.54876477457583, -709.4066629949957, -19.96171601349488, 0.01600000075995922, -0.19200000911951065, 1.0400000493973494, 0.0, 0.0, 0.0, 0.0, 0.0, 1.7103881444389267E9, 0.0, 2024-03-13 20:49:04.438
3.0, -812.0725266286172, 131.93619063682854, -538.9308033147827, -31.076698681805283, 0.01600000075995922, -0.19200000911951065, 1.0400000493973494, 0.0, 0.0, 0.0, 0.0, 0.0, 1.7103881444389267E9, 0.0, 2024-03-13 20:49:04.438
4.0, -665.2833233177662, 74.61848391592503, -410.82988008251414, -72.26795679377392, 0.01600000075995922, -0.19200000911951065, 1.0400000493973494, 0.0, 0.0, 0.0, 0.0, 0.0, 1.710388144439602E9, 0.0, 2024-03-13 20:49:04.439
4.0, -625.9956742832437, -140.1621005893685, -381.0827158349566, -243.09723701979965, 0.01600000075995922, -0.19200000911951065, 1.0400000493973494, 0.0, 0.0, 0.0, 0.0, 0.0, 1.710388144439602E9, 0.0, 2024-03-13 20:49:04.439
5.0, -799.7682557743974, -256.1233085654676, -549.503500489518, -414.0985526437871, 0.01600000075995922, -0.19200000911951065, 1.0400000493973494, 0.0, 0.0, 0.0, 0.0, 0.0, 1.710388144453245E9, 0.0, 2024-03-13 20:49:04.453
5.0, -1044.8177205710672, -272.0590222766623, -786.8151122778654, -441.2614460219629, 0.01600000075995922, -0.19200000911951065, 1.0400000493973494, 0.0, 0.0, 0.0, 0.0, 0.0, 1.710388144453245E9, 0.0, 2024-03-13 20:49:04.453
6.0, -1212.6606906824745, -342.43271974287927, -967.1044694418088, -443.91303509054706, 0.01600000075995922, -0.19200000911951065, 1.0400000493973494, 0.0, 0.0, 0.0, 0.0, 0.0, 1.7103881444689012E9, 0.0, 2024-03-13 20:49:04.468
6.0, -1353.0135261695832, -273.4727044599131, -1096.6489940569736, -401.0238623986952, 0.01600000075995922, -0.19200000911951065, 1.0400000493973494, 0.0, 0.0, 0.0, 0.0, 0.0, 1.7103881444689012E9, 0.0, 2024-03-13 20:49:04.468
7.0, -1398.7450228277594, -57.03160437429324, -1139.519467249047, -227.65145020280033, 0.01600000075995922, -0.19200000911951065, 1.0400000493973494, 0.0, 0.0, 0.0, 0.0, 0.0, 1.7103881444696188E9, 0.0, 2024-03-13 20:49:04.469
7.0, -1232.0184128531255, 43.06494798976928, -972.2917106803507, -74.0182299730368, 0.01600000075995922, -0.19200000911951065, 1.0400000493973494, 0.0, 0.0, 0.0, 0.0, 0.0, 1.7103881444696188E9, 0.0, 2024-03-13 20:49:04.469
8.0, -1441.9072082163766, 96.27250465936959, -1208.2924875342287, -22.014921089168638, 0.01600000075995922, -0.19200000911951065, 1.0400000493973494, 0.0, 0.0, 0.0, 0.0, 0.0, 1.7103881444834642E9, 0.0, 2024-03-13 20:49:04.483
8.0, -1289.637181520462, 148.86297783628106, -1035.726023778785, -22.938676378224045, 0.01600000075995922, -0.19200000911951065, 1.0400000493973494, 0.0, 0.0, 0.0, 0.0, 0.0, 1.7103881444834642E9, 0.0, 2024-03-13 20:49:04.483
9.0, -1157.8300174321048, 82.13568282686174, -903.7655237922445, -63.26227770047262, 0.01600000075995922, -0.19200000911951065, 1.0400000493973494, 0.0, 0.0, 0.0, 0.0, 0.0, 1.7103881445154555E9, 0.0, 2024-03-13 20:49:04.515
9.0, -1087.7629917622544, -113.76588670210913, -860.9735884992406, -220.4708422878757, 0.01600000075995922, -0.19200000911951065, 1.0400000493973494, 0.0, 0.0, 0.0, 0.0, 0.0, 1.7103881445154555E9, 0.0, 2024-03-13 20:49:04.515
10.0, -1253.8725182441995, -222.93543635867536, -1025.2131650033407, -384.6543202926405, 0.01600000075995922, -0.19200000911951065, 1.0400000493973494, 0.0, 0.0, 0.0, 0.0, 0.0, 1.710388144516048E9, 0.0, 2024-03-13 20:49:04.516
10.0, -1040.4158583232202, -255.57354327198118, -1267.03509613825, -416.72022251272574, 0.01600000075995922, -0.19200000911951065, 1.0400000493973494, 0.0, 0.0, 0.0, 0.0, 0.0, 1.710388144516048E9, 0.0, 2024-03-13 20:49:04.516
11.0, -1199.473803438712, -319.39493601582944, -1451.1728103565983, -429.12547066574916, 0.01600000075995922, -0.19200000911951065, 1.0400000493973494, 0.0, 0.0, 0.0, 0.0, 0.0, 1.7103881445167449E9, 0.0, 2024-03-13 20:49:04.516
11.0, -1326.8978047790006, -253.69611349422485, -1572.21654237248, -383.88016100181267, 0.01600000075995922, -0.19200000911951065, 1.0400000493973494, 0.0, 0.0, 0.0, 0.0, 0.0, 1.7103881445167449E9, 0.0, 2024-03-13 20:49:04.516
12.0, -1384.9073929917067, -34.91009613638744, -1617.3421752378345, -213.46600967086852, 0.01600000075995922, -0.19200000911951065, 1.0400000493973494, 0.0, 0.0, 0.0, 0.0, 0.0, 1.7103881445175188E9, 0.0, 2024-03-13 20:49:04.517
12.0, -1224.497474042233, 59.60278559383005, -1472.041452109348, -69.1974989301525, 0.01600000075995922, -0.19200000911951065, 1.0400000493973494, 0.0, 0.0, 0.0, 0.0, 0.0, 1.7103881445175188E9, 0.0, 2024-03-13 20:49:04.517
13.0, -1457.5512097310275, 95.87607526406646, -1700.7868230491877, -19.5091881188564, 0.01600000075995922, -0.19200000911951065, 1.0400000493973494, 0.0, 0.0, 0.0, 0.0, 0.0, 1.7103881445284915E9, 0.0, 2024-03-13 20:49:04.528
13.0, -1296.8776278346777, 144.30777969025075, -1527.797750598751, -24.023247365374118, 0.01600000075995922, -0.19200000911951065, 1.0400000493973494, 0.0, 0.0, 0.0, 0.0, 0.0, 1.7103881445284915E9, 0.0, 2024-03-13 20:49:04.528
14.0, -1149.7144345282577, 90.98428612202406, -1381.2815599846654, -54.4136744053103, 0.01600000075995922, -0.19200000911951065, 1.0400000493973494, 0.0, 0.0, 0.0, 0.0, 0.0, 1.7103881445431788E9, 0.0, 2024-03-13 20:49:04.543
14.0, -1105.4527185526676, -126.45910715172067, -1350.4311252501793, -228.403170093894, 0.01600000075995922, -0.19200000911951065, 1.0400000493973494, 0.0, 0.0, 0.0, 0.0, 0.0, 1.7103881445431788E9, 0.0, 2024-03-13 20:49:04.543
15.0, -1297.0608829325065, -249.61588264256716, -1520.8415366811678, -397.6953514381312, 0.01600000075995922, -0.19200000911951065, 1.0400000493973494, 0.0, 0.0, 0.0, 0.0, 0.0, 1.7103881445588627E9, 0.0, 2024-03-13 20:49:04.558
15.0, -1533.175726735033, -261.59104230068624, -1758.011032271199, -424.76474731741473, 0.01600000075995922, -0.19200000911951065, 1.0400000493973494, 0.0, 0.0, 0.0, 0.0, 0.0, 1.7103881445588627E9, 0.0, 2024-03-13 20:49:04.558
16.0, -1676.7878850335255, -314.7499802708626, -1927.5743563622236, -424.1888027242385, 0.01600000075995922, -0.19200000911951065, 1.0400000493973494, 0.0, 0.0, 0.0, 0.0, 0.0, 1.7103881445595803E9, 0.0, 2024-03-13 20:49:04.559
16.0, -1826.7522634067573, -260.689726411365, -2068.712570840027, -398.0244626342319, 0.01600000075995922, -0.19200000911951065, 1.0400000493973494, 0.0, 0.0, 0.0, 0.0, 0.0, 1.7103881445595803E9, 0.0, 2024-03-13 20:49:04.559
17.0, -1895.8095160885714, -55.565563591662794, -2122.492332202848, -231.93737555202097, 0.01600000075995922, -0.19200000911951065, 1.0400000493973494, 0.0, 0.0, 0.0, 0.0, 0.0, 1.7103881445732143E9, 0.0, 2024-03-13 20:49:04.573
17.0, -1721.4348107045516, 44.80400146916509, -1954.6736714411527, -77.19340503541753, 0.01600000075995922, -0.19200000911951065, 1.0400000493973494, 0.0, 0.0, 0.0, 0.0, 0.0, 1.7103881445732143E9, 0.0, 2024-03-13 20:49:04.573
18.0, -1943.223967726808, 89.16669474355876, -2184.6980881658383, -19.94675641367212, 0.01600000075995922, -0.19200000911951065, 1.0400000493973494, 0.0, 0.0, 0.0, 0.0, 0.0, 1.710388144588893E9, 0.0, 2024-03-13 20:49:04.588
18.0, -1778.1821826822124, 144.49851458799094, -2019.2336944262497, -23.851211967412382, 0.01600000075995922, -0.19200000911951065, 1.0400000493973494, 0.0, 0.0, 0.0, 0.0, 0.0, 1.710388144588893E9, 0.0, 2024-03-13 20:49:04.588
19.0, -1638.5586276864633, 88.38879555277526, -1877.5344949550927, -61.63542121974751, 0.01600000075995922, -0.19200000911951065, 1.0400000493973494, 0.0, 0.0, 0.0, 0.0, 0.0, 1.7103881445895822E9, 0.0, 2024-03-13 20:49:04.589
19.0, -1581.3007593648508, -119.06906483927742, -1841.0181117877364, -228.2199149960652, 0.01600000075995922, -0.19200000911951065, 1.0400000493973494, 0.0, 0.0, 0.0, 0.0, 0.0, 1.7103881445895822E9, 0.0, 2024-03-13 20:49:04.589
20.0, -1775.9943412081338, -247.4130815686658, -2016.2529941615649, -404.9208381525241, 0.01600000075995922, -0.19200000911951065, 1.0400000493973494, 0.0, 0.0, 0.0, 0.0, 0.0, 1.710388144603192E9, 0.0, 2024-03-13 20:49:04.603
20.0, -2014.648577080574, -252.34974951017648, -2244.775841054041, -418.5565133909695, 0.01600000075995922, -0.19200000911951065, 1.0400000493973494, 0.0, 0.0, 0.0, 0.0, 0.0, 1.710388144603192E9, 0.0, 2024-03-13 20:49:04.603
21.0, -2170.722082031425, -316.87050354573876, -2422.884836543817, -432.39788312697783, 0.01600000075995922, -0.19200000911951065, 1.0400000493973494, 0.0, 0.0, 0.0, 0.0, 0.0, 1.710388144618875E9, 0.0, 2024-03-13 20:49:04.618
21.0, -2312.447460802272, -251.9757595146075, -2550.4434742825106, -386.4606919712387, 0.01600000075995922, -0.19200000911951065, 1.0400000493973494, 0.0, 0.0, 0.0, 0.0, 0.0, 1.710388144618875E9, 0.0, 2024-03-13 20:49:04.618
22.0, -2364.080519590527, -35.16814923333004, -2585.8453672630712, -203.4655171893537, 0.01600000075995922, -0.19200000911951065, 1.0400000493973494, 0.0, 0.0, 0.0, 0.0, 0.0, 1.7103881446195965E9, 0.0, 2024-03-13 20:49:04.619
22.0, -2201.045190872159, 55.746948739513755, -2439.396494848188, -72.387633592356, 0.01600000075995922, -0.19200000911951065, 1.0400000493973494, 0.0, 0.0, 0.0, 0.0, 0.0, 1.7103881446195965E9, 0.0, 2024-03-13 20:49:04.619
23.0, -2418.2828896483406, 102.75749118253589, -2673.7143167220056, -13.764701786916703, 0.01600000075995922, -0.19200000911951065, 1.0400000493973494, 0.0, 0.0, 0.0, 0.0, 0.0, 1.710388144633191E9, 0.0, 2024-03-13 20:49:04.633
23.0, -2281.993455463089, 142.31815291382372, -2515.2771949991584, -31.97053477121517, 0.01600000075995922, -0.19200000911951065, 1.0400000493973494, 0.0, 0.0, 0.0, 0.0, 0.0, 1.710388144633191E9, 0.0, 2024-03-13 20:49:04.633
24.0, -2153.8588731312193, 72.34836464282125, -2373.6602733270265, -66.04476326750591, 0.01600000075995922, -0.19200000911951065, 1.0400000493973494, 0.0, 0.0, 0.0, 0.0, 0.0, 1.710388144648867E9, 0.0, 2024-03-13 20:49:04.648
24.0, -2094.7834134311415, -140.30047688772902, -2355.1702079460956, -251.21655982360244, 0.01600000075995922, -0.19200000911951065, 1.0400000493973494, 0.0, 0.0, 0.0, 0.0, 0.0, 1.710388144648867E9, 0.0, 2024-03-13 20:49:04.648
25.0, -2257.4223127542064, -244.17058830708265, -2507.4234050922096, -404.5805072565563, 0.01600000075995922, -0.19200000911951065, 1.0400000493973494, 0.0, 0.0, 0.0, 0.0, 0.0, 1.7103881446495888E9, 0.0, 2024-03-13 20:49:04.649
25.0, -2027.9701007227413, -265.6114347530529, -2746.481550159864, -432.8466711216606, 0.01600000075995922, -0.19200000911951065, 1.0400000493973494, 0.0, 0.0, 0.0, 0.0, 0.0, 1.7103881446495888E9, 0.0, 2024-03-13 20:49:04.649
26.0, -2188.0340789263137, -339.02567088324577, -2923.93980305735, -443.5652243946679, 0.01600000075995922, -0.19200000911951065, 1.0400000493973494, 0.0, 0.0, 0.0, 0.0, 0.0, 1.7103881446635425E9, 0.0, 2024-03-13 20:49:04.663
26.0, -2307.791285357438, -251.73266601748765, -3043.94384288555, -390.52222332311794, 0.01600000075995922, -0.19200000911951065, 1.0400000493973494, 0.0, 0.0, 0.0, 0.0, 0.0, 1.7103881446635425E9, 0.0, 2024-03-13 20:49:04.663
27.0, -2376.212755046785, -43.38844933593646, -3092.210991713684, -225.7029623258859, 0.01600000075995922, -0.19200000911951065, 1.0400000493973494, 0.0, 0.0, 0.0, 0.0, 0.0, 1.71038814467933E9, 0.0, 2024-03-13 20:49:04.679
27.0, -2176.76576035982, 68.41024998947978, -2922.870191670023, -69.35831462824717, 0.01600000075995922, -0.19200000911951065, 1.0400000493973494, 0.0, 0.0, 0.0, 0.0, 0.0, 1.71038814467933E9, 0.0, 2024-03-13 20:49:04.679
28.0, -1958.9465071405284, 83.67652160860598, -2688.0942320516333, -31.839638272766024, 0.01600000075995922, -0.19200000911951065, 1.0400000493973494, 0.0, 0.0, 0.0, 0.0, 0.0, 1.710388144679672E9, 0.0, 2024-03-13 20:49:04.679
28.0, -1809.0700164162554, 134.78599440306425, -2515.2734550992027, -29.853751396294683, 0.01600000075995922, -0.19200000911951065, 1.0400000493973494, 0.0, 0.0, 0.0, 0.0, 0.0, 1.710388144679672E9, 0.0, 2024-03-13 20:49:04.679
29.0, -1663.9188892859966, 74.90645621251315, -2370.3467219662853, -65.62215457251295, 0.01600000075995922, -0.19200000911951065, 1.0400000493973494, 0.0, 0.0, 0.0, 0.0, 0.0, 1.7103881446931996E9, 0.0, 2024-03-13 20:49:04.693
29.0, -1598.7324330583215, -137.69002671865746, -2337.555279154796, -238.8898495696485, 0.01600000075995922, -0.19200000911951065, 1.0400000493973494, 0.0, 0.0, 0.0, 0.0, 0.0, 1.7103881446931996E9, 0.0, 2024-03-13 20:49:04.693
30.0, -1773.5110476375557, -241.6012770375237, -2490.5377567922696, -393.62634028634056, 0.01600000075995922, -0.19200000911951065, 1.0400000493973494, 0.0, 0.0, 0.0, 0.0, 0.0, 1.710388144708878E9, 0.0, 2024-03-13 20:49:04.708
30.0, -1531.5937490537763, -257.5968291480094, -2730.0521696545184, -422.6217846428044, 0.01600000075995922, -0.19200000911951065, 1.0400000493973494, 0.0, 0.0, 0.0, 0.0, 0.0, 1.710388144708878E9, 0.0, 2024-03-13 20:49:04.708
31.0, -1689.1706937868148, -328.20614031143486, -2916.7704148422927, -442.8247242034413, 0.01600000075995922, -0.19200000911951065, 1.0400000493973494, 0.0, 0.0, 0.0, 0.0, 0.0, 1.7103881447095923E9, 0.0, 2024-03-13 20:49:04.709
31.0, -1817.7129252138548, -254.16734088864177, -3036.4004646749236, -385.1255476870574, 0.01600000075995922, -0.19200000911951065, 1.0400000493973494, 0.0, 0.0, 0.0, 0.0, 0.0, 1.7103881447095923E9, 0.0, 2024-03-13 20:49:04.709
32.0, -1898.068415661808, -46.57110419822857, -3076.7539851968177, -217.55746022239327, 0.01600000075995922, -0.19200000911951065, 1.0400000493973494, 0.0, 0.0, 0.0, 0.0, 0.0, 1.7103881447231927E9, 0.0, 2024-03-13 20:49:04.723
32.0, -1733.7540411585942, 37.14094645995647, -2945.7770788986236, -86.53567512473091, 0.01600000075995922, -0.19200000911951065, 1.0400000493973494, 0.0, 0.0, 0.0, 0.0, 0.0, 1.7103881447231927E9, 0.0, 2024-03-13 20:49:04.723
33.0, -1942.3637907369994, 92.26333190687001, -3174.114800743293, -26.633697534445673, 0.01600000075995922, -0.19200000911951065, 1.0400000493973494, 0.0, 0.0, 0.0, 0.0, 0.0, 1.710388144738864E9, 0.0, 2024-03-13 20:49:04.738
33.0, -1803.6883003800176, 137.77791436761618, -3007.1806263211183, -37.35973060736433, 0.01600000075995922, -0.19200000911951065, 1.0400000493973494, 0.0, 0.0, 0.0, 0.0, 0.0, 1.710388144738864E9, 0.0, 2024-03-13 20:49:04.738
34.0, -1652.5234141210094, 82.98838001675904, -2865.025159055367, -68.70383213600144, 0.01600000075995922, -0.19200000911951065, 1.0400000493973494, 0.0, 0.0, 0.0, 0.0, 0.0, 1.710388144739588E9, 0.0, 2024-03-13 20:49:04.739
34.0, -1598.9231679560617, -133.76687166513875, -2823.6132468460128, -240.2623928533867, 0.01600000075995922, -0.19200000911951065, 1.0400000493973494, 0.0, 0.0, 0.0, 0.0, 0.0, 1.710388144739588E9, 0.0, 2024-03-13 20:49:04.739
35.0, -1751.6588121964596, -212.2168830856681, -2960.86944516981, -373.8235700209625, 0.01600000075995922, -0.19200000911951065, 1.0400000493973494, 0.0, 0.0, 0.0, 0.0, 0.0, 1.7103881447531917E9, 0.0, 2024-03-13 20:49:04.753
35.0, -1513.5861307671294, -241.1861481424421, -3205.956308966037, -410.30629408871755, 0.01600000075995922, -0.19200000911951065, 1.0400000493973494, 0.0, 0.0, 0.0, 0.0, 0.0, 1.7103881447531917E9, 0.0, 2024-03-13 20:49:04.753
36.0, -1720.4250377165154, -349.6544665573165, -3422.1823648042046, -454.28377766767517, 0.01600000075995922, -0.19200000911951065, 1.0400000493973494, 0.0, 0.0, 0.0, 0.0, 0.0, 1.7103881447688625E9, 0.0, 2024-03-13 20:49:04.768
36.0, -1840.5337947434746, -263.67042667604983, -3537.2310371911153, -394.56131527526304, 0.01600000075995922, -0.19200000911951065, 1.0400000493973494, 0.0, 0.0, 0.0, 0.0, 0.0, 1.7103881447688625E9, 0.0, 2024-03-13 20:49:04.768
37.0, -1899.7925095413812, -48.42609457625076, -3574.585157948546, -214.90961105376482, 0.01600000075995922, -0.19200000911951065, 1.0400000493973494, 0.0, 0.0, 0.0, 0.0, 0.0, 1.7103881447696023E9, 0.0, 2024-03-13 20:49:04.769
37.0, -1706.7744028782472, 63.13325115200132, -3387.502272515092, -51.492812539916486, 0.01600000075995922, -0.19200000911951065, 1.0400000493973494, 0.0, 0.0, 0.0, 0.0, 0.0, 1.7103881447696023E9, 0.0, 2024-03-13 20:49:04.769
38.0, -1945.912955794949, 95.98079246282578, -3152.610375998076, -16.405071155633777, 0.01600000075995922, -0.19200000911951065, 1.0400000493973494, 0.0, 0.0, 0.0, 0.0, 0.0, 1.710388144783341E9, 0.0, 2024-03-13 20:49:04.783
38.0, -1796.0177655708976, 147.49791435245425, -2977.986967267003, -16.26295495731756, 0.01600000075995922, -0.19200000911951065, 1.0400000493973494, 0.0, 0.0, 0.0, 0.0, 0.0, 1.710388144783341E9, 0.0, 2024-03-13 20:49:04.783
39.0, -1642.3546261414886, 93.23944579530507, -2833.572600428015, -48.306417777668685, 0.01600000075995922, -0.19200000911951065, 1.0400000493973494, 0.0, 0.0, 0.0, 0.0, 0.0, 1.710388144799161E9, 0.0, 2024-03-13 20:49:04.799
39.0, -1599.8618828449398, -129.27899171831086, -2807.774770533666, -226.39858371764421, 0.01600000075995922, -0.19200000911951065, 1.0400000493973494, 0.0, 0.0, 0.0, 0.0, 0.0, 1.710388144799161E9, 0.0, 2024-03-13 20:49:04.799
40.0, -1790.4004358374514, -258.24757174029946, -2980.1897683409043, -397.74397013755515, 0.01600000075995922, -0.19200000911951065, 1.0400000493973494, 0.0, 0.0, 0.0, 0.0, 0.0, 1.7103881447998087E9, 0.0, 2024-03-13 20:49:04.799
40.0, -2034.473786745686, -262.088448994793, -3203.6674901931547, -413.56748685007915, 0.01600000075995922, -0.19200000911951065, 1.0400000493973494, 0.0, 0.0, 0.0, 0.0, 0.0, 1.7103881447998087E9, 0.0, 2024-03-13 20:49:04.799
41.0, -2198.8648291979916, -341.7632776508108, -3397.5065048965625, -439.4475945434533, 0.01600000075995922, -0.19200000911951065, 1.0400000493973494, 0.0, 0.0, 0.0, 0.0, 0.0, 1.7103881448134189E9, 0.0, 2024-03-13 20:49:04.813
41.0, -2323.906514266506, -262.8252092860639, -3523.8085362501442, -391.5357362111099, 0.01600000075995922, -0.19200000911951065, 1.0400000493973494, 0.0, 0.0, 0.0, 0.0, 0.0, 1.7103881448134189E9, 0.0, 2024-03-13 20:49:04.813
42.0, -2394.6467219283804, -58.81927655311301, -3569.532553108409, -223.2121889553964, 0.01600000075995922, -0.19200000911951065, 1.0400000493973494, 0.0, 0.0, 0.0, 0.0, 0.0, 1.710388144829255E9, 0.0, 2024-03-13 20:49:04.829
42.0, -2213.4990577246062, 47.90063863247633, -3401.8971474445425, -70.15491331880912, 0.01600000075995922, -0.19200000911951065, 1.0400000493973494, 0.0, 0.0, 0.0, 0.0, 0.0, 1.710388144829255E9, 0.0, 2024-03-13 20:49:04.829
43.0, -2442.401504462585, 85.74842618405819, -3644.3118527224287, -22.100938788149506, 0.01600000075995922, -0.19200000911951065, 1.0400000493973494, 0.0, 0.0, 0.0, 0.0, 0.0, 1.7103881448298855E9, 0.0, 2024-03-13 20:49:04.829
43.0, -2297.297126081772, 129.7670486625284, -3488.5524993678555, -39.080084586981684, 0.01600000075995922, -0.19200000911951065, 1.0400000493973494, 0.0, 0.0, 0.0, 0.0, 0.0, 1.7103881448298855E9, 0.0, 2024-03-13 20:49:04.829
44.0, -2159.049854269717, 70.21288176812232, -3336.3329613213427, -67.35746815195307, 0.01600000075995922, -0.19200000911951065, 1.0400000493973494, 0.0, 0.0, 0.0, 0.0, 0.0, 1.7103881448434138E9, 0.0, 2024-03-13 20:49:04.843
44.0, -2111.721420330461, -148.6853325883858, -3308.1154161556624, -245.1579218953848, 0.01600000075995922, -0.19200000911951065, 1.0400000493973494, 0.0, 0.0, 0.0, 0.0, 0.0, 1.7103881448434138E9, 0.0, 2024-03-13 20:49:04.843
45.0, -2263.772662878968, -241.8967291340232, -3451.860340902582, -384.6543202926405, 0.01600000075995922, -0.19200000911951065, 1.0400000493973494, 0.0, 0.0, 0.0, 0.0, 0.0, 1.7103881448588536E9, 0.0, 2024-03-13 20:49:04.858
45.0, -2030.3075381950475, -262.4175601908937, -3211.659656398464, -419.1474175839685, 0.01600000075995922, -0.19200000911951065, 1.0400000493973494, 0.0, 0.0, 0.0, 0.0, 0.0, 1.7103881448588536E9, 0.0, 2024-03-13 20:49:04.858
46.0, -2190.15460220119, -332.95581325516105, -3385.452807339374, -433.65822941204533, 0.01600000075995922, -0.19200000911951065, 1.0400000493973494, 0.0, 0.0, 0.0, 0.0, 0.0, 1.7103881448597405E9, 0.0, 2024-03-13 20:49:04.859
46.0, -2301.5980110308155, -244.38376260455698, -3508.2729918342084, -375.76831799792126, 0.01600000075995922, -0.19200000911951065, 1.0400000493973494, 0.0, 0.0, 0.0, 0.0, 0.0, 1.7103881448597405E9, 0.0, 2024-03-13 20:49:04.859
47.0, -2378.5576723190024, -39.26333968481049, -3564.6071048667654, -209.47927631810308, 0.01600000075995922, -0.19200000911951065, 1.0400000493973494, 0.0, 0.0, 0.0, 0.0, 0.0, 1.710388144873245E9, 0.0, 2024-03-13 20:49:04.873
47.0, -2220.0962412464432, 44.482370072975755, -3410.7644502394833, -76.96153123816475, 0.01600000075995922, -0.19200000911951065, 1.0400000493973494, 0.0, 0.0, 0.0, 0.0, 0.0, 1.710388144873245E9, 0.0, 2024-03-13 20:49:04.873
48.0, -2452.2374413460493, 79.58881095703691, -3166.2423113365658, -26.581338935066015, 0.01600000075995922, -0.19200000911951065, 1.0400000493973494, 0.0, 0.0, 0.0, 0.0, 0.0, 1.7103881448888984E9, 0.0, 2024-03-13 20:49:04.888
48.0, -2304.2309005996212, 128.82459387369454, -2996.488252347801, -30.874744084198028, 0.01600000075995922, -0.19200000911951065, 1.0400000493973494, 0.0, 0.0, 0.0, 0.0, 0.0, 1.7103881448888984E9, 0.0, 2024-03-13 20:49:04.888
49.0, -2145.178565334063, 76.38745659496635, -2854.1308304844424, -67.29014995275065, 0.01600000075995922, -0.19200000911951065, 1.0400000493973494, 0.0, 0.0, 0.0, 0.0, 0.0, 1.710388144890067E9, 0.0, 2024-03-13 20:49:04.890
49.0, -2095.658550020773, -135.83877624059096, -2813.855847861618, -240.84207734651864, 0.01600000075995922, -0.19200000911951065, 1.0400000493973494, 0.0, 0.0, 0.0, 0.0, 0.0, 1.710388144890067E9, 0.0, 2024-03-13 20:49:04.890
50.0, -2273.9190114587545, -251.69152711797506, -2982.108337018173, -405.66881814366207, 0.01600000075995922, -0.19200000911951065, 1.0400000493973494, 0.0, 0.0, 0.0, 0.0, 0.0, 1.7103881449032755E9, 0.0, 2024-03-13 20:49:04.903
50.0, -2510.5574412550777, -264.36230816785246, -3217.856670625042, -424.64133061887696, 0.01600000075995922, -0.19200000911951065, 1.0400000493973494, 0.0, 0.0, 0.0, 0.0, 0.0, 1.7103881449032755E9, 0.0, 2024-03-13 20:49:04.903
51.0, -2699.4261289173737, -353.81697520799935, -3414.0630420004018, -455.6525810514577, 0.01600000075995922, -0.19200000911951065, 1.0400000493973494, 0.0, 0.0, 0.0, 0.0, 0.0, 1.7103881449189303E9, 0.0, 2024-03-13 20:49:04.918
51.0, -2826.805251458194, -270.2863096976653, -3531.7558236559853, -394.6772521738894, 0.01600000075995922, -0.19200000911951065, 1.0400000493973494, 0.0, 0.0, 0.0, 0.0, 0.0, 1.7103881449189303E9, 0.0, 2024-03-13 20:49:04.918
52.0, -2880.065166727174, -53.572196915280074, -3567.569105631672, -217.00395502895117, 0.01600000075995922, -0.19200000911951065, 1.0400000493973494, 0.0, 0.0, 0.0, 0.0, 0.0, 1.7103881449196067E9, 0.0, 2024-03-13 20:49:04.919
52.0, -2699.710361314006, 45.90353205613792, -3408.2661970690824, -69.50043082656339, 0.01600000075995922, -0.19200000911951065, 1.0400000493973494, 0.0, 0.0, 0.0, 0.0, 0.0, 1.7103881449196067E9, 0.0, 2024-03-13 20:49:04.919
53.0, -2934.14412008645, 81.52981903403997, -3646.611891195178, -24.81984605593607, 0.01600000075995922, -0.19200000911951065, 1.0400000493973494, 0.0, 0.0, 0.0, 0.0, 0.0, 1.7103881449332309E9, 0.0, 2024-03-13 20:49:04.933
53.0, -2772.789876398165, 142.87165810726583, -3475.6610642205924, -17.422323943581432, 0.01600000075995922, -0.19200000911951065, 1.0400000493973494, 0.0, 0.0, 0.0, 0.0, 0.0, 1.7103881449332309E9, 0.0, 2024-03-13 20:49:04.933
54.0, -2626.008152887225, 81.45128113497049, -3333.0044503607787, -57.83568286476657, 0.01600000075995922, -0.19200000911951065, 1.0400000493973494, 0.0, 0.0, 0.0, 0.0, 0.0, 1.7103881449491327E9, 0.0, 2024-03-13 20:49:04.949
54.0, -2590.4604038083926, -139.58989589614794, -3307.505812462885, -237.58836438506842, 0.01600000075995922, -0.19200000911951065, 1.0400000493973494, 0.0, 0.0, 0.0, 0.0, 0.0, 1.7103881449491327E9, 0.0, 2024-03-13 20:49:04.949
55.0, -2754.3297302168794, -241.1113501433283, -3465.813907637261, -392.9531582943164, 0.01600000075995922, -0.19200000911951065, 1.0400000493973494, 0.0, 0.0, 0.0, 0.0, 0.0, 1.7103881449496045E9, 0.0, 2024-03-13 20:49:04.949
55.0, -2521.855679021217, -264.07807577122, -3706.7756617823616, -424.6375907189213, 0.01600000075995922, -0.19200000911951065, 1.0400000493973494, 0.0, 0.0, 0.0, 0.0, 0.0, 1.7103881449496045E9, 0.0, 2024-03-13 20:49:04.949
56.0, -2671.440457548946, -328.0453246133402, -3879.790913532488, -432.28194622835144, 0.01600000075995922, -0.19200000911951065, 1.0400000493973494, 0.0, 0.0, 0.0, 0.0, 0.0, 1.710388144963595E9, 0.0, 2024-03-13 20:49:04.963
56.0, -2799.4815423819236, -250.18060753587633, -4004.8924370002933, -379.1678870576434, 0.01600000075995922, -0.19200000911951065, 1.0400000493973494, 0.0, 0.0, 0.0, 0.0, 0.0, 1.710388144963595E9, 0.0, 2024-03-13 20:49:04.963
57.0, -2868.4078985652886, -42.292658648919314, -4056.2225638921373, -208.3610462313518, 0.01600000075995922, -0.19200000911951065, 1.0400000493973494, 0.0, 0.0, 0.0, 0.0, 0.0, 1.7103881449788828E9, 0.0, 2024-03-13 20:49:04.978
57.0, -2696.6922620497644, 56.3976913318038, -3899.4927064990625, -64.7918967823498, 0.01600000075995922, -0.19200000911951065, 1.0400000493973494, 0.0, 0.0, 0.0, 0.0, 0.0, 1.7103881449788828E9, 0.0, 2024-03-13 20:49:04.978
58.0, -2929.58892194042, 88.60570975020528, -3657.3267045682296, -20.78449400374666, 0.01600000075995922, -0.19200000911951065, 1.0400000493973494, 0.0, 0.0, 0.0, 0.0, 0.0, 1.7103881449798863E9, 0.0, 2024-03-13 20:49:04.979
58.0, -2781.010176500771, 145.34747187793255, -3478.428590187803, -18.170303934719414, 0.01600000075995922, -0.19200000911951065, 1.0400000493973494, 0.0, 0.0, 0.0, 0.0, 0.0, 1.7103881449798863E9, 0.0, 2024-03-13 20:49:04.979
59.0, -2622.911515723914, 92.56626380328089, -3333.890806650277, -54.18180060805753, 0.01600000075995922, -0.19200000911951065, 1.0400000493973494, 0.0, 0.0, 0.0, 0.0, 0.0, 1.7103881449936473E9, 0.0, 2024-03-13 20:49:04.993
59.0, -2580.7030048239976, -138.2323122122325, -3312.233046006877, -238.50837977416813, 0.01600000075995922, -0.19200000911951065, 1.0400000493973494, 0.0, 0.0, 0.0, 0.0, 0.0, 1.7103881449936473E9, 0.0, 2024-03-13 20:49:04.993
60.0, -2761.644974530209, -247.7085336651653, -3471.4536767704412, -391.7937893080525, 0.01600000075995922, -0.19200000911951065, 1.0400000493973494, 0.0, 0.0, 0.0, 0.0, 0.0, 1.710388145008884E9, 0.0, 2024-03-13 20:49:05.008
60.0, -2520.625251935795, -261.03379720728844, -3705.5564543968067, -416.9670559098013, 0.01600000075995922, -0.19200000911951065, 1.0400000493973494, 0.0, 0.0, 0.0, 0.0, 0.0, 1.710388145008884E9, 0.0, 2024-03-13 20:49:05.008
61.0, -2690.147437127307, -345.125447710976, -3891.500540293753, -443.65124209364876, 0.01600000075995922, -0.20800000987946987, 1.0400000493973494, 0.0, 0.0, 0.0, 0.0, 0.0, 1.7103881450095985E9, 0.0, 2024-03-13 20:49:05.009
61.0, -2826.1133699663915, -266.96153863705695, -4019.8819560226984, -392.07428180472925, 0.01600000075995922, -0.20800000987946987, 1.0400000493973494, 0.0, 0.0, 0.0, 0.0, 0.0, 1.7103881450095985E9, 0.0, 2024-03-13 20:49:05.009
62.0, -2876.269168272149, -54.39123500557616, -4064.2745684967376, -217.0338742285967, 0.01600000075995922, -0.20800000987946987, 1.0400000493973494, 0.0, 0.0, 0.0, 0.0, 0.0, 1.7103881450231752E9, 0.0, 2024-03-13 20:49:05.023
62.0, -2698.7903459249064, 50.26425540447235, -3897.675115120597, -70.09881481947377, 0.01600000075995922, -0.20800000987946987, 1.0400000493973494, 0.0, 0.0, 0.0, 0.0, 0.0, 1.7103881450231752E9, 0.0, 2024-03-13 20:49:05.023
63.0, -2933.9571250886656, 87.22942656651139, -4130.403479513247, -17.04085414810106, 0.01600000075995922, -0.20800000987946987, 1.0400000493973494, 0.0, 0.0, 0.0, 0.0, 0.0, 1.7103881450389163E9, 0.0, 2024-03-13 20:49:05.038
63.0, -2779.8994262139313, 139.9582760417834, -3968.8435413273983, -20.552620206493884, 0.01600000075995922, -0.20800000987946987, 1.0400000493973494, 0.0, 0.0, 0.0, 0.0, 0.0, 1.7103881450389163E9, 0.0, 2024-03-13 20:49:05.038
64.0, -2631.330030524172, 82.08332422748208, -3826.0223718695343, -59.77669094176963, 0.01600000075995922, -0.20800000987946987, 1.0400000493973494, 0.0, 0.0, 0.0, 0.0, 0.0, 1.7103881450396464E9, 0.0, 2024-03-13 20:49:05.039
64.0, -2572.6023815199733, -129.06955732079223, -3779.9019256159663, -226.9633086109534, 0.01600000075995922, -0.20800000987946987, 1.0400000493973494, 0.0, 0.0, 0.0, 0.0, 0.0, 1.7103881450396464E9, 0.0, 2024-03-13 20:49:05.039
65.0, -2749.838110370096, -234.89937631692737, -3942.7689588363282, -377.170780481305, 0.01600000075995922, -0.20800000987946987, 1.0400000493973494, 0.0, 0.0, 0.0, 0.0, 0.0, 1.7103881450534458E9, 0.0, 2024-03-13 20:49:05.053
65.0, -2989.2777252332307, -241.4479411393404, -4181.800924604293, -405.45564384618774, 0.01600000075995922, -0.20800000987946987, 1.0400000493973494, 0.0, 0.0, 0.0, 0.0, 0.0, 1.7103881450534458E9, 0.0, 2024-03-13 20:49:05.053
66.0, -3183.905858827289, -345.81358930282295, -4390.629458330106, -446.88251565536484, 0.01600000075995922, -0.20800000987946987, 1.0400000493973494, 0.0, 0.0, 0.0, 0.0, 0.0, 1.710388145068924E9, 0.0, 2024-03-13 20:49:05.068
66.0, -3296.4525381438434, -257.66040744725615, -4498.688257699832, -381.8755746255629, 0.01600000075995922, -0.20800000987946987, 1.0400000493973494, 0.0, 0.0, 0.0, 0.0, 0.0, 1.710388145068924E9, 0.0, 2024-03-13 20:49:05.068
67.0, -3353.381295269355, -39.469034182373434, -4536.143355756067, -201.18043831642717, 0.01600000075995922, -0.20800000987946987, 1.0400000493973494, 0.0, 0.0, 0.0, 0.0, 0.0, 1.7103881450696847E9, 0.0, 2024-03-13 20:49:05.069
67.0, -3179.720910776872, 60.87435157876462, -4382.3493198282085, -61.2689110240899, 0.01600000075995922, -0.20800000987946987, 1.0400000493973494, 0.0, 0.0, 0.0, 0.0, 0.0, 1.7103881450696847E9, 0.0, 2024-03-13 20:49:05.069
68.0, -3415.6581093315035, 91.58267011493444, -4141.50724248169, -18.491935330908746, 0.01600000075995922, -0.20800000987946987, 1.0400000493973494, 0.0, 0.0, 0.0, 0.0, 0.0, 1.7103881450831428E9, 0.0, 2024-03-13 20:49:05.083
68.0, -3278.923627051525, 141.64123102184385, -3973.7615097691305, -25.59400534676388, 0.01600000075995922, -0.20800000987946987, 1.0400000493973494, 0.0, 0.0, 0.0, 0.0, 0.0, 1.7103881450831428E9, 0.0, 2024-03-13 20:49:05.083
69.0, -3130.5075672599487, 75.34776440728456, -3836.576369544491, -68.86090793414041, 0.01600000075995922, -0.20800000987946987, 1.0400000493973494, 0.0, 0.0, 0.0, 0.0, 0.0, 1.710388145099259E9, 0.0, 2024-03-13 20:49:05.099
69.0, -3070.7140467683785, -134.2268793596886, -3793.885411550291, -234.91807581670582, 0.01600000075995922, -0.20800000987946987, 1.0400000493973494, 0.0, 0.0, 0.0, 0.0, 0.0, 1.710388145099259E9, 0.0, 2024-03-13 20:49:05.099
70.0, -3251.289506278932, -240.6663020486012, -3950.6638876427896, -383.6819463041611, 0.01600000075995922, -0.20800000987946987, 1.0400000493973494, 0.0, 0.0, 0.0, 0.0, 0.0, 1.710388145099789E9, 0.0, 2024-03-13 20:49:05.099
70.0, -3487.980294674635, -251.53819121979177, -4184.325357074384, -408.63829870847985, 0.01600000075995922, -0.20800000987946987, 1.0400000493973494, 0.0, 0.0, 0.0, 0.0, 0.0, 1.710388145099789E9, 0.0, 2024-03-13 20:49:05.099
71.0, -3663.665834993124, -340.58894906472415, -4378.23542987695, -438.003993160557, 0.01600000075995922, -0.19200000911951065, 1.0400000493973494, 0.0, 0.0, 0.0, 0.0, 0.0, 1.710388145113334E9, 0.0, 2024-03-13 20:49:05.113
71.0, -3791.736839025747, -258.9319734321907, -4505.700570116751, -385.26018408546224, 0.01600000075995922, -0.19200000911951065, 1.0400000493973494, 0.0, 0.0, 0.0, 0.0, 0.0, 1.710388145113334E9, 0.0, 2024-03-13 20:49:05.113
72.0, -3864.4554537641816, -49.98189295781776, -4562.057122549042, -218.20446291472763, 0.01600000075995922, -0.19200000911951065, 1.0400000493973494, 0.0, 0.0, 0.0, 0.0, 0.0, 1.710388145129184E9, 0.0, 2024-03-13 20:49:05.129
72.0, -3689.6843189848587, 41.50914960820228, -4400.659870011266, -73.82749507529661, 0.01600000075995922, -0.19200000911951065, 1.0400000493973494, 0.0, 0.0, 0.0, 0.0, 0.0, 1.710388145129184E9, 0.0, 2024-03-13 20:49:05.129
73.0, -3910.2393090217374, 82.18430152628571, -4632.105448719114, -25.014320853631943, 0.01600000075995922, -0.19200000911951065, 1.0400000493973494, 0.0, 0.0, 0.0, 0.0, 0.0, 1.7103881451299207E9, 0.0, 2024-03-13 20:49:05.129
73.0, -3746.921617856715, 147.6662098504603, -4453.547665234655, -18.230142334010452, 0.01600000075995922, -0.19200000911951065, 1.0400000493973494, 0.0, 0.0, 0.0, 0.0, 0.0, 1.7103881451299207E9, 0.0, 2024-03-13 20:49:05.129
74.0, -3627.3327069235966, 68.4775681886822, -4328.958508060779, -74.88588676275685, 0.01600000075995922, -0.19200000911951065, 1.0400000493973494, 0.0, 0.0, 0.0, 0.0, 0.0, 1.7103881451431966E9, 0.0, 2024-03-13 20:49:05.143
74.0, -3566.74632764142, -139.8629085929133, -4282.598708210047, -242.2258403301239, 0.01600000075995922, -0.19200000911951065, 1.0400000493973494, 0.0, 0.0, 0.0, 0.0, 0.0, 1.7103881451431966E9, 0.0, 2024-03-13 20:49:05.143
75.0, -3738.2076509599574, -249.14839514810592, -4453.914175430313, -402.68063807906583, 0.01600000075995922, -0.19200000911951065, 1.0400000493973494, 0.0, 0.0, 0.0, 0.0, 0.0, 1.710388145158945E9, 0.0, 2024-03-13 20:49:05.158
75.0, -3979.50599610107, -257.3163366513327, -4679.288026560098, -419.12497818423435, 0.01600000075995922, -0.19200000911951065, 1.0400000493973494, 0.0, 0.0, 0.0, 0.0, 0.0, 1.710388145158945E9, 0.0, 2024-03-13 20:49:05.158
76.0, -4150.213729578536, -342.2681641448289, -4863.395821578801, -442.3310574092902, 0.01600000075995922, -0.19200000911951065, 1.0400000493973494, 0.0, 0.0, 0.0, 0.0, 0.0, 1.7103881451595895E9, 0.0, 2024-03-13 20:49:05.159
76.0, -4281.078438878059, -266.9764982368797, -5003.756136865821, -397.6803918383084, 0.01600000075995922, -0.19200000911951065, 1.0400000493973494, 0.0, 0.0, 0.0, 0.0, 0.0, 1.7103881451595895E9, 0.0, 2024-03-13 20:49:05.159
77.0, -4342.970043244772, -49.4134281645529, -5042.120030611288, -219.3974910005927, 0.01600000075995922, -0.19200000911951065, 1.0400000493973494, 0.0, 0.0, 0.0, 0.0, 0.0, 1.7103881451733036E9, 0.0, 2024-03-13 20:49:05.173
77.0, -4156.062933109235, 54.65863785240799, -4871.1187149873, -66.47111186245456, 0.01600000075995922, -0.19200000911951065, 1.0400000493973494, 0.0, 0.0, 0.0, 0.0, 0.0, 1.7103881451733036E9, 0.0, 2024-03-13 20:49:05.173
78.0, -4399.872621070594, 89.1143361441791, -4626.3834017869085, -17.672897240612656, 0.01600000075995922, -0.19200000911951065, 1.0400000493973494, 0.0, 0.0, 0.0, 0.0, 0.0, 1.7103881451888564E9, 0.0, 2024-03-13 20:49:05.188
78.0, -4232.829989549704, 159.91064230538905, -4451.232667162083, -9.03372834296897, 0.01600000075995922, -0.19200000911951065, 1.0400000493973494, 0.0, 0.0, 0.0, 0.0, 0.0, 1.7103881451888564E9, 0.0, 2024-03-13 20:49:05.188
79.0, -4111.2402321402915, 81.87388982996345, -4322.709135234822, -65.39402067521587, 0.01600000075995922, -0.19200000911951065, 1.0400000493973494, 0.0, 0.0, 0.0, 0.0, 0.0, 1.710388145189588E9, 0.0, 2024-03-13 20:49:05.189
79.0, -4048.2939759860747, -128.68060772540048, -4275.964125688653, -226.148010420613, 0.01600000075995922, -0.19200000911951065, 1.0400000493973494, 0.0, 0.0, 0.0, 0.0, 0.0, 1.710388145189588E9, 0.0, 2024-03-13 20:49:05.189
80.0, -4208.41592263896, -222.2921735662967, -4432.671543681994, -371.1233622529544, 0.01600000075995922, -0.19200000911951065, 1.0400000493973494, 0.0, 0.0, 0.0, 0.0, 0.0, 1.71038814520323E9, 0.0, 2024-03-13 20:49:05.203
80.0, -3980.2390164923854, -251.77754481695592, -4192.029550983105, -412.2884410652332, 0.01600000075995922, -0.19200000911951065, 1.0400000493973494, 0.0, 0.0, 0.0, 0.0, 0.0, 1.71038814520323E9, 0.0, 2024-03-13 20:49:05.203
81.0, -4137.412052030209, -320.87219649832696, -4366.922232510988, -427.2929196874611, 0.01600000075995922, -0.19200000911951065, 1.0400000493973494, 0.0, 0.0, 0.0, 0.0, 0.0, 1.710388145219041E9, 0.0, 2024-03-13 20:49:05.219
81.0, -4272.510328079574, -251.8934817155823, -4513.307526626624, -389.5797685342841, 0.01600000075995922, -0.19200000911951065, 1.0400000493973494, 0.0, 0.0, 0.0, 0.0, 0.0, 1.710388145219041E9, 0.0, 2024-03-13 20:49:05.219
82.0, -4333.79980855342, -31.379630578216165, -4546.461739733815, -204.64358567539603, 0.01600000075995922, -0.19200000911951065, 1.0400000493973494, 0.0, 0.0, 0.0, 0.0, 0.0, 1.7103881452197647E9, 0.0, 2024-03-13 20:49:05.219
82.0, -4154.944703022484, 66.9591688066721, -4371.817761552986, -51.21605994319543, 0.01600000075995922, -0.19200000911951065, 1.0400000493973494, 0.0, 0.0, 0.0, 0.0, 0.0, 1.7103881452197647E9, 0.0, 2024-03-13 20:49:05.219
83.0, -3913.848312478978, 80.72200064361095, -4140.7517826906405, -21.09490570006892, 0.01600000075995922, -0.19200000911951065, 1.0400000493973494, 0.0, 0.0, 0.0, 0.0, 0.0, 1.7103881452337012E9, 0.0, 2024-03-13 20:49:05.233
83.0, -3760.0823258007877, 140.89325103070587, -3976.68611153448, -22.79656017990783, 0.01600000075995922, -0.19200000911951065, 1.0400000493973494, 0.0, 0.0, 0.0, 0.0, 0.0, 1.7103881452337012E9, 0.0, 2024-03-13 20:49:05.233
84.0, -3608.8800405422226, 84.04303180426359, -3831.112375709228, -60.20303953671828, 0.01600000075995922, -0.19200000911951065, 1.0400000493973494, 0.0, 0.0, 0.0, 0.0, 0.0, 1.710388145249118E9, 0.0, 2024-03-13 20:49:05.249
84.0, -3563.963842074387, -141.25415137642995, -3795.706742828712, -238.39992267545313, 0.01600000075995922, -0.19200000911951065, 1.0400000493973494, 0.0, 0.0, 0.0, 0.0, 0.0, 1.710388145249118E9, 0.0, 2024-03-13 20:49:05.249
85.0, -3740.720863730181, -247.20364717114717, -3951.2585317357443, -392.78486279631034, 0.01600000075995922, -0.19200000911951065, 1.0400000493973494, 0.0, 0.0, 0.0, 0.0, 0.0, 1.7103881452496743E9, 0.0, 2024-03-13 20:49:05.249
85.0, -3499.4169087391347, -262.9748052842915, -3709.0943997548893, -422.8573983400129, 0.01600000075995922, -0.19200000911951065, 1.0400000493973494, 0.0, 0.0, 0.0, 0.0, 0.0, 1.7103881452496743E9, 0.0, 2024-03-13 20:49:05.249
86.0, -3669.5599173232913, -347.1375138871372, -3901.317777677439, -456.81195003772154, 0.01600000075995922, -0.19200000911951065, 1.0400000493973494, 0.0, 0.0, 0.0, 0.0, 0.0, 1.7103881452639067E9, 0.0, 2024-03-13 20:49:05.263
86.0, -3798.550936745014, -273.97011115401983, -4029.9123677038588, -410.93459728127345, 0.01600000075995922, -0.19200000911951065, 1.0400000493973494, 0.0, 0.0, 0.0, 0.0, 0.0, 1.7103881452639067E9, 0.0, 2024-03-13 20:49:05.263
87.0, -3845.9541686833836, -43.829757530707866, -4061.907211824786, -215.56409354601055, 0.01600000075995922, -0.19200000911951065, 1.0400000493973494, 0.0, 0.0, 0.0, 0.0, 0.0, 1.7103881452788954E9, 0.0, 2024-03-13 20:49:05.278
87.0, -3677.7577780261636, 47.56030773650855, -3908.8723755879328, -82.06649467768148, 0.01600000075995922, -0.19200000911951065, 1.0400000493973494, 0.0, 0.0, 0.0, 0.0, 0.0, 1.7103881452788954E9, 0.0, 2024-03-13 20:49:05.278
88.0, -3913.12651178753, 82.13194292690605, -3669.488859224133, -36.32751821959391, 0.01600000075995922, -0.19200000911951065, 1.0400000493973494, 0.0, 0.0, 0.0, 0.0, 0.0, 1.7103881452799318E9, 0.0, 2024-03-13 20:49:05.279
88.0, -3755.362572056707, 144.02354729361832, -3483.4026571288705, -20.30952670937404, 0.01600000075995922, -0.19200000911951065, 1.0400000493973494, 0.0, 0.0, 0.0, 0.0, 0.0, 1.7103881452799318E9, 0.0, 2024-03-13 20:49:05.279
89.0, -3617.8371009361, 82.92480171751231, -3337.2193176108412, -60.16190063720569, 0.01600000075995922, -0.19200000911951065, 1.0400000493973494, 0.0, 0.0, 0.0, 0.0, 0.0, 1.7103881452932212E9, 0.0, 2024-03-13 20:49:05.293
89.0, -3550.646058332175, -122.49855309864506, -3298.0924842744134, -224.83904543612152, 0.01600000075995922, -0.19200000911951065, 1.0400000493973494, 0.0, 0.0, 0.0, 0.0, 0.0, 1.7103881452932212E9, 0.0, 2024-03-13 20:49:05.293
90.0, -3737.852360464167, -244.9634470976889, -3470.8627725774422, -393.34210788970813, 0.01600000075995922, -0.19200000911951065, 1.0400000493973494, 0.0, 0.0, 0.0, 0.0, 0.0, 1.7103881453088896E9, 0.0, 2024-03-13 20:49:05.308
90.0, -3976.2111442401074, -250.22174643538892, -3698.2636494832113, -413.31317365309224, 0.01600000075995922, -0.19200000911951065, 1.0400000493973494, 0.0, 0.0, 0.0, 0.0, 0.0, 1.7103881453088896E9, 0.0, 2024-03-13 20:49:05.308
91.0, -4154.185503331479, -337.2043396048248, -3883.482194788754, -439.7804456395097, 0.01600000075995922, -0.19200000911951065, 1.0400000493973494, 0.0, 0.0, 0.0, 0.0, 0.0, 1.710388145309614E9, 0.0, 2024-03-13 20:49:05.309
91.0, -4287.499847101979, -263.17301998194307, -4017.0097128567286, -392.3472945014946, 0.01600000075995922, -0.19200000911951065, 1.0400000493973494, 0.0, 0.0, 0.0, 0.0, 0.0, 1.710388145309614E9, 0.0, 2024-03-13 20:49:05.309
92.0, -4354.6946296058595, -49.83603685954586, -4059.0162691590376, -217.3667253246531, 0.01600000075995922, -0.19200000911951065, 1.0400000493973494, 0.0, 0.0, 0.0, 0.0, 0.0, 1.71038814532324E9, 0.0, 2024-03-13 20:49:05.323
92.0, -4159.440062769223, 56.67818382848054, -3895.2591397492215, -70.14369361894205, 0.01600000075995922, -0.19200000911951065, 1.0400000493973494, 0.0, 0.0, 0.0, 0.0, 0.0, 1.71038814532324E9, 0.0, 2024-03-13 20:49:05.323
93.0, -3925.4083432420157, 74.69702181499451, -3662.3568700086325, -34.95123503590003, 0.01600000075995922, -0.19200000911951065, 1.0400000493973494, 0.0, 0.0, 0.0, 0.0, 0.0, 1.7103881453388894E9, 0.0, 2024-03-13 20:49:05.338
93.0, -3776.975453900639, 128.469303377904, -3493.212414712645, -33.28323965566233, 0.01600000075995922, -0.19200000911951065, 1.0400000493973494, 0.0, 0.0, 0.0, 0.0, 0.0, 1.7103881453388894E9, 0.0, 2024-03-13 20:49:05.338
94.0, -3610.8846269184723, 83.1155366152525, -3341.939071354922, -62.94812610419467, 0.01600000075995922, -0.19200000911951065, 1.0400000493973494, 0.0, 0.0, 0.0, 0.0, 0.0, 1.7103881453397756E9, 0.0, 2024-03-13 20:49:05.339
94.0, -3554.640271484852, -134.95241995109245, -3302.4307682230137, -231.2529738601297, 0.01600000075995922, -0.19200000911951065, 1.0400000493973494, 0.0, 0.0, 0.0, 0.0, 0.0, 1.7103881453397756E9, 0.0, 2024-03-13 20:49:05.339
95.0, -3750.646558212582, -261.2058326052502, -3482.647197337821, -408.2194299134426, 0.01600000075995922, -0.19200000911951065, 1.0400000493973494, 0.0, 0.0, 0.0, 0.0, 0.0, 1.710388145353432E9, 0.0, 2024-03-13 20:49:05.353
95.0, -3985.721709827427, -267.986271224916, -3724.6710830703378, -438.83051105076447, 0.01600000075995922, -0.19200000911951065, 1.0400000493973494, 0.0, 0.0, 0.0, 0.0, 0.0, 1.710388145353432E9, 0.0, 2024-03-13 20:49:05.353
96.0, -4146.298054324929, -339.21266588103026, -3900.812891183421, -453.7115729744546, 0.01600000075995922, -0.19200000911951065, 1.0400000493973494, 0.0, 0.0, 0.0, 0.0, 0.0, 1.7103881453691108E9, 0.0, 2024-03-13 20:49:05.369
96.0, -4285.12127073016, -267.5075640305877, -4028.786657817196, -404.37481275899336, 0.01600000075995922, -0.19200000911951065, 1.0400000493973494, 0.0, 0.0, 0.0, 0.0, 0.0, 1.7103881453691108E9, 0.0, 2024-03-13 20:49:05.369
97.0, -4363.816245597787, -64.49644468585029, -4090.8727369816042, -246.45940707996488, 0.01600000075995922, -0.19200000911951065, 1.0400000493973494, 0.0, 0.0, 0.0, 0.0, 0.0, 1.710388145369746E9, 0.0, 2024-03-13 20:49:05.369
97.0, -4172.757846511435, 39.74391682911664, -3931.771783016622, -100.48550195945427, 0.01600000075995922, -0.19200000911951065, 1.0400000493973494, 0.0, 0.0, 0.0, 0.0, 0.0, 1.710388145369746E9, 0.0, 2024-03-13 20:49:05.369
98.0, -4398.03633019235, 83.60920340940356, -4160.236661459785, -37.57290490483865, 0.01600000075995922, -0.19200000911951065, 1.0400000493973494, 0.0, 0.0, 0.0, 0.0, 0.0, 1.7103881453832462E9, 0.0, 2024-03-13 20:49:05.383
98.0, -4230.578569776379, 152.662716191262, -3970.762110004667, -20.949049601797014, 0.01600000075995922, -0.19200000911951065, 1.0400000493973494, 0.0, 0.0, 0.0, 0.0, 0.0, 1.7103881453832462E9, 0.0, 2024-03-13 20:49:05.383
99.0, -4113.095222518314, 80.15353585034609, -3837.2981702359393, -63.73724499484524, 0.01600000075995922, -0.19200000911951065, 1.0400000493973494, 0.0, 0.0, 0.0, 0.0, 0.0, 1.71038814539916E9, 0.0, 2024-03-13 20:49:05.399
99.0, -4051.618747046683, -137.12904172530398, -3795.209336134605, -237.26673298887908, 0.01600000075995922, -0.19200000911951065, 1.0400000493973494, 0.0, 0.0, 0.0, 0.0, 0.0, 1.71038814539916E9, 0.0, 2024-03-13 20:49:05.399
100.0, -4225.567103835754, -250.09084993693978, -3962.5717291017063, -397.96462423494086, 0.01600000075995922, -0.19200000911951065, 1.0400000493973494, 0.0, 0.0, 0.0, 0.0, 0.0, 1.710388145399748E9, 0.0, 2024-03-13 20:49:05.399
100.0, -4460.705833749846, -250.7116733295843, -4183.214606787544, -406.6524118320085, 0.01600000075995922, -0.19200000911951065, 1.0400000493973494, 0.0, 0.0, 0.0, 0.0, 0.0, 1.710388145399748E9, 0.0, 2024-03-13 20:49:05.399
0.0, -729.6470015551895, -353.87120375735685, -473.9070327351801, -458.7566980146803, 0.01600000075995922, -0.19200000911951065, 1.0400000493973494, 0.0, 0.0, 0.0, 0.0, 0.0, 1.7103881454140062E9, 0.0, 2024-03-13 20:49:05.414
1.0, -834.5381056624465, -254.76759483153, -584.624900973402, -386.77484356751665, 0.01600000075995922, -0.20800000987946987, 1.0400000493973494, 0.0, 0.0, 0.0, 0.0, 0.0, 1.7103881454146612E9, 0.0, 2024-03-13 20:49:05.414
1.0, -911.3294714526273, -43.82788758073002, -638.7786523317918, -218.22316241450608, 0.01600000075995922, -0.20800000987946987, 1.0400000493973494, 0.0, 0.0, 0.0, 0.0, 0.0, 1.7103881454146612E9, 0.0, 2024-03-13 20:49:05.414
2.0, -720.2224536668509, 60.6032088319771, -460.5256706937216, -65.11352817853913, 0.01600000075995922, -0.20800000987946987, 1.0400000493973494, 0.0, 0.0, 0.0, 0.0, 0.0, 1.7103881454282277E9, 0.0, 2024-03-13 20:49:05.428
2.0, -957.5583748049103, 94.27726803300902, -237.54909543553367, -32.35574446665123, 0.01600000075995922, -0.20800000987946987, 1.0400000493973494, 0.0, 0.0, 0.0, 0.0, 0.0, 1.7103881454282277E9, 0.0, 2024-03-13 20:49:05.428
3.0, -799.7906951741315, 162.89321252005175, -50.13522885600105, -19.1015390236862, 0.01600000075995922, -0.20800000987946987, 1.0400000493973494, 0.0, 0.0, 0.0, 0.0, 0.0, 1.7103881454439356E9, 0.0, 2024-03-13 20:49:05.443
3.0, -664.3520882287994, 90.22695638099685, 84.484339999035, -64.91531348088756, 0.01600000075995922, -0.20800000987946987, 1.0400000493973494, 0.0, 0.0, 0.0, 0.0, 0.0, 1.7103881454439356E9, 0.0, 2024-03-13 20:49:05.443
4.0, -605.1719113299623, -119.81517488043755, 127.96815678384155, -233.1453632377088, 0.01600000075995922, -0.20800000987946987, 1.0400000493973494, 0.0, 0.0, 0.0, 0.0, 0.0, 1.7103881454446187E9, 0.0, 2024-03-13 20:49:05.444
4.0, -783.2565974700265, -221.47126552602276, -32.11639086948708, -385.9071867777966, 0.01600000075995922, -0.20800000987946987, 1.0400000493973494, 0.0, 0.0, 0.0, 0.0, 0.0, 1.7103881454446187E9, 0.0, 2024-03-13 20:49:05.444
5.0, -541.930203079246, -242.96821047132835, 211.62597889266908, -423.3959439336322, 0.01600000075995922, -0.20800000987946987, 1.0400000493973494, 0.0, 0.0, 0.0, 0.0, 0.0, 1.7103881454582636E9, 0.0, 2024-03-13 20:49:05.458
5.0, -713.4943736465648, -327.2057170732878, 31.089788331650198, -444.5712574827485, 0.01600000075995922, -0.20800000987946987, 1.0400000493973494, 0.0, 0.0, 0.0, 0.0, 0.0, 1.7103881454582636E9, 0.0, 2024-03-13 20:49:05.458
6.0, -826.0747120627202, -237.7248707334511, -97.26170819764957, -381.946632724721, 0.01600000075995922, -0.20800000987946987, 1.0400000493973494, 0.0, 0.0, 0.0, 0.0, 0.0, 1.7103881454738848E9, 0.0, 2024-03-13 20:49:05.473
6.0, -898.3482787064277, -31.878907222300768, -140.78292398201302, -207.6878642393276, 0.01600000075995922, -0.20800000987946987, 1.0400000493973494, 0.0, 0.0, 0.0, 0.0, 0.0, 1.7103881454738848E9, 0.0, 2024-03-13 20:49:05.473
7.0, -715.8243313189596, 69.77344352332875, 28.13152746669948, -64.06635619094595, 0.01600000075995922, -0.20800000987946987, 1.0400000493973494, 0.0, 0.0, 0.0, 0.0, 0.0, 1.710388145474637E9, 0.0, 2024-03-13 20:49:05.474
7.0, -472.13245020620525, 98.10692558763549, 270.3536278968677, -18.951943025458604, 0.01600000075995922, -0.20800000987946987, 1.0400000493973494, 0.0, 0.0, 0.0, 0.0, 0.0, 1.710388145474637E9, 0.0, 2024-03-13 20:49:05.474
8.0, -297.595059174113, 173.16297779837623, 457.4122039806098, -0.925625239033252, 0.01600000075995922, -0.20800000987946987, 1.0400000493973494, 0.0, 0.0, 0.0, 0.0, 0.0, 1.710388145488176E9, 0.0, 2024-03-13 20:49:05.488
8.0, -147.17067310633138, 116.39129647100344, 601.4750202237628, -38.1488494980149, 0.01600000075995922, -0.20800000987946987, 1.0400000493973494, 0.0, 0.0, 0.0, 0.0, 0.0, 1.710388145488176E9, 0.0, 2024-03-13 20:49:05.488
9.0, -114.52134649315849, -115.25623683445156, 622.1342275789939, -223.66845674999058, 0.01600000075995922, -0.20800000987946987, 1.0400000493973494, 0.0, 0.0, 0.0, 0.0, 0.0, 1.7103881455041263E9, 0.0, 2024-03-13 20:49:05.504
9.0, -299.68192334938794, -233.92887227842584, 445.8334737177938, -394.99514367012307, 0.01600000075995922, -0.20800000987946987, 1.0400000493973494, 0.0, 0.0, 0.0, 0.0, 0.0, 1.7103881455041263E9, 0.0, 2024-03-13 20:49:05.504
10.0, -539.4057706091553, -238.85058062011376, 232.11689074989408, -403.11072657397017, 0.01600000075995922, -0.20800000987946987, 1.0400000493973494, 0.0, 0.0, 0.0, 0.0, 0.0, 1.7103881455047913E9, 0.0, 2024-03-13 20:49:05.504
10.0, -709.7956125903875, -332.31068051280454, 29.874320846050978, -442.80602470366284, 0.01600000075995922, -0.20800000987946987, 1.0400000493973494, 0.0, 0.0, 0.0, 0.0, 0.0, 1.7103881455047913E9, 0.0, 2024-03-13 20:49:05.504
11.0, -843.8280171523802, -253.93359714141116, -112.63643691549078, -395.3878331654705, 0.01600000075995922, -0.19200000911951065, 1.0400000493973494, 0.0, 0.0, 0.0, 0.0, 0.0, 1.7103881455184128E9, 0.0, 2024-03-13 20:49:05.518
11.0, -906.9837077041157, -31.40767982788384, -145.85796822188422, -210.85929940175265, 0.01600000075995922, -0.19200000911951065, 1.0400000493973494, 0.0, 0.0, 0.0, 0.0, 0.0, 1.7103881455184128E9, 0.0, 2024-03-13 20:49:05.518
12.0, -719.3585367770866, 61.541923720855266, 23.239738324657083, -72.60454778978601, 0.01600000075995922, -0.19200000911951065, 1.0400000493973494, 0.0, 0.0, 0.0, 0.0, 0.0, 1.7103881455339658E9, 0.0, 2024-03-13 20:49:05.533
12.0, -964.3462932244875, 90.30923418002203, -220.11368184210733, -26.42052323697135, 0.01600000075995922, -0.19200000911951065, 1.0400000493973494, 0.0, 0.0, 0.0, 0.0, 0.0, 1.7103881455339658E9, 0.0, 2024-03-13 20:49:05.533
13.0, -821.0333269224502, 150.68991896463558, -59.06610995018855, -27.385417425539345, 0.01600000075995922, -0.19200000911951065, 1.0400000493973494, 0.0, 0.0, 0.0, 0.0, 0.0, 1.710388145534566E9, 0.0, 2024-03-13 20:49:05.534
13.0, -657.7810840066522, 89.50889558950439, 86.36176977679133, -63.49789139768109, 0.01600000075995922, -0.19200000911951065, 1.0400000493973494, 0.0, 0.0, 0.0, 0.0, 0.0, 1.710388145534566E9, 0.0, 2024-03-13 20:49:05.534
14.0, -624.0471864063293, -145.08941878098994, 101.98707179166377, -255.73809887003154, 0.01600000075995922, -0.19200000911951065, 1.0400000493973494, 0.0, 0.0, 0.0, 0.0, 0.0, 1.7103881455485945E9, 0.0, 2024-03-13 20:49:05.548
14.0, -787.1423535239883, -235.0957210646011, -43.919515129644424, -393.9143125829287, 0.01600000075995922, -0.19200000911951065, 1.0400000493973494, 0.0, 0.0, 0.0, 0.0, 0.0, 1.7103881455485945E9, 0.0, 2024-03-13 20:49:05.548
15.0, -1028.59777446324, -239.67709851032123, -273.3249784116633, -416.2265557185747, 0.01600000075995922, -0.19200000911951065, 1.0400000493973494, 0.0, 0.0, 0.0, 0.0, 0.0, 1.710388145564188E9, 0.0, 2024-03-13 20:49:05.564
15.0, -1202.5629608021118, -334.5209613866173, -466.2477176259272, -450.8206303087063, 0.01600000075995922, -0.19200000911951065, 1.0400000493973494, 0.0, 0.0, 0.0, 0.0, 0.0, 1.710388145564188E9, 0.0, 2024-03-13 20:49:05.564
16.0, -1343.5029605822638, -260.7813539602794, -593.4174057692289, -393.7273175851442, 0.01600000075995922, -0.19200000911951065, 1.0400000493973494, 0.0, 0.0, 0.0, 0.0, 0.0, 1.7103881455645769E9, 0.0, 2024-03-13 20:49:05.564
16.0, -1391.212864317, -37.78794915229082, -637.9596142414957, -213.5108884703368, 0.01600000075995922, -0.19200000911951065, 1.0400000493973494, 0.0, 0.0, 0.0, 0.0, 0.0, 1.7103881455645769E9, 0.0, 2024-03-13 20:49:05.564
17.0, -1210.4541497086175, 62.93316650437191, -464.0598761518486, -66.39631386334077, 0.01600000075995922, -0.19200000911951065, 1.0400000493973494, 0.0, 0.0, 0.0, 0.0, 0.0, 1.7103881455782526E9, 0.0, 2024-03-13 20:49:05.578
17.0, -971.0294944453053, 82.15625227661803, -232.55632899468765, -33.855444348882884, 0.01600000075995922, -0.19200000911951065, 1.0400000493973494, 0.0, 0.0, 0.0, 0.0, 0.0, 1.7103881455782526E9, 0.0, 2024-03-13 20:49:05.578
18.0, -808.1044927756302, 153.5397227308713, -48.86740277102217, -20.403024208266288, 0.01600000075995922, -0.19200000911951065, 1.0400000493973494, 0.0, 0.0, 0.0, 0.0, 0.0, 1.7103881455939023E9, 0.0, 2024-03-13 20:49:05.593
18.0, -660.7281251717359, 105.38851080136374, 111.74447077605873, -45.894182306248695, 0.01600000075995922, -0.19200000911951065, 1.0400000493973494, 0.0, 0.0, 0.0, 0.0, 0.0, 1.7103881455939023E9, 0.0, 2024-03-13 20:49:05.593
19.0, -616.8104799920693, -134.60647920519114, 119.23549038730562, -242.42779492773116, 0.01600000075995922, -0.19200000911951065, 1.0400000493973494, 0.0, 0.0, 0.0, 0.0, 0.0, 1.710388145594596E9, 0.0, 2024-03-13 20:49:05.594
19.0, -784.9283327502199, -233.06495538866147, -36.192881821189076, -392.2089182031341, 0.01600000075995922, -0.19200000911951065, 1.0400000493973494, 0.0, 0.0, 0.0, 0.0, 0.0, 1.710388145594596E9, 0.0, 2024-03-13 20:49:05.594
20.0, -564.9492873065174, -266.2266482957639, 200.73165032174438, -433.7853860105388, 0.01600000075995922, -0.19200000911951065, 1.0400000493973494, 0.0, 0.0, 0.0, 0.0, 0.0, 1.7103881456082187E9, 0.0, 2024-03-13 20:49:05.608
20.0, -710.6782289799303, -335.4447166756727, 25.853928393684328, -446.8525964557193, 0.01600000075995922, -0.19200000911951065, 1.0400000493973494, 0.0, 0.0, 0.0, 0.0, 0.0, 1.7103881456082187E9, 0.0, 2024-03-13 20:49:05.608
21.0, -853.9631460322998, -264.5212539159693, -107.19862237991765, -406.12134603830054, 0.01600000075995922, -0.20800000987946987, 1.0400000493973494, 0.0, 0.0, 0.0, 0.0, 0.0, 1.7103881456238863E9, 0.0, 2024-03-13 20:49:05.623
21.0, -912.9525880333968, -43.270642487332225, -138.9728124034591, -214.03447446413338, 0.01600000075995922, -0.20800000987946987, 1.0400000493973494, 0.0, 0.0, 0.0, 0.0, 0.0, 1.7103881456238863E9, 0.0, 2024-03-13 20:49:05.623
22.0, -746.9066398506984, 35.48604072956368, 15.879615211859345, -78.62578671844676, 0.01600000075995922, -0.20800000987946987, 1.0400000493973494, 0.0, 0.0, 0.0, 0.0, 0.0, 1.710388145624606E9, 0.0, 2024-03-13 20:49:05.624
22.0, -968.355465976987, 80.27508259890601, 256.81145015731454, -32.91298956004903, 0.01600000075995922, -0.20800000987946987, 1.0400000493973494, 0.0, 0.0, 0.0, 0.0, 0.0, 1.710388145624606E9, 0.0, 2024-03-13 20:49:05.624
23.0, -821.4372361176647, 146.3142360164784, 447.0302417036146, -15.230742569547147, 0.01600000075995922, -0.20800000987946987, 1.0400000493973494, 0.0, 0.0, 0.0, 0.0, 0.0, 1.7103881456382976E9, 0.0, 2024-03-13 20:49:05.638
23.0, -657.6165284086019, 89.83426688564941, 590.3936966550536, -58.54626385634765, 0.01600000075995922, -0.20800000987946987, 1.0400000493973494, 0.0, 0.0, 0.0, 0.0, 0.0, 1.7103881456382976E9, 0.0, 2024-03-13 20:49:05.638
24.0, -602.1463322658092, -125.87755270861089, 623.2561975657009, -233.5193532332778, 0.01600000075995922, -0.20800000987946987, 1.0400000493973494, 0.0, 0.0, 0.0, 0.0, 0.0, 1.7103881456539648E9, 0.0, 2024-03-13 20:49:05.653
24.0, -795.8039618213661, -241.78266218537465, 452.729849236086, -396.45370465284213, 0.01600000075995922, -0.20800000987946987, 1.0400000493973494, 0.0, 0.0, 0.0, 0.0, 0.0, 1.7103881456539648E9, 0.0, 2024-03-13 20:49:05.653
25.0, -555.281645921059, -254.89475143002346, 219.4797687996179, -416.06574002048, 0.01600000075995922, -0.20800000987946987, 1.0400000493973494, 0.0, 0.0, 0.0, 0.0, 0.0, 1.710388145654626E9, 0.0, 2024-03-13 20:49:05.654
25.0, -710.8951431773603, -330.7960210307501, 39.30260863434523, -436.80348527478054, 0.01600000075995922, -0.20800000987946987, 1.0400000493973494, 0.0, 0.0, 0.0, 0.0, 0.0, 1.710388145654626E9, 0.0, 2024-03-13 20:49:05.654
26.0, -864.3825073088519, -271.3016925356351, -107.53521337592974, -401.8728196886368, 0.01600000075995922, -0.20800000987946987, 1.0400000493973494, 0.0, 0.0, 0.0, 0.0, 0.0, 1.7103881456682591E9, 0.0, 2024-03-13 20:49:05.668
26.0, -908.2851928886957, -30.794336235150695, -132.8543360759504, -205.8777526607737, 0.01600000075995922, -0.20800000987946987, 1.0400000493973494, 0.0, 0.0, 0.0, 0.0, 0.0, 1.7103881456682591E9, 0.0, 2024-03-13 20:49:05.668
27.0, -721.8231308478862, 63.37447469914332, 34.94936508592218, -66.24671786511317, 0.01600000075995922, -0.20800000987946987, 1.0400000493973494, 0.0, 0.0, 0.0, 0.0, 0.0, 1.7103881456842248E9, 0.0, 2024-03-13 20:49:05.684
27.0, -961.7134036556818, 98.8810848784633, 278.41311230137944, -14.879191973712295, 0.01600000075995922, -0.20800000987946987, 1.0400000493973494, 0.0, 0.0, 0.0, 0.0, 0.0, 1.7103881456842248E9, 0.0, 2024-03-13 20:49:05.684
28.0, -817.357005266007, 148.40857999166474, 445.8484333176166, -19.277314321603626, 0.01600000075995922, -0.20800000987946987, 1.0400000493973494, 0.0, 0.0, 0.0, 0.0, 0.0, 1.710388145684789E9, 0.0, 2024-03-13 20:49:05.684
28.0, -669.6702259657905, 86.36737962672487, 587.9141429844312, -59.4924585451372, 0.01600000075995922, -0.20800000987946987, 1.0400000493973494, 0.0, 0.0, 0.0, 0.0, 0.0, 1.710388145684789E9, 0.0, 2024-03-13 20:49:05.684
29.0, -623.0411533182487, -142.27701401431113, 609.7439390257932, -246.2686721822247, 0.01600000075995922, -0.20800000987946987, 1.0400000493973494, 0.0, 0.0, 0.0, 0.0, 0.0, 1.7103881456982608E9, 0.0, 2024-03-13 20:49:05.698
29.0, -801.5260087535717, -250.55646748142317, 447.74456259515136, -397.4597377409227, 0.01600000075995922, -0.20800000987946987, 1.0400000493973494, 0.0, 0.0, 0.0, 0.0, 0.0, 1.7103881456982608E9, 0.0, 2024-03-13 20:49:05.698
30.0, -1028.6688325623982, -250.5246783317998, 221.805986572057, -415.8076869235374, 0.01600000075995922, -0.20800000987946987, 1.0400000493973494, 0.0, 0.0, 0.0, 0.0, 0.0, 1.710388145714401E9, 0.0, 2024-03-13 20:49:05.714
30.0, -1211.714495993685, -343.80900292657316, 25.558476297184825, -451.32925670268014, 0.01600000075995922, -0.20800000987946987, 1.0400000493973494, 0.0, 0.0, 0.0, 0.0, 0.0, 1.710388145714401E9, 0.0, 2024-03-13 20:49:05.714
31.0, -1341.4647151064128, -258.03065754286945, -100.81461315555498, -395.5075099640526, 0.01600000075995922, -0.19200000911951065, 1.0400000493973494, 0.0, 0.0, 0.0, 0.0, 0.0, 1.7103881457147913E9, 0.0, 2024-03-13 20:49:05.714
31.0, -1398.5991667294875, -36.00588682340458, -135.98837223881856, -208.394705330953, 0.01600000075995922, -0.19200000911951065, 1.0400000493973494, 0.0, 0.0, 0.0, 0.0, 0.0, 1.7103881457147913E9, 0.0, 2024-03-13 20:49:05.714
32.0, -1229.3630838845856, 49.55367441289127, 17.65980759076774, -78.50610991986468, 0.01600000075995922, -0.19200000911951065, 1.0400000493973494, 0.0, 0.0, 0.0, 0.0, 0.0, 1.710388145728184E9, 0.0, 2024-03-13 20:49:05.728
32.0, -1455.2810904579237, 94.10710258502513, -219.5713963485323, -20.410504008177668, 0.01600000075995922, -0.19200000911951065, 1.0400000493973494, 0.0, 0.0, 0.0, 0.0, 0.0, 1.710388145728184E9, 0.0, 2024-03-13 20:49:05.728
33.0, -1284.3714023828506, 172.83199665229768, -36.81744511378929, 4.886179292108864, 0.01600000075995922, -0.19200000911951065, 1.0400000493973494, 0.0, 0.0, 0.0, 0.0, 0.0, 1.710388145744026E9, 0.0, 2024-03-13 20:49:05.744
33.0, -1145.742660775315, 107.2378913294524, 113.62564045377076, -42.99201994063333, 0.01600000075995922, -0.19200000911951065, 1.0400000493973494, 0.0, 0.0, 0.0, 0.0, 0.0, 1.710388145744026E9, 0.0, 2024-03-13 20:49:05.744
34.0, -1105.1497866562568, -122.62196979718283, 146.71253536175936, -219.19553640298545, 0.01600000075995922, -0.19200000911951065, 1.0400000493973494, 0.0, 0.0, 0.0, 0.0, 0.0, 1.7103881457450004E9, 0.0, 2024-03-13 20:49:05.745
34.0, -1278.4997594524175, -228.76594038959593, -27.52005382394418, -381.9017539252527, 0.01600000075995922, -0.19200000911951065, 1.0400000493973494, 0.0, 0.0, 0.0, 0.0, 0.0, 1.7103881457450004E9, 0.0, 2024-03-13 20:49:05.745
35.0, -1513.324337770231, -235.1910885134712, -245.99378953548148, -393.6525195860304, 0.01600000075995922, -0.19200000911951065, 1.0400000493973494, 0.0, 0.0, 0.0, 0.0, 0.0, 1.7103881457582345E9, 0.0, 2024-03-13 20:49:05.758
35.0, -1713.7979349950328, -339.6876331754029, -469.0526425926946, -451.59104969957843, 0.01600000075995922, -0.19200000911951065, 1.0400000493973494, 0.0, 0.0, 0.0, 0.0, 0.0, 1.7103881457582345E9, 0.0, 2024-03-13 20:49:05.758
36.0, -1822.5373961566947, -251.39607502147555, -587.0932349441573, -383.50991090619937, 0.01600000075995922, -0.19200000911951065, 1.0400000493973494, 0.0, 0.0, 0.0, 0.0, 0.0, 1.7103881457739208E9, 0.0, 2024-03-13 20:49:05.773
36.0, -1892.0172575335018, -33.14860325725749, -627.3121190676466, -204.82684077322483, 0.01600000075995922, -0.19200000911951065, 1.0400000493973494, 0.0, 0.0, 0.0, 0.0, 0.0, 1.7103881457739208E9, 0.0, 2024-03-13 20:49:05.773
37.0, -1709.1454994501546, 59.90571749024093, -457.6422078278847, -65.56231617322192, 0.01600000075995922, -0.19200000911951065, 1.0400000493973494, 0.0, 0.0, 0.0, 0.0, 0.0, 1.7103881457746682E9, 0.0, 2024-03-13 20:49:05.774
37.0, -1950.4270150414668, 84.87702949438244, -216.788910781499, -17.8411927386187, 0.01600000075995922, -0.19200000911951065, 1.0400000493973494, 0.0, 0.0, 0.0, 0.0, 0.0, 1.7103881457746682E9, 0.0, 2024-03-13 20:49:05.774
38.0, -1779.0834985715337, 159.83958420623094, -37.16525580966845, -5.005856090690941, 0.01600000075995922, -0.19200000911951065, 1.0400000493973494, 0.0, 0.0, 0.0, 0.0, 0.0, 1.7103881457881725E9, 0.0, 2024-03-13 20:49:05.788
38.0, -1635.5517481220886, 95.48712566867471, 105.18842615373433, -52.07623693300411, 0.01600000075995922, -0.19200000911951065, 1.0400000493973494, 0.0, 0.0, 0.0, 0.0, 0.0, 1.7103881457881725E9, 0.0, 2024-03-13 20:49:05.788
39.0, -1598.436980961822, -137.33473622286692, 127.69888398703188, -243.5198457147926, 0.01600000075995922, -0.19200000911951065, 1.0400000493973494, 0.0, 0.0, 0.0, 0.0, 0.0, 1.710388145803878E9, 0.0, 2024-03-13 20:49:05.803
39.0, -1776.4431292028166, -240.75231974758208, -32.7746132616885, -389.9537585298531, 0.01600000075995922, -0.19200000911951065, 1.0400000493973494, 0.0, 0.0, 0.0, 0.0, 0.0, 1.710388145803878E9, 0.0, 2024-03-13 20:49:05.803
40.0, -2012.9843216002919, -244.8587298989296, -263.75457442505285, -408.4662633105181, 0.01600000075995922, -0.19200000911951065, 1.0400000493973494, 0.0, 0.0, 0.0, 0.0, 0.0, 1.7103881458046105E9, 0.0, 2024-03-13 20:49:05.804
40.0, -2194.9828130439855, -347.6162210814655, -458.7641778145917, -452.85139598464593, 0.01600000075995922, -0.19200000911951065, 1.0400000493973494, 0.0, 0.0, 0.0, 0.0, 0.0, 1.7103881458046105E9, 0.0, 2024-03-13 20:49:05.804
41.0, -2321.1352483993396, -267.6459403289482, -585.1447470672429, -392.7586834966205, 0.01600000075995922, -0.19200000911951065, 1.0400000493973494, 0.0, 0.0, 0.0, 0.0, 0.0, 1.710388145818463E9, 0.0, 2024-03-13 20:49:05.818
41.0, -2397.230992797762, -55.42718729330227, -637.0358589524403, -222.6586837619543, 0.01600000075995922, -0.19200000911951065, 1.0400000493973494, 0.0, 0.0, 0.0, 0.0, 0.0, 1.710388145818463E9, 0.0, 2024-03-13 20:49:05.818
42.0, -2215.346568302717, 41.06784141343087, -474.70363142574206, -80.37979979766533, 0.01600000075995922, -0.19200000911951065, 1.0400000493973494, 0.0, 0.0, 0.0, 0.0, 0.0, 1.710388145834268E9, 0.0, 2024-03-13 20:49:05.834
42.0, -2424.427545275539, 94.05474398564547, -698.8825845196843, -16.34149285638705, 0.01600000075995922, -0.19200000911951065, 1.0400000493973494, 0.0, 0.0, 0.0, 0.0, 0.0, 1.710388145834268E9, 0.0, 2024-03-13 20:49:05.834
43.0, -2281.451169969514, 148.86671773623675, -540.265947598964, -17.87111193826422, 0.01600000075995922, -0.19200000911951065, 1.0400000493973494, 0.0, 0.0, 0.0, 0.0, 0.0, 1.7103881458349352E9, 0.0, 2024-03-13 20:49:05.834
43.0, -2144.576441441197, 83.34367051254958, -391.55069581093267, -59.71685254247859, 0.01600000075995922, -0.19200000911951065, 1.0400000493973494, 0.0, 0.0, 0.0, 0.0, 0.0, 1.7103881458349352E9, 0.0, 2024-03-13 20:49:05.834
44.0, -2110.7415665420704, -158.78306246874854, -378.0085180713795, -257.95959944371134, 0.01600000075995922, -0.19200000911951065, 1.0400000493973494, 0.0, 0.0, 0.0, 0.0, 0.0, 1.710388145848168E9, 0.0, 2024-03-13 20:49:05.848
44.0, -2271.417018388398, -240.88321624603122, -511.14334664400667, -382.61981471674517, 0.01600000075995922, -0.19200000911951065, 1.0400000493973494, 0.0, 0.0, 0.0, 0.0, 0.0, 1.710388145848168E9, 0.0, 2024-03-13 20:49:05.848
45.0, -2514.536694807932, -252.9032547036186, -267.7487875777297, -415.6954899248667, 0.01600000075995922, -0.19200000911951065, 1.0400000493973494, 0.0, 0.0, 0.0, 0.0, 0.0, 1.7103881458640335E9, 0.0, 2024-03-13 20:49:05.864
45.0, -2677.521534876898, -343.7940433267504, -459.66175380395725, -453.73401237418875, 0.01600000075995922, -0.19200000911951065, 1.0400000493973494, 0.0, 0.0, 0.0, 0.0, 0.0, 1.7103881458640335E9, 0.0, 2024-03-13 20:49:05.864
46.0, -2819.2169944480993, -269.73654440417886, -596.8842930281535, -400.14872580906376, 0.01600000075995922, -0.19200000911951065, 1.0400000493973494, 0.0, 0.0, 0.0, 0.0, 0.0, 1.7103881458651793E9, 0.0, 2024-03-13 20:49:05.865
46.0, -2861.8742933426984, -33.90780294826254, -626.4556819777936, -209.74106931500137, 0.01600000075995922, -0.19200000911951065, 1.0400000493973494, 0.0, 0.0, 0.0, 0.0, 0.0, 1.7103881458651793E9, 0.0, 2024-03-13 20:49:05.865
47.0, -2689.522873834707, 49.41529811453074, -473.2076714434661, -86.38607912650332, 0.01600000075995922, -0.19200000911951065, 1.0400000493973494, 0.0, 0.0, 0.0, 0.0, 0.0, 1.710388145878629E9, 0.0, 2024-03-13 20:49:05.878
47.0, -2453.1649365350604, 73.95278172381222, -241.8013616851531, -46.634682497475296, 0.01600000075995922, -0.19200000911951065, 1.0400000493973494, 0.0, 0.0, 0.0, 0.0, 0.0, 1.710388145878629E9, 0.0, 2024-03-13 20:49:05.878
48.0, -2292.341758640483, 144.13200439233333, -59.42140044597909, -30.190342392306775, 0.01600000075995922, -0.19200000911951065, 1.0400000493973494, 0.0, 0.0, 0.0, 0.0, 0.0, 1.710388145893945E9, 0.0, 2024-03-13 20:49:05.893
48.0, -2127.7431517406367, 94.4885723805055, 92.64480170235038, -58.93147355178371, 0.01600000075995922, -0.19200000911951065, 1.0400000493973494, 0.0, 0.0, 0.0, 0.0, 0.0, 1.710388145893945E9, 0.0, 2024-03-13 20:49:05.893
49.0, -2091.256687772926, -143.48313175002113, 115.06550193671137, -252.76487840525806, 0.01600000075995922, -0.19200000911951065, 1.0400000493973494, 0.0, 0.0, 0.0, 0.0, 0.0, 1.7103881458946316E9, 0.0, 2024-03-13 20:49:05.894
49.0, -2258.125413945876, -235.26588651258498, -35.14196993364021, -388.51763694686815, 0.01600000075995922, -0.19200000911951065, 1.0400000493973494, 0.0, 0.0, 0.0, 0.0, 0.0, 1.7103881458946316E9, 0.0, 2024-03-13 20:49:05.894
50.0, -2501.1403731666505, -249.42140784487128, -272.9248091164045, -417.6290182019584, 0.01600000075995922, -0.19200000911951065, 1.0400000493973494, 0.0, 0.0, 0.0, 0.0, 0.0, 1.7103881459086075E9, 0.0, 2024-03-13 20:49:05.908
50.0, -2671.032808453776, -331.871242268011, -451.10860260529444, -438.88286965014413, 0.01600000075995922, -0.19200000911951065, 1.0400000493973494, 0.0, 0.0, 0.0, 0.0, 0.0, 1.7103881459086075E9, 0.0, 2024-03-13 20:49:05.908
51.0, -2818.4802341568284, -257.7426852462813, -586.7790833478794, -386.4232929716818, 0.01600000075995922, -0.19200000911951065, 1.0400000493973494, 0.0, 0.0, 0.0, 0.0, 0.0, 1.7103881459240537E9, 0.0, 2024-03-13 20:49:05.924
51.0, -2853.6839124397375, -26.035313541535288, -612.5432541426271, -193.80909550376236, 0.01600000075995922, -0.19200000911951065, 1.0400000493973494, 0.0, 0.0, 0.0, 0.0, 0.0, 1.7103881459240537E9, 0.0, 2024-03-13 20:49:05.924
52.0, -2701.400796093978, 45.55198146030307, -469.63232708582655, -74.52685636701062, 0.01600000075995922, -0.19200000911951065, 1.0400000493973494, 0.0, 0.0, 0.0, 0.0, 0.0, 1.7103881459249556E9, 0.0, 2024-03-13 20:49:05.924
52.0, -2923.567683011759, 82.8537436183542, -712.6566360564902, -23.07705267658457, 0.01600000075995922, -0.19200000911951065, 1.0400000493973494, 0.0, 0.0, 0.0, 0.0, 0.0, 1.7103881459249556E9, 0.0, 2024-03-13 20:49:05.924
53.0, -2774.618687476497, 152.48694089334458, -536.7167825410143, -14.224709481466562, 0.01600000075995922, -0.19200000911951065, 1.0400000493973494, 0.0, 0.0, 0.0, 0.0, 0.0, 1.7103881459382417E9, 0.0, 2024-03-13 20:49:05.938
53.0, -2614.5079605234787, 101.16429380141199, -381.29589013243094, -46.12231620354578, 0.01600000075995922, -0.19200000911951065, 1.0400000493973494, 0.0, 0.0, 0.0, 0.0, 0.0, 1.7103881459382417E9, 0.0, 2024-03-13 20:49:05.938
54.0, -2571.7085454305634, -138.85687550483271, -365.8314038156532, -242.62226972542703, 0.01600000075995922, -0.19200000911951065, 1.0400000493973494, 0.0, 0.0, 0.0, 0.0, 0.0, 1.7103881459540093E9, 0.0, 2024-03-13 20:49:05.954
54.0, -2752.934747533407, -237.0423389915377, -514.6700723022223, -382.7170521155931, 0.01600000075995922, -0.19200000911951065, 1.0400000493973494, 0.0, 0.0, 0.0, 0.0, 0.0, 1.7103881459540093E9, 0.0, 2024-03-13 20:49:05.954
55.0, -2515.6998036941513, -251.7476256173104, -279.76882603531703, -419.38677118113264, 0.01600000075995922, -0.19200000911951065, 1.0400000493973494, 0.0, 0.0, 0.0, 0.0, 0.0, 1.7103881459546244E9, 0.0, 2024-03-13 20:49:05.954
55.0, -2666.9263983024284, -334.7210460342467, -456.13502814574167, -440.02353913662955, 0.01600000075995922, -0.19200000911951065, 1.0400000493973494, 0.0, 0.0, 0.0, 0.0, 0.0, 1.7103881459546244E9, 0.0, 2024-03-13 20:49:05.954
56.0, -2803.7712076311, -256.69925315864384, -599.9510109918192, -395.01010326994583, 0.01600000075995922, -0.19200000911951065, 1.0400000493973494, 0.0, 0.0, 0.0, 0.0, 0.0, 1.7103881459682314E9, 0.0, 2024-03-13 20:49:05.968
56.0, -2871.5681140278466, -43.078037639614195, -639.9006223184988, -218.33535941317677, 0.01600000075995922, -0.19200000911951065, 1.0400000493973494, 0.0, 0.0, 0.0, 0.0, 0.0, 1.7103881459682314E9, 0.0, 2024-03-13 20:49:05.968
57.0, -2710.9487606808543, 38.442431644536555, -487.8830388695933, -94.80085402680561, 0.01600000075995922, -0.19200000911951065, 1.0400000493973494, 0.0, 0.0, 0.0, 0.0, 0.0, 1.7103881459838831E9, 0.0, 2024-03-13 20:49:05.983
57.0, -2952.3536929707043, 66.87689100764692, -255.82598651899025, -56.358422382269055, 0.01600000075995922, -0.19200000911951065, 1.0400000493973494, 0.0, 0.0, 0.0, 0.0, 0.0, 1.7103881459838831E9, 0.0, 2024-03-13 20:49:05.983
58.0, -2785.509276147466, 137.34408597275615, -62.68633310729638, -29.93228929536417, 0.01600000075995922, -0.19200000911951065, 1.0400000493973494, 0.0, 0.0, 0.0, 0.0, 0.0, 1.7103881459846284E9, 0.0, 2024-03-13 20:49:05.984
58.0, -2638.0506307445467, 79.46913415845484, 93.46009989269078, -68.94692563312128, 0.01600000075995922, -0.19200000911951065, 1.0400000493973494, 0.0, 0.0, 0.0, 0.0, 0.0, 1.7103881459846284E9, 0.0, 2024-03-13 20:49:05.984
59.0, -2610.513747370802, -163.03532871836796, 111.50511717889458, -257.14430125337094, 0.01600000075995922, -0.19200000911951065, 1.0400000493973494, 0.0, 0.0, 0.0, 0.0, 0.0, 1.7103881459982247E9, 0.0, 2024-03-13 20:49:05.998
59.0, -2766.2300918758847, -249.51116544380784, -37.9992534997873, -394.4939970760606, 0.01600000075995922, -0.19200000911951065, 1.0400000493973494, 0.0, 0.0, 0.0, 0.0, 0.0, 1.7103881459982247E9, 0.0, 2024-03-13 20:49:05.998
60.0, -2522.9552096081898, -267.6048014294356, -279.4172754394822, -425.1536969128065, 0.01600000075995922, -0.19200000911951065, 1.0400000493973494, 0.0, 0.0, 0.0, 0.0, 0.0, 1.7103881460140097E9, 0.0, 2024-03-13 20:49:06.014
60.0, -2672.442750737071, -344.81503601465374, -463.51759065827355, -451.54991080006585, 0.01600000075995922, -0.19200000911951065, 1.0400000493973494, 0.0, 0.0, 0.0, 0.0, 0.0, 1.7103881460140097E9, 0.0, 2024-03-13 20:49:06.014
61.0, -2841.035570789594, -287.6282257921994, -596.0353357382119, -408.85895280586556, 0.01600000075995922, -0.19200000911951065, 1.0400000493973494, 0.0, 0.0, 0.0, 0.0, 0.0, 1.7103881460146077E9, 0.0, 2024-03-13 20:49:06.014
61.0, -2866.2050974913873, -45.127502815332264, -635.8016919670627, -216.03906084038317, 0.01600000075995922, -0.19200000911951065, 1.0400000493973494, 0.0, 0.0, 0.0, 0.0, 0.0, 1.7103881460146077E9, 0.0, 2024-03-13 20:49:06.014
62.0, -2706.419741834514, 39.39236623328179, -484.1393990139477, -91.90243156114593, 0.01600000075995922, -0.19200000911951065, 1.0400000493973494, 0.0, 0.0, 0.0, 0.0, 0.0, 1.7103881460282276E9, 0.0, 2024-03-13 20:49:06.028
62.0, -2922.8159631206654, 81.97112722881138, -729.1234155613929, -38.1488494980149, 0.01600000075995922, -0.19200000911951065, 1.0400000493973494, 0.0, 0.0, 0.0, 0.0, 0.0, 1.7103881460282276E9, 0.0, 2024-03-13 20:49:06.028
63.0, -2768.661026847083, 146.56667926348746, -538.2576213227585, -25.58278564689681, 0.01600000075995922, -0.19200000911951065, 1.0400000493973494, 0.0, 0.0, 0.0, 0.0, 0.0, 1.7103881460439448E9, 0.0, 2024-03-13 20:49:06.043
63.0, -2618.9958404703066, 88.64310874976218, -399.4643241171725, -68.01943044411018, 0.01600000075995922, -0.19200000911951065, 1.0400000493973494, 0.0, 0.0, 0.0, 0.0, 0.0, 1.7103881460439448E9, 0.0, 2024-03-13 20:49:06.043
64.0, -2576.6040744725615, -142.66035375976935, -370.790511156898, -248.7145667532459, 0.01600000075995922, -0.19200000911951065, 1.0400000493973494, 0.0, 0.0, 0.0, 0.0, 0.0, 1.710388146044619E9, 0.0, 2024-03-13 20:49:06.044
64.0, -2748.8058979823254, -233.78862603008747, -533.3994912803173, -391.74517060862854, 0.01600000075995922, -0.19200000911951065, 1.0400000493973494, 0.0, 0.0, 0.0, 0.0, 0.0, 1.710388146044619E9, 0.0, 2024-03-13 20:49:06.044
65.0, -2987.3367171562277, -239.97816045675427, -765.9801296247169, -411.97054956899956, 0.01600000075995922, -0.19200000911951065, 1.0400000493973494, 0.0, 0.0, 0.0, 0.0, 0.0, 1.7103881460582578E9, 0.0, 2024-03-13 20:49:06.058
65.0, -3177.1740389070474, -344.40738691948354, -951.6512028248981, -447.14430865226313, 0.01600000075995922, -0.19200000911951065, 1.0400000493973494, 0.0, 0.0, 0.0, 0.0, 0.0, 1.7103881460582578E9, 0.0, 2024-03-13 20:49:06.058
66.0, -3312.6388251520693, -275.0472023412585, -1095.1156350751407, -400.2534430078231, 0.01600000075995922, -0.19200000911951065, 1.0400000493973494, 0.0, 0.0, 0.0, 0.0, 0.0, 1.7103881460739326E9, 0.0, 2024-03-13 20:49:06.073
