%OpenBCI Raw EXG Data
%Number of channels = 4
%Sample Rate = 200 Hz
%Board = OpenBCI_GUI$BoardGanglionBLE
Sample Index, EXG Channel 0, EXG Channel 1, EXG Channel 2, EXG Channel 3, Accel Channel 0, Accel Channel 1, Accel Channel 2, Other, Other, Other, Other, Other, Timestamp, Other, Timestamp (Formatted)
2.0, -0.056098499335348606, -10.198707179166377, -2.2663793731480837, -3.579084257595241, 0.8160000387579203, 0.0, 0.0, 0.0, 0.0, 0.0, 0.0, 0.0, 1.7103947932412925E9, 0.0, 2024-03-13 22:39:53.241
2.0, 1.61189688090235, 3.1527356626465917, 5.258299337700009, 6.376529424451292, 0.8160000387579203, 0.0, 0.0, 0.0, 0.0, 0.0, 0.0, 0.0, 1.7103947932412925E9, 0.0, 2024-03-13 22:39:53.241
3.0, 1.4660407826304436, -8.250219302251935, 5.561231234110892, 0.14211619831621647, 0.8160000387579203, 0.0, 0.0, 0.0, 0.0, 0.0, 0.0, 0.0, 1.710394793255846E9, 0.0, 2024-03-13 22:39:53.255
3.0, 16.4892189046368, 1.7801923789083958, -8.47087339963764, -2.610450169071555, 0.8160000387579203, 0.0, 0.0, 0.0, 0.0, 0.0, 0.0, 0.0, 1.710394793255846E9, 0.0, 2024-03-13 22:39:53.255
4.0, 11.3019776660949, 8.598029998131096, 6.526125422678888, 11.552550963126123, 0.8160000387579203, 0.0, 0.0, 0.0, 0.0, 0.0, 0.0, 0.0, 1.710394793256546E9, 0.0, 2024-03-13 22:39:53.256
4.0, -12.4501269524917, -15.112935720942914, -5.449034235440195, -11.967679858207703, 0.8160000387579203, 0.0, 0.0, 0.0, 0.0, 0.0, 0.0, 0.0, 1.710394793256546E9, 0.0, 2024-03-13 22:39:53.256
5.0, -1.1967679858207703, -0.014959599822759628, -0.13463639840483665, -6.8552366187796, 0.8160000387579203, 0.0, 0.0, 0.0, 0.0, 0.0, 0.0, 0.0, 1.7103947932704751E9, 0.0, 2024-03-13 22:39:53.270
5.0, 10.819530571810901, 4.42430164758116, 8.964540193788707, 9.058037692680955, 0.8160000387579203, 0.0, 0.0, 0.0, 0.0, 0.0, 0.0, 0.0, 1.7103947932704751E9, 0.0, 2024-03-13 22:39:53.270
6.0, 12.524924951605499, -5.116183139383793, 8.46339359972626, -0.7479799911379814, 0.8160000387579203, 0.0, 0.0, 0.0, 0.0, 0.0, 0.0, 0.0, 1.7103947932858152E9, 0.0, 2024-03-13 22:39:53.285
6.0, -16.216206207871437, -29.979038044810295, -9.110396292060614, -21.3810080466792, 0.8160000387579203, 0.0, 0.0, 0.0, 0.0, 0.0, 0.0, 0.0, 1.7103947932858152E9, 0.0, 2024-03-13 22:39:53.285
7.0, -2.1541823744773865, -14.346256230026484, -11.616129262372851, -8.130542503669858, 0.8160000387579203, 0.0, 0.0, 0.0, 0.0, 0.0, 0.0, 0.0, 1.710394793286774E9, 0.0, 2024-03-13 22:39:53.286
7.0, -13.534697939641774, -26.755244283005595, -16.676213902421296, -19.181946872733533, 0.8160000387579203, 0.0, 0.0, 0.0, 0.0, 0.0, 0.0, 0.0, 1.710394793286774E9, 0.0, 2024-03-13 22:39:53.286
8.0, -23.060223126783967, -35.32709498144686, -12.225732955150306, -22.54785683285445, 0.8160000387579203, 0.0, 0.0, 0.0, 0.0, 0.0, 0.0, 0.0, 1.710394793300246E9, 0.0, 2024-03-13 22:39:53.300
8.0, -12.221993055194616, -30.15107344277203, -5.336837236769497, -11.118722568266094, 0.8160000387579203, 0.0, 0.0, 0.0, 0.0, 0.0, 0.0, 0.0, 1.710394793300246E9, 0.0, 2024-03-13 22:39:53.300
9.0, -6.731819920241833, -5.407895335927606, 1.772712578997016, 2.6665486684069037, 0.8160000387579203, 0.0, 0.0, 0.0, 0.0, 0.0, 0.0, 0.0, 1.7103947933158352E9, 0.0, 2024-03-13 22:39:53.315
9.0, -12.001338957808912, -16.810850300826132, 12.248172354884446, 0.04113889951258898, 0.8160000387579203, 0.0, 0.0, 0.0, 0.0, 0.0, 0.0, 0.0, 1.7103947933158352E9, 0.0, 2024-03-13 22:39:53.315
10.0, -19.492358569055796, -19.810250065289438, -3.7174605559557676, -8.915921494364738, 0.8160000387579203, 0.0, 0.288000013679266, 0.0, 0.0, 0.0, 0.0, 0.0, 1.7103947933164403E9, 0.0, 2024-03-13 22:39:53.316
10.0, -13.527218139730394, -9.454467087984085, -7.180607914924622, -2.0270257759839296, 0.8160000387579203, 0.0, 0.288000013679266, 0.0, 0.0, 0.0, 0.0, 0.0, 1.7103947933164403E9, 0.0, 2024-03-13 22:39:53.316
11.0, -0.02617929968982935, 5.363016536459327, 14.140561732463539, 12.255652154795825, 0.8160000387579203, 0.5920000281184912, 0.288000013679266, 0.0, 0.0, 0.0, 0.0, 0.0, 1.7103947933301752E9, 0.0, 2024-03-13 22:39:53.330
11.0, -19.638214667327702, -22.854528629221022, 0.4113889951258898, -10.692373973317444, 0.8160000387579203, 0.5920000281184912, 0.288000013679266, 0.0, 0.0, 0.0, 0.0, 0.0, 1.7103947933301752E9, 0.0, 2024-03-13 22:39:53.330
12.0, -16.4518199050799, -24.290650212205946, -2.3149980725720525, -4.01665255241096, 0.8160000387579203, 0.5920000281184912, 0.288000013679266, 0.0, 0.0, 0.0, 0.0, 0.0, 1.7103947933460872E9, 0.0, 2024-03-13 22:39:53.346
12.0, -21.912073840387166, -25.876367793418467, -6.82531741913408, -8.642908797599375, 0.8160000387579203, 0.5920000281184912, 0.288000013679266, 0.0, 0.0, 0.0, 0.0, 0.0, 1.7103947933460872E9, 0.0, 2024-03-13 22:39:53.346
13.0, -1.1369295865297318, -12.558584051206708, 10.191227379254997, 1.8325509782880545, 0.8160000387579203, 0.5920000281184912, 0.288000013679266, 0.0, 0.0, 0.0, 0.0, 0.0, 1.7103947933464863E9, 0.0, 2024-03-13 22:39:53.346
13.0, 0.4300884949043393, -6.211973826400936, 1.7876721788197756, 5.022685640491545, 0.8160000387579203, 0.5920000281184912, 0.288000013679266, 0.0, 0.0, 0.0, 0.0, 0.0, 1.7103947933464863E9, 0.0, 2024-03-13 22:39:53.346
14.0, 3.377129659987986, -4.659915344789624, -9.921954582445323, 4.03535205218941, 0.8160000387579203, 0.5920000281184912, 0.288000013679266, 0.0, 0.0, 0.0, 0.0, 0.0, 1.7103947933766117E9, 0.0, 2024-03-13 22:39:53.376
14.0, -11.28327816631645, -11.459053464233875, 1.6455559805035591, 1.4024624833837152, 0.8160000387579203, 0.5920000281184912, 0.288000013679266, 0.0, 0.0, 0.0, 0.0, 0.0, 1.7103947933766117E9, 0.0, 2024-03-13 22:39:53.376
15.0, 0.18325509782880545, -1.8736898778006434, 7.23296651430428, 7.4274413120001554, 0.8160000387579203, 0.5920000281184912, 0.288000013679266, 0.0, 0.0, 0.0, 0.0, 0.0, 1.7103947933772516E9, 0.0, 2024-03-13 22:39:53.377
15.0, -2.090604075230658, -4.656175444833934, -17.74582528974861, -5.23585993796587, 0.8160000387579203, 0.5920000281184912, 0.288000013679266, 0.0, 0.0, 0.0, 0.0, 0.0, 1.7103947933772516E9, 0.0, 2024-03-13 22:39:53.377
16.0, 3.22753366176039, 0.9761138884350657, -4.734713343903422, -0.2655328968539834, 0.8160000387579203, 0.5920000281184912, 0.288000013679266, 0.0, 0.0, 0.0, 0.0, 0.0, 1.7103947933779328E9, 0.0, 2024-03-13 22:39:53.377
16.0, 7.449880711734295, 4.229826849885285, 7.23670641425997, 4.1251096511259675, 0.8160000387579203, 0.5920000281184912, 0.288000013679266, 0.0, 0.0, 0.0, 0.0, 0.0, 1.7103947933779328E9, 0.0, 2024-03-13 22:39:53.377
17.0, -12.536144651472569, -14.47341282851994, -8.519492099061608, -5.187241238541901, 0.8160000387579203, 0.5920000281184912, 0.288000013679266, 0.0, 0.0, 0.0, 0.0, 0.0, 1.7103947933901265E9, 0.0, 2024-03-13 22:39:53.390
17.0, -22.529157333076, -18.774297777563334, -19.75415156595409, -19.110888773575425, 0.8160000387579203, 0.5920000281184912, 0.288000013679266, 0.0, 0.0, 0.0, 0.0, 0.0, 1.7103947933901265E9, 0.0, 2024-03-13 22:39:53.390
18.0, -22.461839133873582, -23.456652522087097, -13.65437473822385, -15.382208517752588, 0.8160000387579203, 0.5920000281184912, 0.288000013679266, 0.0, 0.0, 0.0, 0.0, 0.0, 1.710394793405682E9, 0.0, 2024-03-13 22:39:53.405
18.0, -39.280169234611094, -40.23010382335633, -27.892173869535327, -27.159153478220105, 0.8160000387579203, 0.5920000281184912, 0.288000013679266, 0.0, 0.0, 0.0, 0.0, 0.0, 1.710394793405682E9, 0.0, 2024-03-13 22:39:53.405
19.0, -26.710365483537316, -24.249511312693357, -12.951273546554148, -15.67018081434071, 0.8160000387579203, 0.5920000281184912, 0.288000013679266, 0.0, 0.0, 0.0, 0.0, 0.0, 1.7103947934212093E9, 0.0, 2024-03-13 22:39:53.421
19.0, -28.483078062534332, -25.01619080360979, -11.455313564278185, -17.28581759519875, 0.8160000387579203, 0.5920000281184912, 0.288000013679266, 0.0, 0.0, 0.0, 0.0, 0.0, 1.7103947934212093E9, 0.0, 2024-03-13 22:39:53.421
20.0, -28.045509767718613, -41.55402840767056, -17.379315094090998, -27.592981873080134, 0.8160000387579203, 0.5920000281184912, 0.288000013679266, 0.0, 0.0, 0.0, 0.0, 0.0, 1.710394793421654E9, 0.0, 2024-03-13 22:39:53.421
20.0, 9.405848388560116, 1.4623008826747537, 9.806017683818936, 9.424547888338566, 0.8160000387579203, 0.5920000281184912, 0.288000013679266, 0.0, 0.0, 0.0, 0.0, 0.0, 1.710394793421654E9, 0.0, 2024-03-13 22:39:53.421
21.0, -6.84401691891253, -20.19171986076981, -16.627595202997327, -13.164447844028473, 0.8160000387579203, 0.5920000281184912, 0.288000013679266, 0.0, 0.0, 0.0, 0.0, 0.0, 1.710394793436108E9, 0.0, 2024-03-13 22:39:53.436
21.0, -17.472812592983246, -22.798430129885674, -19.73171216621995, -23.886741016991436, 0.8160000387579203, 0.5920000281184912, 0.288000013679266, 0.0, 0.0, 0.0, 0.0, 0.0, 1.710394793436108E9, 0.0, 2024-03-13 22:39:53.436
22.0, -10.673674473538995, -7.191827614791691, -12.569803751073778, -4.304624848999083, 0.8160000387579203, 0.5920000281184912, 0.288000013679266, 0.0, 0.0, 0.0, 0.0, 0.0, 1.7103947934369884E9, 0.0, 2024-03-13 22:39:53.436
22.0, -12.233212755061686, -16.986625598743558, -4.162508650682867, -3.051758363842964, 0.8160000387579203, 0.5920000281184912, 0.288000013679266, 0.0, 0.0, 0.0, 0.0, 0.0, 1.7103947934369884E9, 0.0, 2024-03-13 22:39:53.436
23.0, -17.843062688596547, -25.547256597317755, -14.701546725817025, -13.934867234900594, 0.8160000387579203, 0.5920000281184912, 0.288000013679266, 0.0, 0.0, 0.0, 0.0, 0.0, 1.7103947934504883E9, 0.0, 2024-03-13 22:39:53.450
23.0, -5.65098883304745, -13.463639840483665, -8.0781839042902, -6.357829924672842, 0.8160000387579203, 0.5920000281184912, 0.288000013679266, 0.0, 0.0, 0.0, 0.0, 0.0, 1.7103947934504883E9, 0.0, 2024-03-13 22:39:53.450
24.0, -4.656175444833934, -6.9412543177604675, -14.675367426127195, 0.1047171987593174, 0.8160000387579203, 0.5920000281184912, 0.288000013679266, 0.0, 0.0, 0.0, 0.0, 0.0, 1.7103947934658377E9, 0.0, 2024-03-13 22:39:53.465
24.0, -21.523124244995415, -17.409234293736517, -15.486925716511905, -17.70468639023602, 0.8160000387579203, 0.5920000281184912, 0.288000013679266, 0.0, 0.0, 0.0, 0.0, 0.0, 1.7103947934658377E9, 0.0, 2024-03-13 22:39:53.465
25.0, -23.120061526075006, -21.33986914716661, -25.958645592443645, -23.075182726606727, 0.8160000387579203, 0.5920000281184912, 0.288000013679266, 0.0, 0.0, 0.0, 0.0, 0.0, 1.7103947934665227E9, 0.0, 2024-03-13 22:39:53.466
25.0, -5.4527741353958845, -6.473766823299229, -7.5059792110696435, -1.0770911872386932, 0.8160000387579203, 0.5920000281184912, 0.288000013679266, 0.0, 0.0, 0.0, 0.0, 0.0, 1.7103947934665227E9, 0.0, 2024-03-13 22:39:53.466
26.0, -8.306317801587284, -12.835336647927761, -7.390042312443256, -8.310057701542974, 0.8160000387579203, 0.5920000281184912, 0.288000013679266, 0.0, 0.0, 0.0, 0.0, 0.0, 1.7103947934801235E9, 0.0, 2024-03-13 22:39:53.480
26.0, -30.330588640645146, -36.23215077072382, -19.058530174195766, -22.843308929353952, 0.8160000387579203, 0.5920000281184912, 0.288000013679266, 0.0, 0.0, 0.0, 0.0, 0.0, 1.7103947934801235E9, 0.0, 2024-03-13 22:39:53.480
27.0, 0.9723739884793758, 0.34033089596778154, 0.16829549800604582, 5.591150433756411, 0.8160000387579203, 0.5920000281184912, 0.288000013679266, 0.0, 0.0, 0.0, 0.0, 0.0, 1.710394793495829E9, 0.0, 2024-03-13 22:39:53.495
27.0, -8.07070410437882, -4.697314344346523, -0.5460253935307264, 1.7053943797945976, 0.8160000387579203, 0.5920000281184912, 0.288000013679266, 0.0, 0.0, 0.0, 0.0, 0.0, 1.710394793495829E9, 0.0, 2024-03-13 22:39:53.495
28.0, -14.159261232241988, -19.241785272024572, -6.518645622767508, -12.760538648813963, 0.8160000387579203, 0.5920000281184912, 0.288000013679266, 0.0, 0.0, 0.0, 0.0, 0.0, 1.7103947934968317E9, 0.0, 2024-03-13 22:39:53.496
28.0, -25.203185801394284, -20.13936126139015, -6.04367832839489, -6.735559820197523, 0.8160000387579203, 0.5920000281184912, 0.288000013679266, 0.0, 0.0, 0.0, 0.0, 0.0, 1.7103947934968317E9, 0.0, 2024-03-13 22:39:53.496
29.0, -22.779730630107224, -16.54905730392784, -16.339622906409204, -4.989026540890336, 0.8160000387579203, 0.5920000281184912, 0.288000013679266, 0.0, 0.0, 0.0, 0.0, 0.0, 1.7103947935101452E9, 0.0, 2024-03-13 22:39:53.510
29.0, -19.006171574816108, -7.685494408942759, 6.82531741913408, 2.214020773768425, 0.8160000387579203, 0.5920000281184912, 0.288000013679266, 0.0, 0.0, 0.0, 0.0, 0.0, 1.7103947935101452E9, 0.0, 2024-03-13 22:39:53.510
30.0, -15.030657921917737, -6.679461320862174, 13.65063483826816, 4.312104648910463, 0.8160000387579203, 0.5920000281184912, 0.288000013679266, 0.0, 0.0, 0.0, 0.0, 0.0, 1.7103947935258353E9, 0.0, 2024-03-13 22:39:53.525
30.0, -5.2096806382760406, -7.356383212842047, -0.5198460938408971, 6.514905722811818, 0.8160000387579203, 0.5920000281184912, 0.288000013679266, 0.0, 0.0, 0.0, 0.0, 0.0, 1.7103947935258353E9, 0.0, 2024-03-13 22:39:53.525
31.0, -29.32829545252025, -28.034290067851543, -18.792997277341783, -16.343362806364894, 0.8160000387579203, 0.5920000281184912, 0.288000013679266, 0.0, 0.0, 0.0, 0.0, 0.0, 1.710394793526524E9, 0.0, 2024-03-13 22:39:53.526
31.0, -34.65391298942268, -32.52964981459081, -16.54157750401646, -20.614328555762768, 0.8160000387579203, 0.5920000281184912, 0.288000013679266, 0.0, 0.0, 0.0, 0.0, 0.0, 1.710394793526524E9, 0.0, 2024-03-13 22:39:53.526
32.0, -2.1616621743887663, -11.65726816188544, -9.506825687363744, -2.9283416653051972, 0.8160000387579203, 0.5920000281184912, 0.288000013679266, 0.0, 0.0, 0.0, 0.0, 0.0, 1.7103947935401125E9, 0.0, 2024-03-13 22:39:53.540
32.0, -8.06322430446744, -12.139715256169438, -3.3584301602095366, -0.9761138884350657, 0.8160000387579203, 0.5920000281184912, 0.288000013679266, 0.0, 0.0, 0.0, 0.0, 0.0, 1.7103947935401125E9, 0.0, 2024-03-13 22:39:53.540
33.0, 10.539038075134158, 7.146948815323412, 27.80241627059877, 19.7878106655553, 0.8160000387579203, 0.5920000281184912, 0.288000013679266, 0.0, 0.0, 0.0, 0.0, 0.0, 1.7103947935558593E9, 0.0, 2024-03-13 22:39:53.555
33.0, 10.46050017606467, 0.07479799911379814, -12.805417448282242, -4.218607150018215, 0.8160000387579203, 0.5920000281184912, 0.288000013679266, 0.0, 0.0, 0.0, 0.0, 0.0, 1.7103947935558593E9, 0.0, 2024-03-13 22:39:53.555
34.0, 22.016791039146483, 19.170727172866464, 16.010511710308492, 22.244924936443567, 0.8160000387579203, 0.5920000281184912, 0.288000013679266, 0.0, 0.0, 0.0, 0.0, 0.0, 1.71039479355684E9, 0.0, 2024-03-13 22:39:53.556
34.0, -0.8526971898972988, -3.911935353651643, 13.602016138844192, 6.757999219931662, 0.8160000387579203, 0.5920000281184912, 0.288000013679266, 0.0, 0.0, 0.0, 0.0, 0.0, 1.71039479355684E9, 0.0, 2024-03-13 22:39:53.556
35.0, -10.359522877261043, -1.1444093864411116, 3.2312735617160797, -1.406202383339405, 0.8160000387579203, 0.5920000281184912, 0.288000013679266, 0.0, 0.0, 0.0, 0.0, 0.0, 1.7103947935704465E9, 0.0, 2024-03-13 22:39:53.570
35.0, 24.20089261326939, 11.784424760378897, 17.622408591210842, 22.49923813343048, 0.8160000387579203, 0.5920000281184912, 0.288000013679266, 0.0, 0.0, 0.0, 0.0, 0.0, 1.7103947935704465E9, 0.0, 2024-03-13 22:39:53.570
36.0, -0.4263485949486494, -2.4309349711984396, 19.084709473885596, 19.30162367131561, 0.8160000387579203, 0.5920000281184912, 0.288000013679266, 0.0, 0.0, 0.0, 0.0, 0.0, 1.7103947935862634E9, 0.0, 2024-03-13 22:39:53.586
36.0, -18.88275487627834, -18.033797586336732, -10.752212372608483, -10.015452081337571, 0.8160000387579203, 0.5920000281184912, 0.288000013679266, 0.0, 0.0, 0.0, 0.0, 0.0, 1.7103947935862634E9, 0.0, 2024-03-13 22:39:53.586
37.0, -1.7839322788640857, -11.67970756161958, -7.808911107480526, -1.731573679484427, 0.8160000387579203, 0.5920000281184912, 0.288000013679266, 0.0, 0.0, 0.0, 0.0, 0.0, 1.7103947935868332E9, 0.0, 2024-03-13 22:39:53.586
37.0, 8.362416300922632, 2.8049249667674303, 8.88974219467491, 14.701546725817025, 0.8160000387579203, 0.5920000281184912, 0.288000013679266, 0.0, 0.0, 0.0, 0.0, 0.0, 1.7103947935868332E9, 0.0, 2024-03-13 22:39:53.586
38.0, 8.702747196890414, -11.417914564721286, 10.352043077349663, 4.113889951258898, 0.8160000387579203, 0.5920000281184912, 0.288000013679266, 0.0, 0.0, 0.0, 0.0, 0.0, 1.7103947936001563E9, 0.0, 2024-03-13 22:39:53.600
38.0, -9.888295482844114, -7.218006914481521, 6.125956127420068, 3.709980756044388, 0.8160000387579203, 0.5920000281184912, 0.288000013679266, 0.0, 0.0, 0.0, 0.0, 0.0, 1.7103947936001563E9, 0.0, 2024-03-13 22:39:53.600
39.0, 8.03330510482192, -1.810111578553915, 7.752812608145177, 11.862962659448385, 0.8160000387579203, 0.5920000281184912, 0.288000013679266, 0.0, 0.0, 0.0, 0.0, 0.0, 1.7103947936158757E9, 0.0, 2024-03-13 22:39:53.615
39.0, -6.208233926445246, -1.4623008826747537, 9.742439384572208, 3.900715653784573, 0.8160000387579203, 0.5920000281184912, 0.288000013679266, 0.0, 0.0, 0.0, 0.0, 0.0, 1.7103947936158757E9, 0.0, 2024-03-13 22:39:53.615
40.0, -9.910734882578254, -16.758491701446474, 0.2169141974300146, -1.1892881859093904, 0.8160000387579203, 0.5920000281184912, 0.288000013679266, 0.0, 0.0, 0.0, 0.0, 0.0, 1.7103947936165657E9, 0.0, 2024-03-13 22:39:53.616
40.0, -10.49415927566588, -17.599969191476703, -11.264578666538, -3.3546902602538466, 0.8160000387579203, 0.5920000281184912, 0.288000013679266, 0.0, 0.0, 0.0, 0.0, 0.0, 1.7103947936165657E9, 0.0, 2024-03-13 22:39:53.616
41.0, -5.669688332825899, -8.88226239476353, 15.341069618239999, 7.606956509873271, 0.8160000387579203, 0.5920000281184912, 0.288000013679266, 0.0, 0.0, 0.0, 0.0, 0.0, 1.710394793630183E9, 0.0, 2024-03-13 22:39:53.630
41.0, -6.148395527154207, -12.03873795736581, -10.8943285709247, -15.445786816999316, 0.8160000387579203, 0.5920000281184912, 0.288000013679266, 0.0, 0.0, 0.0, 0.0, 0.0, 1.710394793630183E9, 0.0, 2024-03-13 22:39:53.630
42.0, -9.824717183597386, -13.145748344250023, 0.2655328968539834, 1.9036090774461627, 0.8160000387579203, 0.5920000281184912, 0.288000013679266, 0.0, 0.0, 0.0, 0.0, 0.0, 1.710394793645995E9, 0.0, 2024-03-13 22:39:53.645
42.0, -14.129342032596469, -20.58066945616156, -10.767171972431242, -6.2979915253818035, 0.8160000387579203, 0.5920000281184912, 0.288000013679266, 0.0, 0.0, 0.0, 0.0, 0.0, 1.710394793645995E9, 0.0, 2024-03-13 22:39:53.645
43.0, -23.32201612368226, -17.147441296838224, -9.020638693124056, -12.308010754175484, 0.8160000387579203, 0.5920000281184912, 0.288000013679266, 0.0, 0.0, 0.0, 0.0, 0.0, 1.710394793646669E9, 0.0, 2024-03-13 22:39:53.646
43.0, 0.5011465940624475, -2.3075182726606727, -4.4878799468278885, -3.373389760032296, 0.8160000387579203, 0.5920000281184912, 0.288000013679266, 0.0, 0.0, 0.0, 0.0, 0.0, 1.710394793646669E9, 0.0, 2024-03-13 22:39:53.646
44.0, 16.14140820875764, 8.134282403625548, 5.370496336370707, 6.84775681886822, 0.8160000387579203, 0.5920000281184912, 0.288000013679266, 0.0, 0.0, 0.0, 0.0, 0.0, 1.7103947936603868E9, 0.0, 2024-03-13 22:39:53.660
44.0, -14.312597130425274, -12.221993055194616, -5.176021538674831, -9.114136192016304, 0.8160000387579203, 0.5920000281184912, 0.288000013679266, 0.0, 0.0, 0.0, 0.0, 0.0, 1.7103947936603868E9, 0.0, 2024-03-13 22:39:53.660
45.0, 11.709626761265099, -3.9268949534744024, 3.8520969543606043, 7.487279711291194, 0.8160000387579203, 0.5920000281184912, 0.288000013679266, 0.0, 0.0, 0.0, 0.0, 0.0, 1.710394793676168E9, 0.0, 2024-03-13 22:39:53.676
45.0, 11.189780667424202, 7.431181211955845, 11.425394364632666, 18.276891083456576, 0.8160000387579203, 0.5920000281184912, 0.288000013679266, 0.0, 0.0, 0.0, 0.0, 0.0, 1.710394793676168E9, 0.0, 2024-03-13 22:39:53.676
46.0, -1.1182300867512822, 0.23561369720846415, 20.633028055541217, 12.91013464704156, 0.8160000387579203, 0.5920000281184912, 0.288000013679266, 0.0, 0.0, 0.0, 0.0, 0.0, 1.7103947936766248E9, 0.0, 2024-03-13 22:39:53.676
46.0, -2.688988068141043, -4.390642547979951, 4.794551743194461, -0.05983839929103851, 0.8160000387579203, 0.5920000281184912, 0.288000013679266, 0.0, 0.0, 0.0, 0.0, 0.0, 1.7103947936766248E9, 0.0, 2024-03-13 22:39:53.676
47.0, 3.422008459456265, -2.8872027657926083, -8.46713349968195, 3.388349359855056, 0.8160000387579203, 0.5920000281184912, 0.288000013679266, 0.0, 0.0, 0.0, 0.0, 0.0, 1.7103947936902099E9, 0.0, 2024-03-13 22:39:53.690
47.0, 0.46000769454985857, -4.757152743637562, 1.9634474767372012, 5.5350519344210625, 0.8160000387579203, 0.5920000281184912, 0.288000013679266, 0.0, 0.0, 0.0, 0.0, 0.0, 1.7103947936902099E9, 0.0, 2024-03-13 22:39:53.690
48.0, -0.886356289498508, -5.826764130964875, 14.600569427013397, 6.350350124761462, 0.8160000387579203, 0.5920000281184912, 0.288000013679266, 0.0, 0.0, 0.0, 0.0, 0.0, 1.7103947937065053E9, 0.0, 2024-03-13 22:39:53.706
48.0, 11.26083876658231, -2.81988456659019, 7.3451635129749775, 6.241893026046455, 0.8160000387579203, 0.5920000281184912, 0.288000013679266, 0.0, 0.0, 0.0, 0.0, 0.0, 1.7103947937065053E9, 0.0, 2024-03-13 22:39:53.706
49.0, -3.343470560386777, -1.327664484269917, 10.598876474425197, 6.0399384284392, 0.8160000387579203, 0.5920000281184912, 0.288000013679266, 0.0, 0.0, 0.0, 0.0, 0.0, 1.7103947937066295E9, 0.0, 2024-03-13 22:39:53.706
49.0, -14.753905325196683, -13.721692937426269, 16.616375503130257, 4.43552134744823, 0.8160000387579203, 0.5920000281184912, 0.288000013679266, 0.0, 0.0, 0.0, 0.0, 0.0, 1.7103947937066295E9, 0.0, 2024-03-13 22:39:53.706
50.0, -10.161308179609478, -16.287264307029545, -2.733866867609322, -4.472920347005129, 0.8160000387579203, 0.5920000281184912, 0.288000013679266, 0.0, 0.0, 0.0, 0.0, 0.0, 1.710394793720539E9, 0.0, 2024-03-13 22:39:53.720
50.0, -6.6607618210837245, 0.6619622921571136, 7.25914581399411, 14.738945725373924, 0.8160000387579203, 0.5920000281184912, 0.288000013679266, 0.0, 0.0, 0.0, 0.0, 0.0, 1.710394793720539E9, 0.0, 2024-03-13 22:39:53.720
51.0, -4.42056174762547, -4.342023848555982, 6.967433617450297, 4.532758746296167, 0.8160000387579203, 0.5920000281184912, 0.288000013679266, 0.0, 0.0, 0.0, 0.0, 0.0, 1.7103947937359924E9, 0.0, 2024-03-13 22:39:53.735
51.0, -16.44434010516852, -14.51829162798822, 0.845217389985919, -1.8699499778449535, 0.8160000387579203, 0.5920000281184912, 0.288000013679266, 0.0, 0.0, 0.0, 0.0, 0.0, 1.7103947937359924E9, 0.0, 2024-03-13 22:39:53.735
52.0, 3.4706271588802338, 7.532158510759473, 6.552304722368717, 13.25046554300934, 0.8160000387579203, 0.5920000281184912, 0.288000013679266, 0.0, 0.0, 0.0, 0.0, 0.0, 1.7103947937366705E9, 0.0, 2024-03-13 22:39:53.736
52.0, 11.806864160113037, 14.387395129539073, 20.46099265757948, 22.14394763763994, 0.8160000387579203, 0.5920000281184912, 0.288000013679266, 0.0, 0.0, 0.0, 0.0, 0.0, 1.7103947937366705E9, 0.0, 2024-03-13 22:39:53.736
53.0, -13.011111945845187, -11.174821067601442, 21.76621774211526, 8.01834550499916, 0.8160000387579203, 0.5920000281184912, 0.288000013679266, 0.0, 0.0, 0.0, 0.0, 0.0, 1.7103947937502966E9, 0.0, 2024-03-13 22:39:53.750
53.0, -4.259746049530804, -6.0174990287050605, 4.555198146030307, 5.6958676325157285, 0.8160000387579203, 0.5920000281184912, 0.288000013679266, 0.0, 0.0, 0.0, 0.0, 0.0, 1.7103947937502966E9, 0.0, 2024-03-13 22:39:53.750
54.0, 0.07105809915810823, 3.2387533616274595, 12.10605615656823, 16.664994202554226, 0.8160000387579203, 0.5920000281184912, 0.288000013679266, 0.0, 0.0, 0.0, 0.0, 0.0, 1.7103947937659783E9, 0.0, 2024-03-13 22:39:53.765
54.0, -13.908687935210764, -3.5641246577724814, 15.393428217619658, 10.367002677172422, 0.8160000387579203, 0.5920000281184912, 0.288000013679266, 0.0, 0.0, 0.0, 0.0, 0.0, 1.7103947937659783E9, 0.0, 2024-03-13 22:39:53.765
55.0, 23.572589420713484, 12.221993055194616, 22.794690229929984, 21.960692539811134, 0.8160000387579203, 0.5920000281184912, 0.288000013679266, 0.0, 0.0, 0.0, 0.0, 0.0, 1.7103947937665243E9, 0.0, 2024-03-13 22:39:53.766
55.0, 10.168787979520857, 12.005078857764602, 1.4136821832507849, 19.32780297100544, 0.8160000387579203, 0.5920000281184912, 0.288000013679266, 0.0, 0.0, 0.0, 0.0, 0.0, 1.7103947937665243E9, 0.0, 2024-03-13 22:39:53.766
56.0, 20.13936126139015, 23.31079642381519, 39.90099262725562, 36.1274335719645, 0.8160000387579203, 0.5920000281184912, 0.288000013679266, 0.0, 0.0, 0.0, 0.0, 0.0, 1.7103947937802036E9, 0.0, 2024-03-13 22:39:53.780
56.0, -5.21716043818742, 7.554597910493612, 6.211973826400936, 8.968280093744397, 0.8160000387579203, 0.5920000281184912, 0.288000013679266, 0.0, 0.0, 0.0, 0.0, 0.0, 1.7103947937802036E9, 0.0, 2024-03-13 22:39:53.780
57.0, -2.8759830659255385, 7.479799911379814, 14.383655229583383, 19.70927276648581, 0.8160000387579203, 0.5920000281184912, 0.288000013679266, 0.0, 0.0, 0.0, 0.0, 0.0, 1.7103947937959583E9, 0.0, 2024-03-13 22:39:53.795
57.0, -3.1602154625579715, 4.140069250948727, 11.545071163214743, 16.53409770410508, 0.8160000387579203, 0.5920000281184912, 0.288000013679266, 0.0, 0.0, 0.0, 0.0, 0.0, 1.7103947937959583E9, 0.0, 2024-03-13 22:39:53.795
58.0, 2.6291496688500047, 4.121369751170278, 17.7121661901474, 19.881308164447546, 0.8160000387579203, 0.5920000281184912, 0.288000013679266, 0.0, 0.0, 0.0, 0.0, 0.0, 1.7103947937965572E9, 0.0, 2024-03-13 22:39:53.796
58.0, 20.434813357889652, 17.65980759076774, 22.424440134316683, 24.866594805382192, 0.8160000387579203, 0.5920000281184912, 0.288000013679266, 0.0, 0.0, 0.0, 0.0, 0.0, 1.7103947937965572E9, 0.0, 2024-03-13 22:39:53.796
59.0, 20.292697159573436, 20.330096159130335, 21.72133894264698, 29.32829545252025, 0.8160000387579203, 0.5920000281184912, 0.288000013679266, 0.0, 0.0, 0.0, 0.0, 0.0, 1.7103947938101733E9, 0.0, 2024-03-13 22:39:53.810
59.0, 9.293651389889419, 12.356629453599453, 37.87770675122738, 25.199445901438594, 0.8160000387579203, 0.5920000281184912, 0.288000013679266, 0.0, 0.0, 0.0, 0.0, 0.0, 1.7103947938101733E9, 0.0, 2024-03-13 22:39:53.810
60.0, 17.177360496483743, 20.745225054211915, 35.14383988361806, 28.57657556142658, 0.8160000387579203, 0.5920000281184912, 0.288000013679266, 0.0, 0.0, 0.0, 0.0, 0.0, 1.7103947938258908E9, 0.0, 2024-03-13 22:39:53.825
60.0, 24.89277410507202, 30.57742203772068, 38.087141148746014, 45.38368596229702, 0.8160000387579203, 0.5920000281184912, 0.288000013679266, 0.0, 0.0, 0.0, 0.0, 0.0, 1.7103947938258908E9, 0.0, 2024-03-13 22:39:53.825
61.0, -4.398122347891331, 2.5580915696918964, 13.183147343806922, 13.979746034368873, 0.8160000387579203, 0.5920000281184912, 0.288000013679266, 0.0, 0.0, 0.0, 0.0, 0.0, 1.7103947938265536E9, 0.0, 2024-03-13 22:39:53.826
61.0, -4.83569064270705, -2.864763366058469, 21.410927246324718, 15.408387817442417, 0.8160000387579203, 0.5920000281184912, 0.288000013679266, 0.0, 0.0, 0.0, 0.0, 0.0, 1.7103947938265536E9, 0.0, 2024-03-13 22:39:53.826
62.0, 18.774297777563334, 13.747872237116098, 23.598768720403314, 27.600461672991514, 0.8160000387579203, 0.5920000281184912, 0.288000013679266, 0.0, 0.0, 0.0, 0.0, 0.0, 1.7103947938401628E9, 0.0, 2024-03-13 22:39:53.840
62.0, 4.588857245631516, 19.208126172423363, 31.145886830985546, 25.214405501261353, 0.8160000387579203, 0.5920000281184912, 0.288000013679266, 0.0, 0.0, 0.0, 0.0, 0.0, 1.7103947938401628E9, 0.0, 2024-03-13 22:39:53.840
63.0, -9.592843386344612, -6.2568526258692145, 17.872981888242066, 6.395228924229741, 0.8160000387579203, 0.5920000281184912, 0.288000013679266, 0.0, 0.0, 0.0, 0.0, 0.0, 1.710394793855914E9, 0.0, 2024-03-13 22:39:53.855
63.0, 5.045125040225685, 3.7585994554683566, 17.102562497369945, 10.400661776773632, 0.8160000387579203, 0.5920000281184912, 0.288000013679266, 0.0, 0.0, 0.0, 0.0, 0.0, 1.710394793855914E9, 0.0, 2024-03-13 22:39:53.855
64.0, 13.867549035698175, 9.473166587762535, 23.76332431845367, 24.290650212205946, 0.8160000387579203, 0.5920000281184912, 0.288000013679266, 0.0, 0.0, 0.0, 0.0, 0.0, 1.7103947938566437E9, 0.0, 2024-03-13 22:39:53.856
64.0, -17.68598689045757, -18.198353184387088, 7.004832617007196, 0.007479799911379814, 0.8160000387579203, 0.5920000281184912, 0.288000013679266, 0.0, 0.0, 0.0, 0.0, 0.0, 1.7103947938566437E9, 0.0, 2024-03-13 22:39:53.856
65.0, -7.606956509873271, -6.226933426223695, 7.820130807347596, 9.035598292946815, 0.8160000387579203, 0.5920000281184912, 0.288000013679266, 0.0, 0.0, 0.0, 0.0, 0.0, 1.7103947938701546E9, 0.0, 2024-03-13 22:39:53.870
65.0, 18.54616388026625, 6.7804386196658015, 25.992304692044854, 25.685632895678282, 0.8160000387579203, 0.5920000281184912, 0.288000013679266, 0.0, 0.0, 0.0, 0.0, 0.0, 1.7103947938701546E9, 0.0, 2024-03-13 22:39:53.870
66.0, -11.922801058739424, -11.320677165873349, 6.686941120773554, -0.8676567897200584, 0.8160000387579203, 0.5920000281184912, 0.288000013679266, 0.0, 0.0, 0.0, 0.0, 0.0, 1.7103947938858554E9, 0.0, 2024-03-13 22:39:53.885
66.0, -17.783224289305508, -5.61732973344624, 11.567510562948883, 3.4781069587916136, 0.8160000387579203, 0.5920000281184912, 0.288000013679266, 0.0, 0.0, 0.0, 0.0, 0.0, 1.7103947938858554E9, 0.0, 2024-03-13 22:39:53.885
67.0, 11.354336265474558, 13.949826834723353, 18.774297777563334, 19.626994967460632, 0.8160000387579203, 0.5920000281184912, 0.288000013679266, 0.0, 0.0, 0.0, 0.0, 0.0, 1.7103947938865545E9, 0.0, 2024-03-13 22:39:53.886
67.0, 10.984086169861257, 13.875028835609555, 26.272797188721597, 23.651127319782972, 0.8160000387579203, 0.5920000281184912, 0.288000013679266, 0.0, 0.0, 0.0, 0.0, 0.0, 1.7103947938865545E9, 0.0, 2024-03-13 22:39:53.886
68.0, 6.473766823299229, 0.9200153890997171, 15.090496321208775, 8.130542503669858, 0.8160000387579203, 0.5920000281184912, 0.288000013679266, 0.0, 0.0, 0.0, 0.0, 0.0, 1.710394793900154E9, 0.0, 2024-03-13 22:39:53.900
68.0, 14.51455172803253, 8.182901103049517, 6.892635618336499, 7.333943813107908, 0.8160000387579203, 0.5920000281184912, 0.288000013679266, 0.0, 0.0, 0.0, 0.0, 0.0, 1.710394793900154E9, 0.0, 2024-03-13 22:39:53.900
69.0, 16.006771810352802, 13.329003442078829, 15.748718713410199, 20.311396659351885, 0.8160000387579203, 0.5920000281184912, 0.288000013679266, 0.0, 0.0, 0.0, 0.0, 0.0, 1.7103947939155457E9, 0.0, 2024-03-13 22:39:53.915
69.0, 14.51081182807684, 6.675721420906484, 17.910380887798965, 9.918214682489634, 0.8160000387579203, 0.5920000281184912, 0.288000013679266, 0.0, 0.0, 0.0, 0.0, 0.0, 1.7103947939155457E9, 0.0, 2024-03-13 22:39:53.915
70.0, 7.176868014968932, 1.1818083859980106, 11.975159658119082, 11.339376665651798, 0.8160000387579203, 0.5920000281184912, 0.288000013679266, 0.0, 0.0, 0.0, 0.0, 0.0, 1.710394793930823E9, 0.0, 2024-03-13 22:39:53.930
70.0, 12.06865715701133, 15.449526716955006, 10.198707179166377, 16.339622906409204, 0.8160000387579203, 0.5920000281184912, 0.288000013679266, 0.0, 0.0, 0.0, 0.0, 0.0, 1.710394793930823E9, 0.0, 2024-03-13 22:39:53.930
71.0, -11.171081167645752, -1.365063483826816, 2.7675259672105312, 2.3224778724834323, 0.8160000387579203, 0.5920000281184912, 0.288000013679266, 0.0, 0.0, 0.0, 0.0, 0.0, 1.7103947939315305E9, 0.0, 2024-03-13 22:39:53.931
71.0, 0.4861869942396879, -5.467733735218644, 3.2387533616274595, -3.590303957462311, 0.8160000387579203, 0.5920000281184912, 0.288000013679266, 0.0, 0.0, 0.0, 0.0, 0.0, 1.7103947939315305E9, 0.0, 2024-03-13 22:39:53.931
72.0, 20.603108855895698, 19.570896468125284, 21.912073840387166, 26.695405883714557, 0.8160000387579203, 0.5920000281184912, 0.288000013679266, 0.0, 0.0, 0.0, 0.0, 0.0, 1.7103947939458473E9, 0.0, 2024-03-13 22:39:53.945
72.0, 21.998091539368033, 16.05539050977677, 25.30416310019791, 25.528557097539306, 0.8160000387579203, 0.5920000281184912, 0.288000013679266, 0.0, 0.0, 0.0, 0.0, 0.0, 1.7103947939458473E9, 0.0, 2024-03-13 22:39:53.945
73.0, -8.362416300922632, -6.45132742356509, 19.443739869631827, 5.478953435085714, 0.8160000387579203, 0.5920000281184912, 0.288000013679266, 0.0, 0.0, 0.0, 0.0, 0.0, 1.7103947939465003E9, 0.0, 2024-03-13 22:39:53.946
73.0, -16.44808000512421, -10.419361276552081, -10.217406678944826, -9.203893790952861, 0.8160000387579203, 0.5920000281184912, 0.288000013679266, 0.0, 0.0, 0.0, 0.0, 0.0, 1.7103947939465003E9, 0.0, 2024-03-13 22:39:53.946
74.0, 10.86440937127918, 11.758245460689068, 18.48632548097521, 22.1963062370196, 0.8160000387579203, 0.5920000281184912, 0.288000013679266, 0.0, 0.0, 0.0, 0.0, 0.0, 1.710394793960148E9, 0.0, 2024-03-13 22:39:53.960
74.0, -23.38559442292899, -6.750519420020282, 18.411527481861413, 6.679461320862174, 0.8160000387579203, 0.5920000281184912, 0.288000013679266, 0.0, 0.0, 0.0, 0.0, 0.0, 1.710394793960148E9, 0.0, 2024-03-13 22:39:53.960
75.0, -5.3742362363263965, -6.410188524052501, 16.04791070986539, 10.89058867096901, 0.8160000387579203, 0.5920000281184912, 0.288000013679266, 0.0, 0.0, 0.0, 0.0, 0.0, 1.7103947939758155E9, 0.0, 2024-03-13 22:39:53.975
75.0, 18.07867638580501, 12.999892245978117, 24.249511312693357, 26.837522082030773, 0.8160000387579203, 0.5920000281184912, 0.288000013679266, 0.0, 0.0, 0.0, 0.0, 0.0, 1.7103947939758155E9, 0.0, 2024-03-13 22:39:53.975
76.0, -4.065271251834929, -1.2977452846243978, 28.64015386067331, 23.075182726606727, 0.8160000387579203, 0.5920000281184912, 0.288000013679266, 0.0, 0.0, 0.0, 0.0, 0.0, 1.7103947939764957E9, 0.0, 2024-03-13 22:39:53.976
76.0, -1.0284724878147244, 4.379422848112881, 27.215251977555454, 14.346256230026484, 0.8160000387579203, 0.5920000281184912, 0.288000013679266, 0.0, 0.0, 0.0, 0.0, 0.0, 1.7103947939764957E9, 0.0, 2024-03-13 22:39:53.976
77.0, -2.778745667077601, -1.7652327790856361, 16.317183506675065, 20.1580607611686, 0.8160000387579203, 0.5920000281184912, 0.288000013679266, 0.0, 0.0, 0.0, 0.0, 0.0, 1.7103947939904208E9, 0.0, 2024-03-13 22:39:53.990
77.0, 17.77574448939413, 3.653882256709039, 26.055882991291583, 24.866594805382192, 0.8160000387579203, 0.5920000281184912, 0.288000013679266, 0.0, 0.0, 0.0, 0.0, 0.0, 1.7103947939904208E9, 0.0, 2024-03-13 22:39:53.990
78.0, -7.274105413816869, -7.405001912266016, 24.09617541451007, 11.66100806184113, 0.8160000387579203, 0.5920000281184912, 0.288000013679266, 0.0, 0.0, 0.0, 0.0, 0.0, 1.7103947940058832E9, 0.0, 2024-03-13 22:39:54.005
78.0, 18.280630983412266, 2.5468718698248267, 24.746918006800115, 24.14105421397835, 0.8160000387579203, 0.5920000281184912, 0.288000013679266, 0.0, 0.0, 0.0, 0.0, 0.0, 1.7103947940058832E9, 0.0, 2024-03-13 22:39:54.005
79.0, 23.651127319782972, 18.16843398474157, 34.97180448565632, 32.47355131525546, 0.8160000387579203, 0.5920000281184912, 0.288000013679266, 0.0, 0.0, 0.0, 0.0, 0.0, 1.71039479400647E9, 0.0, 2024-03-13 22:39:54.006
79.0, 10.251065778546035, -2.172881874255836, 32.73908421210945, 23.3818545229733, 0.8160000387579203, 0.5920000281184912, 0.288000013679266, 0.0, 0.0, 0.0, 0.0, 0.0, 1.71039479400647E9, 0.0, 2024-03-13 22:39:54.006
80.0, 3.186394762247801, 0.11219699867069721, 29.548949549905956, 19.630734867416322, 0.8160000387579203, 0.5920000281184912, 0.288000013679266, 0.0, 0.0, 0.0, 0.0, 0.0, 1.7103947940206313E9, 0.0, 2024-03-13 22:39:54.020
80.0, 2.9096421655267477, 6.817837619222701, 22.024270839057863, 24.447726010344923, 0.8160000387579203, 0.5920000281184912, 0.288000013679266, 0.0, 0.0, 0.0, 0.0, 0.0, 1.7103947940206313E9, 0.0, 2024-03-13 22:39:54.020
81.0, -9.24129279050976, -3.6725817564874887, 26.661746784113348, 21.998091539368033, 0.8160000387579203, 0.5920000281184912, 0.288000013679266, 0.0, 0.0, 0.0, 0.0, 0.0, 1.710394794036922E9, 0.0, 2024-03-13 22:39:54.036
81.0, -4.753412843681872, 1.1444093864411116, 26.99459788016975, 15.030657921917737, 0.8160000387579203, 0.5920000281184912, 0.288000013679266, 0.0, 0.0, 0.0, 0.0, 0.0, 1.710394794036922E9, 0.0, 2024-03-13 22:39:54.036
82.0, 7.367602912709117, 10.995305869728327, 23.041523627005517, 22.17760673724115, 0.8160000387579203, 0.5920000281184912, 0.288000013679266, 0.0, 0.0, 0.0, 0.0, 0.0, 1.7103947940370057E9, 0.0, 2024-03-13 22:39:54.037
82.0, 3.62396305706352, 3.010619464330375, 21.564263144508004, 22.222485536709428, 0.8160000387579203, 0.5920000281184912, 0.288000013679266, 0.0, 0.0, 0.0, 0.0, 0.0, 1.7103947940370057E9, 0.0, 2024-03-13 22:39:54.037
83.0, -4.6075567454099655, -5.370496336370707, 26.49719118606299, 14.05454403348267, 0.8160000387579203, 0.5920000281184912, 0.288000013679266, 0.0, 0.0, 0.0, 0.0, 0.0, 1.710394794050116E9, 0.0, 2024-03-13 22:39:54.050
83.0, 8.134282403625548, 9.869595983065665, 28.868287757970393, 27.592981873080134, 0.8160000387579203, 0.5920000281184912, 0.288000013679266, 0.0, 0.0, 0.0, 0.0, 0.0, 1.710394794050116E9, 0.0, 2024-03-13 22:39:54.050
84.0, 18.706979578360915, 24.90773370489478, 28.303562864661217, 38.26291644666344, 0.8160000387579203, 0.5920000281184912, 0.288000013679266, 0.0, 0.0, 0.0, 0.0, 0.0, 1.7103947940658853E9, 0.0, 2024-03-13 22:39:54.065
84.0, 14.417314329184592, 6.44384762365371, 18.987472075037658, 13.422500940971076, 0.8160000387579203, 0.5920000281184912, 0.288000013679266, 0.0, 0.0, 0.0, 0.0, 0.0, 1.7103947940658853E9, 0.0, 2024-03-13 22:39:54.065
85.0, 16.12644860893488, 3.4743670588359237, 12.569803751073778, 10.0790303805843, 0.8160000387579203, 0.5920000281184912, 0.288000013679266, 0.0, 0.0, 0.0, 0.0, 0.0, 1.710394794066481E9, 0.0, 2024-03-13 22:39:54.066
85.0, 39.97953052632511, 14.320076930336654, 29.601308149285614, 25.70807229541242, 0.8160000387579203, 0.5920000281184912, 0.288000013679266, 0.0, 0.0, 0.0, 0.0, 0.0, 1.710394794066481E9, 0.0, 2024-03-13 22:39:54.066
86.0, 9.24129279050976, -7.823870707303286, 8.43347440008074, 4.686094644479454, 0.8160000387579203, 0.5920000281184912, 0.288000013679266, 0.0, 0.0, 0.0, 0.0, 0.0, 1.7103947940801535E9, 0.0, 2024-03-13 22:39:54.080
86.0, -18.87901497632265, -24.672120007686317, 0.9873335883021355, -9.129095791839063, 0.8160000387579203, 0.5920000281184912, 0.288000013679266, 0.0, 0.0, 0.0, 0.0, 0.0, 1.7103947940801535E9, 0.0, 2024-03-13 22:39:54.080
87.0, 14.05080413352698, -2.086864175274968, 12.592243150807917, 15.385948417708278, 0.8160000387579203, 0.5920000281184912, 0.288000013679266, 0.0, 0.0, 0.0, 0.0, 0.0, 1.7103947940959015E9, 0.0, 2024-03-13 22:39:54.095
87.0, 16.234905707649887, -0.04113889951258898, 13.504778739996254, 9.862116183154285, 0.8160000387579203, 0.5920000281184912, 0.288000013679266, 0.0, 0.0, 0.0, 0.0, 0.0, 1.7103947940959015E9, 0.0, 2024-03-13 22:39:54.095
88.0, -11.563770662993193, -20.651727555319667, 10.176267779432237, -3.3584301602095366, 0.8160000387579203, 0.5920000281184912, 0.288000013679266, 0.0, 0.0, 0.0, 0.0, 0.0, 1.7103947940965753E9, 0.0, 2024-03-13 22:39:54.096
88.0, -3.0293189641088247, -17.577529791742563, 2.0793843753635883, -3.4070488596335053, 0.8160000387579203, 0.5920000281184912, 0.288000013679266, 0.0, 0.0, 0.0, 0.0, 0.0, 1.7103947940965753E9, 0.0, 2024-03-13 22:39:54.096
89.0, 5.486433234997094, -7.823870707303286, 13.792751036584377, 9.63772218581289, 0.8160000387579203, 0.5920000281184912, 0.288000013679266, 0.0, 0.0, 0.0, 0.0, 0.0, 1.7103947941101282E9, 0.0, 2024-03-13 22:39:54.110
89.0, -10.755952272564173, -6.634582521393895, 24.066256214864552, 11.006525569595397, 0.8160000387579203, 0.5920000281184912, 0.288000013679266, 0.0, 0.0, 0.0, 0.0, 0.0, 1.7103947941101282E9, 0.0, 2024-03-13 22:39:54.110
90.0, -10.744732572697103, 0.9948133882135153, 20.16554056107998, 9.215113490819931, 0.8160000387579203, 0.5920000281184912, 0.288000013679266, 0.0, 0.0, 0.0, 0.0, 0.0, 1.7103947941258864E9, 0.0, 2024-03-13 22:39:54.125
90.0, -3.6763216564431787, 4.9703270411118865, 7.307764513418078, 13.493559040129185, 0.8160000387579203, 0.5920000281184912, 0.288000013679266, 0.0, 0.0, 0.0, 0.0, 0.0, 1.7103947941258864E9, 0.0, 2024-03-13 22:39:54.125
91.0, -2.180361674167216, -7.318984213285148, 14.133081932552159, 13.605756038799882, 0.8160000387579203, 0.5920000281184912, 0.288000013679266, 0.0, 0.0, 0.0, 0.0, 0.0, 1.7103947941268425E9, 0.0, 2024-03-13 22:39:54.126
91.0, -9.66390148550272, -10.696113873273134, 2.932081565260887, -3.018099264241755, 0.8160000387579203, 0.5920000281184912, 0.288000013679266, 0.0, 0.0, 0.0, 0.0, 0.0, 1.7103947941268425E9, 0.0, 2024-03-13 22:39:54.126
92.0, 31.093528231605887, 21.31368984747678, 20.722785654477775, 26.744024583138525, 0.8160000387579203, 0.5920000281184912, 0.288000013679266, 0.0, 0.0, 0.0, 0.0, 0.0, 1.710394794140371E9, 0.0, 2024-03-13 22:39:54.140
92.0, 30.285709841176867, 23.69600611925125, 25.37522119935602, 26.11198149062693, 0.8160000387579203, 0.5920000281184912, 0.288000013679266, 0.0, 0.0, 0.0, 0.0, 0.0, 1.710394794140371E9, 0.0, 2024-03-13 22:39:54.140
93.0, -9.125355891883373, -7.618176209740341, 5.744486331939697, 0.7218006914481521, 0.8160000387579203, 0.5920000281184912, 0.288000013679266, 0.0, 0.0, 0.0, 0.0, 0.0, 1.710394794156214E9, 0.0, 2024-03-13 22:39:54.156
93.0, 23.868041517212987, 18.318029982969165, 11.604909562505782, 15.70757981389761, 0.8160000387579203, 0.5920000281184912, 0.288000013679266, 0.0, 0.0, 0.0, 0.0, 0.0, 1.710394794156214E9, 0.0, 2024-03-13 22:39:54.156
94.0, 9.985532881692052, 2.41223547141999, 3.493066558614373, 8.534451698884368, 0.8160000387579203, 0.5920000281184912, 0.288000013679266, 0.0, 0.0, 0.0, 0.0, 0.0, 1.7103947941567008E9, 0.0, 2024-03-13 22:39:54.156
94.0, -5.389195836149156, -4.592597145587206, -5.665948432870209, -12.124755656346679, 0.8160000387579203, 0.5920000281184912, 0.288000013679266, 0.0, 0.0, 0.0, 0.0, 0.0, 1.7103947941567008E9, 0.0, 2024-03-13 22:39:54.156
95.0, 4.8880492420867085, 4.899268941953778, 8.923401294276118, 3.8782762540504336, 0.8160000387579203, 0.5920000281184912, 0.288000013679266, 0.0, 0.0, 0.0, 0.0, 0.0, 1.7103947941868267E9, 0.0, 2024-03-13 22:39:54.186
95.0, -0.6544824922457337, 12.89891494717449, -0.9686340885236859, 9.349749889224768, 0.8160000387579203, 0.5920000281184912, 0.288000013679266, 0.0, 0.0, 0.0, 0.0, 0.0, 1.7103947941868267E9, 0.0, 2024-03-13 22:39:54.186
96.0, -7.1432089153677225, -8.598029998131096, -9.734959584660828, -7.992166205309331, 0.8160000387579203, 0.5920000281184912, 0.288000013679266, 0.0, 0.0, 0.0, 0.0, 0.0, 1.7103947941875587E9, 0.0, 2024-03-13 22:39:54.187
96.0, -3.9194151535630226, 2.449634470976889, 15.127895320765674, 6.477506723254919, 0.8160000387579203, 0.5920000281184912, 0.288000013679266, 0.0, 0.0, 0.0, 0.0, 0.0, 1.7103947941875587E9, 0.0, 2024-03-13 22:39:54.187
97.0, 4.5701577458530664, 5.6135898334905505, 8.407295100390911, 17.188580196350813, 0.8160000387579203, 0.5920000281184912, 0.288000013679266, 0.0, 0.0, 0.0, 0.0, 0.0, 1.7103947941880307E9, 0.0, 2024-03-13 22:39:54.188
97.0, 11.440353964455426, 4.218607150018215, 15.797337412834167, 17.67850709054619, 0.8160000387579203, 0.5920000281184912, 0.288000013679266, 0.0, 0.0, 0.0, 0.0, 0.0, 1.7103947941880307E9, 0.0, 2024-03-13 22:39:54.188
98.0, 11.23839936684817, 3.264932661317289, 17.72338589001447, 8.811204295605421, 0.8160000387579203, 0.5920000281184912, 0.288000013679266, 0.0, 0.0, 0.0, 0.0, 0.0, 1.7103947942001326E9, 0.0, 2024-03-13 22:39:54.200
98.0, 7.326464013196528, -2.6254097688943148, 8.583070398308337, 11.201000367291272, 0.8160000387579203, 0.5920000281184912, 0.288000013679266, 0.0, 0.0, 0.0, 0.0, 0.0, 1.7103947942001326E9, 0.0, 2024-03-13 22:39:54.200
99.0, 25.259284300729632, 17.547610592097044, 27.286310076713562, 30.008957244455814, 0.8160000387579203, 0.5920000281184912, 0.288000013679266, 0.0, 0.0, 0.0, 0.0, 0.0, 1.7103947942159607E9, 0.0, 2024-03-13 22:39:54.215
99.0, 2.8722431659698486, -0.11967679858207703, 20.752704854123294, 16.994105398654938, 0.8160000387579203, 0.5920000281184912, 0.288000013679266, 0.0, 0.0, 0.0, 0.0, 0.0, 1.7103947942159607E9, 0.0, 2024-03-13 22:39:54.215
100.0, -0.3178914962336421, -0.17951519787311554, 5.64724893309176, 11.907841458916664, 0.8160000387579203, 0.5920000281184912, 0.288000013679266, 0.0, 0.0, 0.0, 0.0, 0.0, 1.7103947942165525E9, 0.0, 2024-03-13 22:39:54.216
100.0, 5.61732973344624, 7.9061485063284636, 7.356383212842047, 15.483185816556215, 0.8160000387579203, 0.5920000281184912, 0.288000013679266, 0.0, 0.0, 0.0, 0.0, 0.0, 1.7103947942165525E9, 0.0, 2024-03-13 22:39:54.216
0.0, -754.1190369152464, -357.4970367643982, -480.5921039059758, -412.7634083596058, 0.8160000387579203, 0.5920000281184912, 0.288000013679266, 0.0, 0.0, 0.0, 0.0, 0.0, 1.710394794230852E9, 0.0, 2024-03-13 22:39:54.230
1.0, -752.5632385336794, -362.3551668068394, -486.1234159404412, -419.78694047639146, 0.8160000387579203, 0.5920000281184912, 0.288000013679266, 0.0, 0.0, 0.0, 0.0, 0.0, 1.7103947942315433E9, 0.0, 2024-03-13 22:39:54.231
1.0, -738.8265859964304, -355.81782168429345, -494.77754443790764, -413.3206534530036, 0.8160000387579203, 0.5920000281184912, 0.288000013679266, 0.0, 0.0, 0.0, 0.0, 0.0, 1.7103947942315433E9, 0.0, 2024-03-13 22:39:54.231
2.0, -745.2704336200841, -371.53288129810244, -500.8287025662139, -423.09301203722134, 0.8160000387579203, 0.5920000281184912, 0.288000013679266, 0.0, 0.0, 0.0, 0.0, 0.0, 1.7103947942453876E9, 0.0, 2024-03-13 22:39:54.245
2.0, -753.6440696208738, -376.27507444191724, -492.8327964609489, -429.4396222620271, 0.8160000387579203, 0.5920000281184912, 0.288000013679266, 0.0, 0.0, 0.0, 0.0, 0.0, 1.7103947942453876E9, 0.0, 2024-03-13 22:39:54.245
3.0, -748.2847929843701, -360.23464353196323, -492.96369295939803, -422.988294838462, 0.8160000387579203, 0.5920000281184912, 0.288000013679266, 0.0, 0.0, 0.0, 0.0, 0.0, 1.7103947942610526E9, 0.0, 2024-03-13 22:39:54.261
3.0, -740.5095409764908, -351.457098335959, -490.28218469116837, -415.3327196291648, 0.8160000387579203, 0.5920000281184912, 0.288000013679266, 0.0, 0.0, 0.0, 0.0, 0.0, 1.7103947942610526E9, 0.0, 2024-03-13 22:39:54.261
4.0, -745.7865398139693, -358.9443780472502, -482.338637185283, -420.1048319726251, 0.8160000387579203, 0.5920000281184912, 0.288000013679266, 0.0, 0.0, 0.0, 0.0, 0.0, 1.7103947942620008E9, 0.0, 2024-03-13 22:39:54.262
4.0, -740.9545890712179, -360.6086335275322, -487.4585602246225, -418.6724502895959, 0.8160000387579203, 0.5920000281184912, 0.288000013679266, 0.0, 0.0, 0.0, 0.0, 0.0, 1.7103947942620008E9, 0.0, 2024-03-13 22:39:54.262
5.0, -743.9764282354154, -367.1272791502997, -498.61842169240117, -420.2843471704982, 0.8160000387579203, 0.5920000281184912, 0.288000013679266, 0.0, 0.0, 0.0, 0.0, 0.0, 1.7103947942751813E9, 0.0, 2024-03-13 22:39:54.275
5.0, -768.005285450723, -378.0664865206927, -501.0867556631565, -428.9160362682305, 0.8160000387579203, 0.5920000281184912, 0.288000013679266, 0.0, 0.0, 0.0, 0.0, 0.0, 1.7103947942751813E9, 0.0, 2024-03-13 22:39:54.275
6.0, -764.8675093878992, -374.9661094574258, -499.6356744803488, -428.186755776871, 0.8160000387579203, 0.5920000281184912, 0.288000013679266, 0.0, 0.0, 0.0, 0.0, 0.0, 1.7103947942911572E9, 0.0, 2024-03-13 22:39:54.291
6.0, -755.8693100945093, -358.52550925221294, -496.77091111429036, -417.838452599477, 0.8160000387579203, 0.5920000281184912, 0.288000013679266, 0.0, 0.0, 0.0, 0.0, 0.0, 1.7103947942911572E9, 0.0, 2024-03-13 22:39:54.291
7.0, -743.8380519370548, -348.78306986764073, -482.94824087806046, -408.0286950157024, 0.8160000387579203, 0.5920000281184912, 0.288000013679266, 0.0, 0.0, 0.0, 0.0, 0.0, 1.710394794291562E9, 0.0, 2024-03-13 22:39:54.291
7.0, -748.950495176483, -353.4691645121202, -477.54034554213285, -412.9130043578334, 0.8160000387579203, 0.5920000281184912, 0.288000013679266, 0.0, 0.0, 0.0, 0.0, 0.0, 1.710394794291562E9, 0.0, 2024-03-13 22:39:54.291
8.0, -748.7111415793188, -361.1621387209743, -482.3498568851501, -410.4259708872996, 0.8160000387579203, 0.5920000281184912, 0.288000013679266, 0.0, 0.0, 0.0, 0.0, 0.0, 1.710394794305137E9, 0.0, 2024-03-13 22:39:54.305
8.0, -731.3318264852278, -345.88464740198106, -467.79790615756065, -401.0238623986952, 0.8160000387579203, 0.5920000281184912, 0.288000013679266, 0.0, 0.0, 0.0, 0.0, 0.0, 1.710394794305137E9, 0.0, 2024-03-13 22:39:54.305
9.0, -770.357682522852, -362.81891440134495, -484.3357437616214, -417.778614200186, 0.8160000387579203, 0.5920000281184912, 0.288000013679266, 0.0, 0.0, 0.0, 0.0, 0.0, 1.7103947943213112E9, 0.0, 2024-03-13 22:39:54.321
9.0, -768.3867552462034, -378.72096901293844, -498.3491488955915, -427.438775785733, 0.8160000387579203, 0.5920000281184912, 0.288000013679266, 0.0, 0.0, 0.0, 0.0, 0.0, 1.7103947943213112E9, 0.0, 2024-03-13 22:39:54.321
10.0, -745.2741735200398, -353.8730737073347, -502.37328124791384, -417.35226560523733, 0.8160000387579203, 0.5920000281184912, 0.288000013679266, 0.0, 0.0, 0.0, 0.0, 0.0, 1.7103947943216913E9, 0.0, 2024-03-13 22:39:54.321
10.0, -762.9863397101872, -370.34359311219305, -498.3454089956358, -426.35794469853863, 0.8160000387579203, 0.5920000281184912, 0.288000013679266, 0.0, 0.0, 0.0, 0.0, 0.0, 1.7103947943216913E9, 0.0, 2024-03-13 22:39:54.321
11.0, -767.1600680607371, -372.72216948401183, -489.25371220335364, -425.60996470740065, 0.8160000387579203, 0.5920000281184912, 0.288000013679266, 0.0, 0.0, 0.0, 0.0, 0.0, 1.7103947943355243E9, 0.0, 2024-03-13 22:39:54.335
11.0, -750.8241850542836, -364.2064172849059, -499.2280253851786, -419.38677118113264, 0.8160000387579203, 0.5920000281184912, 0.288000013679266, 0.0, 0.0, 0.0, 0.0, 0.0, 1.7103947943355243E9, 0.0, 2024-03-13 22:39:54.335
12.0, -755.7084943964146, -367.2880948483944, -492.1259553693235, -421.09590546088293, 0.8160000387579203, 0.5920000281184912, 0.288000013679266, 0.0, 0.0, 0.0, 0.0, 0.0, 1.7103947943508463E9, 0.0, 2024-03-13 22:39:54.350
12.0, -772.6016224962659, -387.93982240371406, -498.55110349319875, -437.95163456117734, 0.8160000387579203, 0.5920000281184912, 0.288000013679266, 0.0, 0.0, 0.0, 0.0, 0.0, 1.7103947943508463E9, 0.0, 2024-03-13 22:39:54.350
13.0, -758.5956971622072, -370.08554001525044, -501.33358906023204, -428.87863726867363, 0.8160000387579203, 0.5920000281184912, 0.288000013679266, 0.0, 0.0, 0.0, 0.0, 0.0, 1.710394794351493E9, 0.0, 2024-03-13 22:39:54.351
13.0, -761.2585059306584, -368.8700725296512, -492.1259553693235, -418.15634409571066, 0.8160000387579203, 0.5920000281184912, 0.288000013679266, 0.0, 0.0, 0.0, 0.0, 0.0, 1.710394794351493E9, 0.0, 2024-03-13 22:39:54.351
14.0, -764.1606682962738, -368.4811229342595, -492.03245787043124, -424.09156532539055, 0.8160000387579203, 0.5920000281184912, 0.288000013679266, 0.0, 0.0, 0.0, 0.0, 0.0, 1.710394794365178E9, 0.0, 2024-03-13 22:39:54.365
14.0, -764.4374208929949, -377.50176162738353, -499.70299267955124, -425.90167690394446, 0.8160000387579203, 0.5920000281184912, 0.288000013679266, 0.0, 0.0, 0.0, 0.0, 0.0, 1.710394794365178E9, 0.0, 2024-03-13 22:39:54.365
15.0, -753.1055240272544, -359.8419540366158, -490.4243008894846, -412.3894183640368, 0.8160000387579203, 0.5920000281184912, 0.288000013679266, 0.0, 0.0, 0.0, 0.0, 0.0, 1.7103947943808267E9, 0.0, 2024-03-13 22:39:54.380
15.0, -758.0421919687651, -375.15310445521027, -491.39667487796396, -424.1775830243714, 0.8160000387579203, 0.5920000281184912, 0.288000013679266, 0.0, 0.0, 0.0, 0.0, 0.0, 1.7103947943808267E9, 0.0, 2024-03-13 22:39:54.380
16.0, -754.0217995163985, -376.9220771342516, -490.73097268585116, -429.71637485874817, 0.8160000387579203, 0.5920000281184912, 0.288000013679266, 0.0, 0.0, 0.0, 0.0, 0.0, 1.7103947943814971E9, 0.0, 2024-03-13 22:39:54.381
16.0, -750.3641773597337, -372.3556592883542, -504.69575912039727, -427.5547126843594, 0.8160000387579203, 0.5920000281184912, 0.288000013679266, 0.0, 0.0, 0.0, 0.0, 0.0, 1.7103947943814971E9, 0.0, 2024-03-13 22:39:54.381
17.0, -750.6409299564548, -357.4371983651072, -484.95282725431025, -415.5122348270379, 0.8160000387579203, 0.5920000281184912, 0.288000013679266, 0.0, 0.0, 0.0, 0.0, 0.0, 1.7103947943950696E9, 0.0, 2024-03-13 22:39:54.395
17.0, -743.4902412411757, -358.14403945673257, -470.20640172902495, -414.7343356362544, 0.8160000387579203, 0.5920000281184912, 0.288000013679266, 0.0, 0.0, 0.0, 0.0, 0.0, 1.7103947943950696E9, 0.0, 2024-03-13 22:39:54.395
18.0, -741.1939426683821, -365.0553745748475, -488.87972220778465, -416.4098108164035, 0.8160000387579203, 0.5920000281184912, 0.288000013679266, 0.0, 0.0, 0.0, 0.0, 0.0, 1.710394794411261E9, 0.0, 2024-03-13 22:39:54.411
18.0, -757.8701565708034, -369.49463582225144, -500.2303185733035, -425.23971461178735, 0.8160000387579203, 0.5920000281184912, 0.288000013679266, 0.0, 0.0, 0.0, 0.0, 0.0, 1.710394794411261E9, 0.0, 2024-03-13 22:39:54.411
19.0, -778.0057779322378, -386.94500901550055, -499.11208848655224, -433.64700971217826, 0.8160000387579203, 0.5920000281184912, 0.288000013679266, 0.0, 0.0, 0.0, 0.0, 0.0, 1.7103947944117465E9, 0.0, 2024-03-13 22:39:54.411
19.0, -767.956666751299, -388.01088050287217, -491.938960371539, -427.91374308010563, 0.8160000387579203, 0.5920000281184912, 0.288000013679266, 0.0, 0.0, 0.0, 0.0, 0.0, 1.7103947944117465E9, 0.0, 2024-03-13 22:39:54.411
20.0, -759.7064474490471, -375.2989605534822, -497.4964517056942, -420.56857956713066, 0.8160000387579203, 0.5920000281184912, 0.288000013679266, 0.0, 0.0, 0.0, 0.0, 0.0, 1.7103947944251623E9, 0.0, 2024-03-13 22:39:54.425
20.0, -765.6491484786384, -369.4347974229604, -499.32900268398225, -425.3743510101922, 0.8160000387579203, 0.5920000281184912, 0.288000013679266, 0.0, 0.0, 0.0, 0.0, 0.0, 1.7103947944251623E9, 0.0, 2024-03-13 22:39:54.425
21.0, -756.8117648833431, -378.3619386171922, -503.0090642403811, -438.13114975905046, 0.8160000387579203, 0.5920000281184912, 0.288000013679266, 0.0, 0.0, 0.0, 0.0, 0.0, 1.7103947944408545E9, 0.0, 2024-03-13 22:39:54.440
21.0, -751.9760742406361, -367.0973599506542, -491.2246394800022, -416.31631331751123, 0.8160000387579203, 0.5920000281184912, 0.288000013679266, 0.0, 0.0, 0.0, 0.0, 0.0, 1.7103947944408545E9, 0.0, 2024-03-13 22:39:54.440
22.0, -748.1426767860539, -355.6457862863317, -479.61599001754075, -411.02435488021, 0.8160000387579203, 0.5920000281184912, 0.288000013679266, 0.0, 0.0, 0.0, 0.0, 0.0, 1.710394794441472E9, 0.0, 2024-03-13 22:39:54.441
22.0, -760.069217744749, -367.6658247439191, -483.6700415695086, -424.02050722623244, 0.8160000387579203, 0.5920000281184912, 0.288000013679266, 0.0, 0.0, 0.0, 0.0, 0.0, 1.710394794441472E9, 0.0, 2024-03-13 22:39:54.441
23.0, -754.1863551144488, -371.6862171962857, -493.43492035381496, -422.35625174595043, 0.8160000387579203, 0.5920000281184912, 0.288000013679266, 0.0, 0.0, 0.0, 0.0, 0.0, 1.710394794455208E9, 0.0, 2024-03-13 22:39:54.455
23.0, -741.6090715634637, -348.59233496990055, -485.9700800422579, -412.31462036492303, 0.8160000387579203, 0.5920000281184912, 0.288000013679266, 0.0, 0.0, 0.0, 0.0, 0.0, 1.710394794455208E9, 0.0, 2024-03-13 22:39:54.455
24.0, -746.4559819060378, -355.4550513885915, -480.4799069073051, -414.9475099337287, 0.8160000387579203, 0.5920000281184912, 0.288000013679266, 0.0, 0.0, 0.0, 0.0, 0.0, 1.710394794471213E9, 0.0, 2024-03-13 22:39:54.471
24.0, -743.7819534377195, -362.1419925093651, -481.17178839910775, -409.16188470227644, 0.8160000387579203, 0.5920000281184912, 0.288000013679266, 0.0, 0.0, 0.0, 0.0, 0.0, 1.710394794471213E9, 0.0, 2024-03-13 22:39:54.471
25.0, -722.6365590882488, -353.43924531247467, -481.7178137926385, -403.35382007109, 0.8160000387579203, 0.5920000281184912, 0.288000013679266, 0.0, 0.0, 0.0, 0.0, 0.0, 1.7103947944716911E9, 0.0, 2024-03-13 22:39:54.471
25.0, -760.4880865397863, -365.48546306975186, -484.50777915958315, -414.1135122436099, 0.8160000387579203, 0.5920000281184912, 0.288000013679266, 0.0, 0.0, 0.0, 0.0, 0.0, 1.7103947944716911E9, 0.0, 2024-03-13 22:39:54.471
26.0, -758.4648006637581, -373.07745997980237, -482.4433543840423, -420.6171982665546, 0.8160000387579203, 0.5920000281184912, 0.288000013679266, 0.0, 0.0, 0.0, 0.0, 0.0, 1.710394794485103E9, 0.0, 2024-03-13 22:39:54.485
26.0, -746.6392370038666, -365.3134276717901, -489.7062400979921, -415.8899647225626, 0.8160000387579203, 0.5920000281184912, 0.288000013679266, 0.0, 0.0, 0.0, 0.0, 0.0, 1.710394794485103E9, 0.0, 2024-03-13 22:39:54.485
27.0, -740.6778364744969, -368.01363543979824, -473.17588229384273, -409.92856419319287, 0.8160000387579203, 0.5920000281184912, 0.288000013679266, 0.0, 0.0, 0.0, 0.0, 0.0, 1.7103947945009425E9, 0.0, 2024-03-13 22:39:54.500
27.0, -764.6057163910009, -384.4804149447009, -495.96309272386134, -434.4174291030504, 0.8160000387579203, 0.5920000281184912, 0.288000013679266, 0.0, 0.0, 0.0, 0.0, 0.0, 1.7103947945009425E9, 0.0, 2024-03-13 22:39:54.500
28.0, -769.6171823316254, -378.38063811697066, -509.82316195964813, -432.8130120220594, 0.8160000387579203, 0.5920000281184912, 0.288000013679266, 0.0, 0.0, 0.0, 0.0, 0.0, 1.7103947945017943E9, 0.0, 2024-03-13 22:39:54.501
28.0, -763.4538272046484, -365.833273765631, -495.66764062736183, -423.5866788313724, 0.8160000387579203, 0.5920000281184912, 0.288000013679266, 0.0, 0.0, 0.0, 0.0, 0.0, 1.7103947945017943E9, 0.0, 2024-03-13 22:39:54.501
29.0, -750.6110107568093, -373.0288412803784, -491.17976068053395, -424.8769443160854, 0.8160000387579203, 0.5920000281184912, 0.288000013679266, 0.0, 0.0, 0.0, 0.0, 0.0, 1.7103947945150912E9, 0.0, 2024-03-13 22:39:54.515
29.0, -772.2201527007855, -388.08941840194166, -502.22368524968624, -429.87345065688714, 0.8160000387579203, 0.5920000281184912, 0.288000013679266, 0.0, 0.0, 0.0, 0.0, 0.0, 1.7103947945150912E9, 0.0, 2024-03-13 22:39:54.515
30.0, -775.458906062413, -382.5543664675206, -497.77694420237094, -425.6735430066474, 0.8160000387579203, 0.5920000281184912, 0.3040000144392252, 0.0, 0.0, 0.0, 0.0, 0.0, 1.7103947945472355E9, 0.0, 2024-03-13 22:39:54.547
30.0, -773.1700872895308, -390.4754745736718, -496.92798691242933, -427.4911343851127, 0.8160000387579203, 0.5920000281184912, 0.3040000144392252, 0.0, 0.0, 0.0, 0.0, 0.0, 1.7103947945472355E9, 0.0, 2024-03-13 22:39:54.547
31.0, -780.1562204067595, -388.9608150916174, -503.5999684333801, -439.72060724021867, 0.8160000387579203, 0.5920000281184912, 0.3040000144392252, 0.0, 0.0, 0.0, 0.0, 0.0, 1.7103947945478995E9, 0.0, 2024-03-13 22:39:54.547
31.0, -756.6771284849383, -367.7256631432101, -497.48149210587144, -423.9943279265426, 0.8160000387579203, 0.5920000281184912, 0.3040000144392252, 0.0, 0.0, 0.0, 0.0, 0.0, 1.7103947945478995E9, 0.0, 2024-03-13 22:39:54.547
32.0, -749.9079095651396, -366.2783218603581, -486.28423163853586, -420.5461401673965, 0.8160000387579203, 0.5920000281184912, 0.3040000144392252, 0.0, 0.0, 0.0, 0.0, 0.0, 1.7103947945487804E9, 0.0, 2024-03-13 22:39:54.548
32.0, -749.8705105655827, -376.4658093396574, -489.9829926947132, -431.39185003889725, 0.8160000387579203, 0.5920000281184912, 0.3040000144392252, 0.0, 0.0, 0.0, 0.0, 0.0, 1.7103947945487804E9, 0.0, 2024-03-13 22:39:54.548
33.0, -754.8931962060742, -382.1504572723061, -495.1627541333437, -429.9332890561782, 0.8160000387579203, 0.5920000281184912, 0.3040000144392252, 0.0, 0.0, 0.0, 0.0, 0.0, 1.7103947945497723E9, 0.0, 2024-03-13 22:39:54.549
33.0, -737.7046160097234, -361.5473484164104, -497.95645940024406, -424.4019770217128, 0.8160000387579203, 0.5920000281184912, 0.3040000144392252, 0.0, 0.0, 0.0, 0.0, 0.0, 1.7103947945497723E9, 0.0, 2024-03-13 22:39:54.549
34.0, -751.2804528488778, -370.6166058089584, -493.7266325503588, -429.42092276224867, 0.8160000387579203, 0.5920000281184912, 0.3040000144392252, 0.0, 0.0, 0.0, 0.0, 0.0, 1.7103947945601263E9, 0.0, 2024-03-13 22:39:54.560
34.0, -756.4003758882172, -367.5835469448939, -493.87622854858637, -424.49921442056075, 0.8160000387579203, 0.5920000281184912, 0.3040000144392252, 0.0, 0.0, 0.0, 0.0, 0.0, 1.7103947945601263E9, 0.0, 2024-03-13 22:39:54.560
35.0, -736.0515802293085, -357.97200405877084, -494.66908733919263, -423.5231005321257, 0.8160000387579203, 0.5920000281184912, 0.3040000144392252, 0.0, 0.0, 0.0, 0.0, 0.0, 1.7103947945753596E9, 0.0, 2024-03-13 22:39:54.575
35.0, -743.1087714456953, -357.1791452681646, -479.75810621585697, -415.41873732814565, 0.8160000387579203, 0.5920000281184912, 0.3040000144392252, 0.0, 0.0, 0.0, 0.0, 0.0, 1.7103947945753596E9, 0.0, 2024-03-13 22:39:54.575
36.0, -753.8647237182595, -366.6261325562373, -499.14948748610914, -433.3814768153243, 0.8160000387579203, 0.5920000281184912, 0.3040000144392252, 0.0, 0.0, 0.0, 0.0, 0.0, 1.7103947945912037E9, 0.0, 2024-03-13 22:39:54.591
36.0, -734.8174132439308, -345.9781449008733, -495.65642092749476, -418.45927599212155, 0.8160000387579203, 0.5920000281184912, 0.3040000144392252, 0.0, 0.0, 0.0, 0.0, 0.0, 1.7103947945912037E9, 0.0, 2024-03-13 22:39:54.591
37.0, -753.1055240272544, -358.12160005699843, -490.5327579881996, -418.38821789296344, 0.8160000387579203, 0.5920000281184912, 0.3040000144392252, 0.0, 0.0, 0.0, 0.0, 0.0, 1.7103947945916967E9, 0.0, 2024-03-13 22:39:54.591
37.0, -773.0616301908158, -366.23344306088984, -490.40560138970613, -423.8409920283593, 0.8160000387579203, 0.5920000281184912, 0.3040000144392252, 0.0, 0.0, 0.0, 0.0, 0.0, 1.7103947945916967E9, 0.0, 2024-03-13 22:39:54.591
38.0, -758.4648006637581, -363.7613691901788, -497.245878408663, -415.01856803288683, 0.8160000387579203, 0.5920000281184912, 0.3040000144392252, 0.0, 0.0, 0.0, 0.0, 0.0, 1.7103947946054692E9, 0.0, 2024-03-13 22:39:54.605
38.0, -747.6415301919915, -347.99395097699016, -491.0787833817303, -406.71599013125524, 0.8160000387579203, 0.5920000281184912, 0.3040000144392252, 0.0, 0.0, 0.0, 0.0, 0.0, 1.7103947946054692E9, 0.0, 2024-03-13 22:39:54.605
39.0, -740.7376748737879, -360.0887874336913, -485.3866556491703, -417.670157101471, 0.8160000387579203, 0.5920000281184912, 0.3040000144392252, 0.0, 0.0, 0.0, 0.0, 0.0, 1.710394794621128E9, 0.0, 2024-03-13 22:39:54.621
39.0, -755.3195448010229, -363.3537200950086, -485.4539738483727, -418.0778061966412, 0.8160000387579203, 0.5920000281184912, 0.3040000144392252, 0.0, 0.0, 0.0, 0.0, 0.0, 1.710394794621128E9, 0.0, 2024-03-13 22:39:54.621
40.0, -734.6902566454373, -346.838321890682, -471.65000311192125, -402.1308727855794, 0.8160000387579203, 0.5920000281184912, 0.3040000144392252, 0.0, 0.0, 0.0, 0.0, 0.0, 1.710394794621687E9, 0.0, 2024-03-13 22:39:54.621
40.0, -751.2991523486562, -361.3192145191133, -484.6386756580323, -418.6238315901719, 0.8160000387579203, 0.5920000281184912, 0.3040000144392252, 0.0, 0.0, 0.0, 0.0, 0.0, 1.710394794621687E9, 0.0, 2024-03-13 22:39:54.621
41.0, -751.9237156412564, -359.0266558462754, -485.80552444420755, -420.08987237280235, 0.8160000387579203, 0.5920000281184912, 0.3040000144392252, 0.0, 0.0, 0.0, 0.0, 0.0, 1.7103947946354454E9, 0.0, 2024-03-13 22:39:54.635
41.0, -743.3930038423277, -356.89117297157645, -495.3086102316156, -417.0381140089594, 0.8160000387579203, 0.5920000281184912, 0.3040000144392252, 0.0, 0.0, 0.0, 0.0, 0.0, 1.7103947946354454E9, 0.0, 2024-03-13 22:39:54.635
42.0, -745.7192216147669, -358.8321810485795, -473.24694039300084, -405.1639316496439, 0.8160000387579203, 0.5920000281184912, 0.3040000144392252, 0.0, 0.0, 0.0, 0.0, 0.0, 1.7103947946512003E9, 0.0, 2024-03-13 22:39:54.651
42.0, -748.3483712836169, -352.7698032204062, -478.9315883256495, -413.79562074737623, 0.8160000387579203, 0.5920000281184912, 0.3040000144392252, 0.0, 0.0, 0.0, 0.0, 0.0, 1.7103947946512003E9, 0.0, 2024-03-13 22:39:54.651
43.0, -747.0169668993913, -354.11242730449885, -495.858375525102, -415.9535430218093, 0.8160000387579203, 0.5920000281184912, 0.3040000144392252, 0.0, 0.0, 0.0, 0.0, 0.0, 1.7103947946516304E9, 0.0, 2024-03-13 22:39:54.651
43.0, -746.1941889091395, -352.54914912302047, -487.3388834260404, -409.3264403003268, 0.8160000387579203, 0.5920000281184912, 0.3040000144392252, 0.0, 0.0, 0.0, 0.0, 0.0, 1.7103947946516304E9, 0.0, 2024-03-13 22:39:54.651
44.0, -761.722253525164, -363.26396249607205, -480.50234630703926, -421.82892585219815, 0.8160000387579203, 0.5920000281184912, 0.3040000144392252, 0.0, 0.0, 0.0, 0.0, 0.0, 1.7103947946651347E9, 0.0, 2024-03-13 22:39:54.665
44.0, -739.6007452872582, -353.11387401632965, -478.51271953061223, -409.42367769917473, 0.8160000387579203, 0.5920000281184912, 0.3040000144392252, 0.0, 0.0, 0.0, 0.0, 0.0, 1.7103947946651347E9, 0.0, 2024-03-13 22:39:54.665
45.0, -738.1459242044948, -344.9047936135903, -487.6305956225842, -405.1452321498655, 0.8160000387579203, 0.5920000281184912, 0.3040000144392252, 0.0, 0.0, 0.0, 0.0, 0.0, 1.710394794680826E9, 0.0, 2024-03-13 22:39:54.680
45.0, -734.6042389464565, -351.55807563476264, -481.7888718917966, -407.370472623501, 0.8160000387579203, 0.5920000281184912, 0.3040000144392252, 0.0, 0.0, 0.0, 0.0, 0.0, 1.710394794680826E9, 0.0, 2024-03-13 22:39:54.680
46.0, -755.8094716952182, -363.07696749828756, -476.9307418493554, -413.2121963542886, 0.8160000387579203, 0.5920000281184912, 0.3040000144392252, 0.0, 0.0, 0.0, 0.0, 0.0, 1.7103947946815803E9, 0.0, 2024-03-13 22:39:54.681
46.0, -755.0540119041689, -358.59282745141536, -485.55121124722064, -413.86293894657865, 0.8160000387579203, 0.5920000281184912, 0.3040000144392252, 0.0, 0.0, 0.0, 0.0, 0.0, 1.7103947946815803E9, 0.0, 2024-03-13 22:39:54.681
47.0, -746.8860704009421, -359.875613136217, -481.95342748984694, -415.05596703244373, 0.8160000387579203, 0.5920000281184912, 0.3040000144392252, 0.0, 0.0, 0.0, 0.0, 0.0, 1.7103947946952052E9, 0.0, 2024-03-13 22:39:54.695
47.0, -754.5790446097963, -363.4322579940781, -492.9674328593537, -428.83375846920535, 0.8160000387579203, 0.5920000281184912, 0.3040000144392252, 0.0, 0.0, 0.0, 0.0, 0.0, 1.7103947946952052E9, 0.0, 2024-03-13 22:39:54.695
48.0, -755.8094716952182, -364.23259658459574, -503.4167133355513, -424.0055476264097, 0.8160000387579203, 0.5920000281184912, 0.3040000144392252, 0.0, 0.0, 0.0, 0.0, 0.0, 1.710394794710919E9, 0.0, 2024-03-13 22:39:54.710
48.0, -753.7600065195002, -354.60235419869423, -491.1648010807112, -411.90323136979714, 0.8160000387579203, 0.5920000281184912, 0.3040000144392252, 0.0, 0.0, 0.0, 0.0, 0.0, 1.710394794710919E9, 0.0, 2024-03-13 22:39:54.710
49.0, -750.3155586603098, -352.8259017197415, -469.45842173788697, -410.8485795822926, 0.8160000387579203, 0.5920000281184912, 0.3040000144392252, 0.0, 0.0, 0.0, 0.0, 0.0, 1.7103947947115831E9, 0.0, 2024-03-13 22:39:54.711
49.0, -753.8123651188798, -364.1278793858364, -491.91652097180486, -424.966701915022, 0.8160000387579203, 0.5920000281184912, 0.3040000144392252, 0.0, 0.0, 0.0, 0.0, 0.0, 1.7103947947115831E9, 0.0, 2024-03-13 22:39:54.711
50.0, -755.3270246009342, -367.4302110467106, -491.6883870745078, -424.27856032317504, 0.8160000387579203, 0.5920000281184912, 0.3200000151991844, 0.0, 0.0, 0.0, 0.0, 0.0, 1.7103947947251697E9, 0.0, 2024-03-13 22:39:54.725
50.0, -767.7771515534259, -378.48909521568567, -506.90603999421, -435.8236314863898, 0.8160000387579203, 0.5920000281184912, 0.3200000151991844, 0.0, 0.0, 0.0, 0.0, 0.0, 1.7103947947251697E9, 0.0, 2024-03-13 22:39:54.725
51.0, -773.73481218284, -382.5842856671661, -504.6845394205302, -437.20739446999505, 0.8160000387579203, 0.576000027358532, 0.3200000151991844, 0.0, 0.0, 0.0, 0.0, 0.0, 1.7103947947409952E9, 0.0, 2024-03-13 22:39:54.740
51.0, -751.7928191428073, -365.71733686700463, -484.4105417607352, -410.1492182905786, 0.8160000387579203, 0.576000027358532, 0.3200000151991844, 0.0, 0.0, 0.0, 0.0, 0.0, 1.7103947947409952E9, 0.0, 2024-03-13 22:39:54.740
52.0, -749.3095255722292, -362.97225029952824, -485.0500646531582, -419.1436776840128, 0.8160000387579203, 0.576000027358532, 0.3200000151991844, 0.0, 0.0, 0.0, 0.0, 0.0, 1.710394794741576E9, 0.0, 2024-03-13 22:39:54.741
52.0, -766.4046082696877, -378.7808074122295, -495.36470873095095, -432.46146142622456, 0.8160000387579203, 0.576000027358532, 0.3200000151991844, 0.0, 0.0, 0.0, 0.0, 0.0, 1.710394794741576E9, 0.0, 2024-03-13 22:39:54.741
53.0, -750.6820688559674, -367.05248115118593, -493.07588995806873, -421.0285872616805, 0.8160000387579203, 0.576000027358532, 0.3200000151991844, 0.0, 0.0, 0.0, 0.0, 0.0, 1.7103947947553172E9, 0.0, 2024-03-13 22:39:54.755
53.0, -757.3577902768739, -359.4268251415342, -490.3869018899277, -415.2841009297408, 0.8160000387579203, 0.576000027358532, 0.3200000151991844, 0.0, 0.0, 0.0, 0.0, 0.0, 1.7103947947553172E9, 0.0, 2024-03-13 22:39:54.755
54.0, -762.0401450213976, -364.7374830786139, -492.5336044644937, -423.53432023199275, 0.8160000387579203, 0.576000027358532, 0.3200000151991844, 0.0, 0.0, 0.0, 0.0, 0.0, 1.7103947947713363E9, 0.0, 2024-03-13 22:39:54.771
54.0, -762.3655163175426, -367.8789990413934, -503.2334582377225, -430.61395084811375, 0.8160000387579203, 0.576000027358532, 0.3200000151991844, 0.0, 0.0, 0.0, 0.0, 0.0, 1.7103947947713363E9, 0.0, 2024-03-13 22:39:54.771
55.0, -755.4616609993391, -359.9429313354194, -496.59513581637293, -422.68536294205114, 0.8160000387579203, 0.576000027358532, 0.3200000151991844, 0.0, 0.0, 0.0, 0.0, 0.0, 1.7103947947719529E9, 0.0, 2024-03-13 22:39:54.771
55.0, -768.2745582475327, -372.6885103844106, -489.46688650082797, -422.75268114125356, 0.8160000387579203, 0.576000027358532, 0.3200000151991844, 0.0, 0.0, 0.0, 0.0, 0.0, 1.7103947947719529E9, 0.0, 2024-03-13 22:39:54.771
56.0, -769.6209222315811, -377.90567082259804, -501.54676335770637, -428.94595546787605, 0.8160000387579203, 0.576000027358532, 0.3200000151991844, 0.0, 0.0, 0.0, 0.0, 0.0, 1.7103947947855997E9, 0.0, 2024-03-13 22:39:54.785
56.0, -764.0484712976031, -374.5397608624771, -501.1204147627577, -425.09011861355975, 0.8160000387579203, 0.576000027358532, 0.3200000151991844, 0.0, 0.0, 0.0, 0.0, 0.0, 1.7103947947855997E9, 0.0, 2024-03-13 22:39:54.785
57.0, -751.3851700476371, -377.26988783013076, -496.28846402000636, -422.8424387401901, 0.8160000387579203, 0.576000027358532, 0.3200000151991844, 0.0, 0.0, 0.0, 0.0, 0.0, 1.7103947948011158E9, 0.0, 2024-03-13 22:39:54.801
57.0, -749.3656240715645, -370.86343920603395, -492.02497807051986, -425.17239641258493, 0.8160000387579203, 0.576000027358532, 0.3200000151991844, 0.0, 0.0, 0.0, 0.0, 0.0, 1.7103947948011158E9, 0.0, 2024-03-13 22:39:54.801
58.0, -762.8591831116937, -370.33611331228167, -506.32635550107807, -427.7342278822325, 0.8160000387579203, 0.576000027358532, 0.3200000151991844, 0.0, 0.0, 0.0, 0.0, 0.0, 1.7103947948018177E9, 0.0, 2024-03-13 22:39:54.801
58.0, -749.3319649719633, -365.0591144748032, -500.4921115702018, -424.1925426241942, 0.8160000387579203, 0.576000027358532, 0.3200000151991844, 0.0, 0.0, 0.0, 0.0, 0.0, 1.7103947948018177E9, 0.0, 2024-03-13 22:39:54.801
59.0, -749.4516417705454, -357.4970367643982, -482.57425088249147, -420.23198857111856, 0.8160000387579203, 0.576000027358532, 0.3200000151991844, 0.0, 0.0, 0.0, 0.0, 0.0, 1.710394794815235E9, 0.0, 2024-03-13 22:39:54.815
59.0, -755.8169514951296, -375.4410767517984, -502.25360444933176, -433.75546681089327, 0.8160000387579203, 0.576000027358532, 0.3200000151991844, 0.0, 0.0, 0.0, 0.0, 0.0, 1.710394794815235E9, 0.0, 2024-03-13 22:39:54.815
60.0, -746.441022306215, -368.1407920382917, -498.95875258836895, -421.6232313546352, 0.8160000387579203, 0.576000027358532, 0.3200000151991844, 0.0, 0.0, 0.0, 0.0, 0.0, 1.7103947948311005E9, 0.0, 2024-03-13 22:39:54.831
60.0, -760.6638618377037, -370.4258709112182, -492.2418922679499, -420.8827311634086, 0.8160000387579203, 0.576000027358532, 0.3200000151991844, 0.0, 0.0, 0.0, 0.0, 0.0, 1.7103947948311005E9, 0.0, 2024-03-13 22:39:54.831
61.0, -773.360822187271, -385.7407612297684, -508.19256557896733, -441.1567288232036, 0.8160000387579203, 0.576000027358532, 0.3200000151991844, 0.0, 0.0, 0.0, 0.0, 0.0, 1.710394794831854E9, 0.0, 2024-03-13 22:39:54.831
61.0, -749.5974978688173, -365.6911575673148, -497.6385679040104, -421.56713285529986, 0.8160000387579203, 0.576000027358532, 0.3200000151991844, 0.0, 0.0, 0.0, 0.0, 0.0, 1.710394794831854E9, 0.0, 2024-03-13 22:39:54.831
62.0, -746.9047699007206, -345.7238317038864, -478.9353282256052, -405.70995704317465, 0.8160000387579203, 0.576000027358532, 0.3200000151991844, 0.0, 0.0, 0.0, 0.0, 0.0, 1.7103947948451636E9, 0.0, 2024-03-13 22:39:54.845
62.0, -752.4099026354961, -362.8488336009905, -485.9775598421693, -419.8430389757268, 0.8160000387579203, 0.576000027358532, 0.3200000151991844, 0.0, 0.0, 0.0, 0.0, 0.0, 1.7103947948451636E9, 0.0, 2024-03-13 22:39:54.845
63.0, -744.185862632934, -358.7573830494657, -491.0451242821291, -414.5959593378939, 0.8160000387579203, 0.576000027358532, 0.3200000151991844, 0.0, 0.0, 0.0, 0.0, 0.0, 1.710394794861029E9, 0.0, 2024-03-13 22:39:54.861
63.0, -729.3160204091109, -345.5779756056145, -474.20809468161315, -400.11506670946255, 0.8160000387579203, 0.576000027358532, 0.3200000151991844, 0.0, 0.0, 0.0, 0.0, 0.0, 1.710394794861029E9, 0.0, 2024-03-13 22:39:54.861
64.0, -757.4438079758547, -356.498483476229, -469.01337364315987, -408.75423560710624, 0.8160000387579203, 0.576000027358532, 0.3200000151991844, 0.0, 0.0, 0.0, 0.0, 0.0, 1.7103947948617864E9, 0.0, 2024-03-13 22:39:54.861
64.0, -745.7678403141908, -350.3613076489419, -470.2625002283603, -405.3696261472069, 0.8160000387579203, 0.576000027358532, 0.3200000151991844, 0.0, 0.0, 0.0, 0.0, 0.0, 1.7103947948617864E9, 0.0, 2024-03-13 22:39:54.861
65.0, -753.2326806257479, -359.4305650414899, -478.69223472848535, -404.1354591618292, 0.8160000387579203, 0.576000027358532, 0.3200000151991844, 0.0, 0.0, 0.0, 0.0, 0.0, 1.71039479487516E9, 0.0, 2024-03-13 22:39:54.875
65.0, -742.9703951473348, -355.14463969226927, -472.94026859663427, -401.6596453911625, 0.8160000387579203, 0.576000027358532, 0.3200000151991844, 0.0, 0.0, 0.0, 0.0, 0.0, 1.71039479487516E9, 0.0, 2024-03-13 22:39:54.875
66.0, -753.1391831268556, -357.59801406320184, -470.42705582641065, -404.9170982525684, 0.8160000387579203, 0.576000027358532, 0.3200000151991844, 0.0, 0.0, 0.0, 0.0, 0.0, 1.7103947948908548E9, 0.0, 2024-03-13 22:39:54.890
66.0, -744.3055394315161, -359.23235034383833, -475.27396616898477, -400.6087335036136, 0.8160000387579203, 0.576000027358532, 0.3200000151991844, 0.0, 0.0, 0.0, 0.0, 0.0, 1.7103947948908548E9, 0.0, 2024-03-13 22:39:54.890
67.0, -735.2811608384363, -347.62744078133255, -462.71538211777806, -393.18877199152485, 0.8160000387579203, 0.576000027358532, 0.3200000151991844, 0.0, 0.0, 0.0, 0.0, 0.0, 1.7103947948915265E9, 0.0, 2024-03-13 22:39:54.891
67.0, -752.929748729337, -356.2067712796852, -460.79307354055345, -399.0304957223125, 0.8160000387579203, 0.576000027358532, 0.3200000151991844, 0.0, 0.0, 0.0, 0.0, 0.0, 1.7103947948915265E9, 0.0, 2024-03-13 22:39:54.891
68.0, -740.9022304718383, -353.22607101500034, -462.7714806171134, -389.36285433685407, 0.8160000387579203, 0.576000027358532, 0.3200000151991844, 0.0, 0.0, 0.0, 0.0, 0.0, 1.710394794905321E9, 0.0, 2024-03-13 22:39:54.905
68.0, -730.2135963984765, -343.461192230694, -457.23268878273666, -384.7104187919758, 0.8160000387579203, 0.576000027358532, 0.3200000151991844, 0.0, 0.0, 0.0, 0.0, 0.0, 1.710394794905321E9, 0.0, 2024-03-13 22:39:54.905
69.0, -742.2037156564184, -353.1288336161524, -453.15993773099035, -392.37721370114014, 0.8160000387579203, 0.576000027358532, 0.3200000151991844, 0.0, 0.0, 0.0, 0.0, 0.0, 1.7103947949212675E9, 0.0, 2024-03-13 22:39:54.921
69.0, -745.6145044160075, -350.89611334260553, -460.5425002435222, -391.33752151345834, 0.8160000387579203, 0.576000027358532, 0.3200000151991844, 0.0, 0.0, 0.0, 0.0, 0.0, 1.7103947949212675E9, 0.0, 2024-03-13 22:39:54.921
70.0, -747.6751892915927, -351.1205073399469, -470.23632092867047, -391.74517060862854, 0.8160000387579203, 0.576000027358532, 0.3200000151991844, 0.0, 0.0, 0.0, 0.0, 0.0, 1.7103947949216297E9, 0.0, 2024-03-13 22:39:54.921
70.0, -742.256074255798, -349.14584016334265, -458.2574213705957, -393.60016098665074, 0.8160000387579203, 0.576000027358532, 0.3200000151991844, 0.0, 0.0, 0.0, 0.0, 0.0, 1.7103947949216297E9, 0.0, 2024-03-13 22:39:54.921
71.0, -734.9034309429117, -350.8325350433588, -467.54359296057373, -407.3891721232794, 0.8160000387579203, 0.576000027358532, 0.3200000151991844, 0.0, 0.0, 0.0, 0.0, 0.0, 1.7103947949353251E9, 0.0, 2024-03-13 22:39:54.935
71.0, -748.6924420795403, -359.1725119445473, -493.6144355516881, -416.6903033130802, 0.8160000387579203, 0.576000027358532, 0.3200000151991844, 0.0, 0.0, 0.0, 0.0, 0.0, 1.7103947949353251E9, 0.0, 2024-03-13 22:39:54.935
72.0, -741.50809426466, -354.00771010573953, -476.9307418493554, -409.49847569828853, 0.8160000387579203, 0.576000027358532, 0.3200000151991844, 0.0, 0.0, 0.0, 0.0, 0.0, 1.7103947949511821E9, 0.0, 2024-03-13 22:39:54.951
72.0, -740.808732972946, -356.5396223757416, -474.14077648241073, -412.5913729616441, 0.8160000387579203, 0.576000027358532, 0.3200000151991844, 0.0, 0.0, 0.0, 0.0, 0.0, 1.7103947949511821E9, 0.0, 2024-03-13 22:39:54.951
73.0, -729.6563513050787, -347.8293953789398, -474.885016573593, -404.0681409626268, 0.8160000387579203, 0.576000027358532, 0.3200000151991844, 0.0, 0.0, 0.0, 0.0, 0.0, 1.7103947949516127E9, 0.0, 2024-03-13 22:39:54.951
73.0, -743.5837387400679, -351.1616462394595, -481.84497039113194, -405.5902802445926, 0.8160000387579203, 0.576000027358532, 0.3200000151991844, 0.0, 0.0, 0.0, 0.0, 0.0, 1.7103947949516127E9, 0.0, 2024-03-13 22:39:54.951
74.0, -758.5994370621629, -365.8781525650993, -472.895389797166, -411.2973675769754, 0.8160000387579203, 0.576000027358532, 0.3200000151991844, 0.0, 0.0, 0.0, 0.0, 0.0, 1.7103947949651625E9, 0.0, 2024-03-13 22:39:54.965
74.0, -756.4115955880843, -366.0352283632383, -491.4153743777424, -422.8873175396584, 0.8160000387579203, 0.576000027358532, 0.3200000151991844, 0.0, 0.0, 0.0, 0.0, 0.0, 1.7103947949651625E9, 0.0, 2024-03-13 22:39:54.965
75.0, -744.4700950295664, -354.6958516975865, -494.99071873538196, -410.0557207916863, 0.8160000387579203, 0.576000027358532, 0.3200000151991844, 0.0, 0.0, 0.0, 0.0, 0.0, 1.7103947949808528E9, 0.0, 2024-03-13 22:39:54.980
75.0, -745.7491408144124, -359.96163083519787, -487.17058792803437, -418.0254475972615, 0.8160000387579203, 0.576000027358532, 0.3200000151991844, 0.0, 0.0, 0.0, 0.0, 0.0, 1.7103947949808528E9, 0.0, 2024-03-13 22:39:54.980
76.0, -754.7062012082897, -369.2141433255747, -486.02243864163756, -424.2224618238397, 0.8160000387579203, 0.576000027358532, 0.3200000151991844, 0.0, 0.0, 0.0, 0.0, 0.0, 1.7103947949815476E9, 0.0, 2024-03-13 22:39:54.981
76.0, -730.1761973989196, -353.1325735161081, -478.10133053548634, -405.2499493486248, 0.8160000387579203, 0.576000027358532, 0.3200000151991844, 0.0, 0.0, 0.0, 0.0, 0.0, 1.7103947949815476E9, 0.0, 2024-03-13 22:39:54.981
77.0, -748.0304797873832, -366.1100263623521, -476.9307418493554, -406.3606996354647, 0.8160000387579203, 0.576000027358532, 0.3200000151991844, 0.0, 0.0, 0.0, 0.0, 0.0, 1.7103947949953609E9, 0.0, 2024-03-13 22:39:54.995
77.0, -759.7363666486926, -366.7009305553511, -475.3749434677884, -413.75448184786364, 0.8160000387579203, 0.576000027358532, 0.3200000151991844, 0.0, 0.0, 0.0, 0.0, 0.0, 1.7103947949953609E9, 0.0, 2024-03-13 22:39:54.995
78.0, -743.6510569392703, -356.07961468119174, -483.69996076915413, -411.82095357077196, 0.8160000387579203, 0.576000027358532, 0.3200000151991844, 0.0, 0.0, 0.0, 0.0, 0.0, 1.7103947950109448E9, 0.0, 2024-03-13 22:39:55.010
78.0, -724.4728499664925, -349.6133276578039, -474.06597848329693, -405.2873483481817, 0.8160000387579203, 0.576000027358532, 0.3200000151991844, 0.0, 0.0, 0.0, 0.0, 0.0, 1.7103947950109448E9, 0.0, 2024-03-13 22:39:55.010
79.0, -745.0198603230529, -361.19205792061985, -485.17722125165164, -420.1721501718275, 0.8160000387579203, 0.576000027358532, 0.3200000151991844, 0.0, 0.0, 0.0, 0.0, 0.0, 1.7103947950117228E9, 0.0, 2024-03-13 22:39:55.011
79.0, -754.8445775066502, -371.48800249863416, -501.84221545420587, -427.97358147939667, 0.8160000387579203, 0.576000027358532, 0.3200000151991844, 0.0, 0.0, 0.0, 0.0, 0.0, 1.7103947950117228E9, 0.0, 2024-03-13 22:39:55.011
80.0, -762.4328345167451, -371.6188989970833, -500.6417075684294, -426.522500296589, 0.8160000387579203, 0.576000027358532, 0.3040000144392252, 0.0, 0.0, 0.0, 0.0, 0.0, 1.7103947950254695E9, 0.0, 2024-03-13 22:39:55.025
80.0, -752.4024228355847, -367.64338534418494, -484.39932206086814, -419.8879177751951, 0.8160000387579203, 0.576000027358532, 0.3040000144392252, 0.0, 0.0, 0.0, 0.0, 0.0, 1.7103947950254695E9, 0.0, 2024-03-13 22:39:55.025
81.0, -752.9073093296029, -370.08180011529475, -484.61249635834247, -423.1902494360693, 0.8160000387579203, 0.576000027358532, 0.3040000144392252, 0.0, 0.0, 0.0, 0.0, 0.0, 1.710394795041168E9, 0.0, 2024-03-13 22:39:55.041
81.0, -753.4795140228234, -363.37989939469844, -495.7125194268301, -419.7383217769675, 0.8160000387579203, 0.576000027358532, 0.3040000144392252, 0.0, 0.0, 0.0, 0.0, 0.0, 1.710394795041168E9, 0.0, 2024-03-13 22:39:55.041
82.0, -745.9510954120196, -368.2492491370067, -491.673427474685, -420.1833698716946, 0.8160000387579203, 0.576000027358532, 0.3040000144392252, 0.0, 0.0, 0.0, 0.0, 0.0, 1.710394795041836E9, 0.0, 2024-03-13 22:39:55.041
82.0, -749.1561896740459, -371.37954539991915, -482.8584832791239, -420.05621327320114, 0.8160000387579203, 0.576000027358532, 0.3040000144392252, 0.0, 0.0, 0.0, 0.0, 0.0, 1.710394795041836E9, 0.0, 2024-03-13 22:39:55.041
83.0, -748.0566590870731, -363.67909139115363, -487.4847395243123, -414.08359304396436, 0.8160000387579203, 0.576000027358532, 0.3040000144392252, 0.0, 0.0, 0.0, 0.0, 0.0, 1.710394795055526E9, 0.0, 2024-03-13 22:39:55.055
83.0, -761.9728268221952, -372.38183858804405, -494.4521731417626, -418.19374309526756, 0.8160000387579203, 0.576000027358532, 0.3040000144392252, 0.0, 0.0, 0.0, 0.0, 0.0, 1.710394795055526E9, 0.0, 2024-03-13 22:39:55.055
84.0, -766.666401266586, -376.5593068385497, -485.7531658448279, -420.8752513634972, 0.8160000387579203, 0.576000027358532, 0.3040000144392252, 0.0, 0.0, 0.0, 0.0, 0.0, 1.710394795071172E9, 0.0, 2024-03-13 22:39:55.071
84.0, -760.2412531427108, -368.63819873239845, -489.47436630073935, -420.6583371660672, 0.8160000387579203, 0.576000027358532, 0.3040000144392252, 0.0, 0.0, 0.0, 0.0, 0.0, 1.710394795071172E9, 0.0, 2024-03-13 22:39:55.071
85.0, -757.3241311772726, -364.4008920826018, -492.17831396870315, -413.3356130528264, 0.8160000387579203, 0.576000027358532, 0.3040000144392252, 0.0, 0.0, 0.0, 0.0, 0.0, 1.7103947950715437E9, 0.0, 2024-03-13 22:39:55.071
85.0, -760.1028768443502, -365.7958747660741, -489.1564748045057, -420.04499357333407, 0.8160000387579203, 0.576000027358532, 0.3040000144392252, 0.0, 0.0, 0.0, 0.0, 0.0, 1.7103947950715437E9, 0.0, 2024-03-13 22:39:55.071
86.0, -752.9409684292041, -377.30354692973197, -488.6067095110193, -418.60513209039345, 0.8160000387579203, 0.576000027358532, 0.3040000144392252, 0.0, 0.0, 0.0, 0.0, 0.0, 1.7103947950856807E9, 0.0, 2024-03-13 22:39:55.085
86.0, -765.267678683158, -373.7394222719595, -503.4615921350196, -421.64941065432504, 0.8160000387579203, 0.576000027358532, 0.3040000144392252, 0.0, 0.0, 0.0, 0.0, 0.0, 1.7103947950856807E9, 0.0, 2024-03-13 22:39:55.085
87.0, -750.2856394606642, -373.94137686956674, -492.0174982706085, -419.87295817537233, 0.8160000387579203, 0.576000027358532, 0.3040000144392252, 0.0, 0.0, 0.0, 0.0, 0.0, 1.7103947951012025E9, 0.0, 2024-03-13 22:39:55.101
87.0, -768.6485482431017, -382.8498185640201, -493.603215851821, -428.91229636827484, 0.8160000387579203, 0.576000027358532, 0.3040000144392252, 0.0, 0.0, 0.0, 0.0, 0.0, 1.7103947951012025E9, 0.0, 2024-03-13 22:39:55.101
88.0, -756.9090022821911, -378.2609613183886, -497.9714190000668, -425.0003610146232, 0.8160000387579203, 0.576000027358532, 0.3040000144392252, 0.0, 0.0, 0.0, 0.0, 0.0, 1.7103947951021216E9, 0.0, 2024-03-13 22:39:55.102
88.0, -770.8962281164713, -381.46605558041483, -508.73485107254237, -432.7419539229013, 0.8160000387579203, 0.576000027358532, 0.3040000144392252, 0.0, 0.0, 0.0, 0.0, 0.0, 1.7103947951021216E9, 0.0, 2024-03-13 22:39:55.102
89.0, -764.6730345902033, -384.9890413386747, -500.3799145715311, -436.2200608816929, 0.8160000387579203, 0.576000027358532, 0.3040000144392252, 0.0, 0.0, 0.0, 0.0, 0.0, 1.71039479513153E9, 0.0, 2024-03-13 22:39:55.131
89.0, -760.648902237881, -381.3014999823645, -500.4285332709551, -434.783939298708, 0.8160000387579203, 0.576000027358532, 0.3040000144392252, 0.0, 0.0, 0.0, 0.0, 0.0, 1.71039479513153E9, 0.0, 2024-03-13 22:39:55.131
90.0, -752.6268168329261, -369.5170752219856, -489.5678637996316, -417.38592470483854, 0.8160000387579203, 0.576000027358532, 0.3200000151991844, 0.0, 0.0, 0.0, 0.0, 0.0, 1.7103947951322412E9, 0.0, 2024-03-13 22:39:55.132
90.0, -772.1341350018047, -381.71288897749037, -494.36615544278175, -431.09639794239774, 0.8160000387579203, 0.576000027358532, 0.3200000151991844, 0.0, 0.0, 0.0, 0.0, 0.0, 1.7103947951322412E9, 0.0, 2024-03-13 22:39:55.132
91.0, -778.2152123297565, -387.5994915077463, -488.8198838084936, -434.90361609729007, 0.8160000387579203, 0.576000027358532, 0.3200000151991844, 0.0, 0.0, 0.0, 0.0, 0.0, 1.710394795132952E9, 0.0, 2024-03-13 22:39:55.132
91.0, -769.3142504352145, -381.3949974812567, -501.1615536622703, -427.4125964860432, 0.8160000387579203, 0.576000027358532, 0.3200000151991844, 0.0, 0.0, 0.0, 0.0, 0.0, 1.710394795132952E9, 0.0, 2024-03-13 22:39:55.132
92.0, -777.6953662359156, -390.08652497828007, -504.5386833222583, -439.10352374752983, 0.8160000387579203, 0.576000027358532, 0.3200000151991844, 0.0, 0.0, 0.0, 0.0, 0.0, 1.7103947951451223E9, 0.0, 2024-03-13 22:39:55.145
92.0, -777.6579672363587, -391.27207326423377, -505.2006456144154, -446.58332365890965, 0.8160000387579203, 0.576000027358532, 0.3200000151991844, 0.0, 0.0, 0.0, 0.0, 0.0, 1.7103947951451223E9, 0.0, 2024-03-13 22:39:55.145
93.0, -761.4043620289303, -379.00894130952656, -500.465932270512, -432.0837315306999, 0.8160000387579203, 0.576000027358532, 0.3200000151991844, 0.0, 0.0, 0.0, 0.0, 0.0, 1.7103947951608915E9, 0.0, 2024-03-13 22:39:55.160
93.0, -756.7818456836976, -370.7587220072746, -488.1504417164251, -423.2987065347843, 0.8160000387579203, 0.576000027358532, 0.3200000151991844, 0.0, 0.0, 0.0, 0.0, 0.0, 1.7103947951608915E9, 0.0, 2024-03-13 22:39:55.160
94.0, -793.2346505518071, -402.57779083028436, -508.40947977639735, -451.5199916004203, 0.8160000387579203, 0.576000027358532, 0.3200000151991844, 0.0, 0.0, 0.0, 0.0, 0.0, 1.710394795161631E9, 0.0, 2024-03-13 22:39:55.161
94.0, -785.4182596444152, -396.08906440716237, -507.2052319906652, -443.7858784920536, 0.8160000387579203, 0.576000027358532, 0.3200000151991844, 0.0, 0.0, 0.0, 0.0, 0.0, 1.710394795161631E9, 0.0, 2024-03-13 22:39:55.161
95.0, -767.3807221581228, -378.61251191422343, -502.59019544534385, -432.4876407259144, 0.8160000387579203, 0.576000027358532, 0.3200000151991844, 0.0, 0.0, 0.0, 0.0, 0.0, 1.7103947951751723E9, 0.0, 2024-03-13 22:39:55.175
95.0, -772.1191754019819, -386.3690644223243, -503.4615921350196, -437.1213767710142, 0.8160000387579203, 0.576000027358532, 0.3200000151991844, 0.0, 0.0, 0.0, 0.0, 0.0, 1.7103947951751723E9, 0.0, 2024-03-13 22:39:55.175
96.0, -775.556143461261, -393.4374753385782, -507.5418229866773, -446.0559977651574, 0.8160000387579203, 0.576000027358532, 0.3200000151991844, 0.0, 0.0, 0.0, 0.0, 0.0, 1.7103947952072508E9, 0.0, 2024-03-13 22:39:55.207
96.0, -763.0686175092123, -372.97648268099874, -499.1906263856217, -425.1088181133382, 0.8160000387579203, 0.576000027358532, 0.3200000151991844, 0.0, 0.0, 0.0, 0.0, 0.0, 1.7103947952072508E9, 0.0, 2024-03-13 22:39:55.207
97.0, -759.1604220555164, -370.48570931050926, -488.18036091607064, -419.9664556742646, 0.8160000387579203, 0.576000027358532, 0.3200000151991844, 0.0, 0.0, 0.0, 0.0, 0.0, 1.7103947952082157E9, 0.0, 2024-03-13 22:39:55.208
97.0, -784.9096332504414, -393.5309728374705, -507.3211688892916, -445.05744447698817, 0.8160000387579203, 0.576000027358532, 0.3200000151991844, 0.0, 0.0, 0.0, 0.0, 0.0, 1.7103947952082157E9, 0.0, 2024-03-13 22:39:55.208
98.0, -771.2365590124391, -381.3688181815669, -511.04610924515873, -439.10352374752983, 0.8160000387579203, 0.576000027358532, 0.3200000151991844, 0.0, 0.0, 0.0, 0.0, 0.0, 1.7103947952089233E9, 0.0, 2024-03-13 22:39:55.208
98.0, -773.0391907910816, -379.09495900850743, -506.6554666971788, -431.65364303579554, 0.8160000387579203, 0.576000027358532, 0.3200000151991844, 0.0, 0.0, 0.0, 0.0, 0.0, 1.7103947952089233E9, 0.0, 2024-03-13 22:39:55.208
99.0, -779.1576671185903, -385.1124580372125, -491.51635167654604, -438.2583063575439, 0.8160000387579203, 0.576000027358532, 0.3200000151991844, 0.0, 0.0, 0.0, 0.0, 0.0, 1.710394795209432E9, 0.0, 2024-03-13 22:39:55.209
99.0, -774.8941811691038, -383.17144996020943, -502.455559046939, -440.12825633538887, 0.8160000387579203, 0.576000027358532, 0.3200000151991844, 0.0, 0.0, 0.0, 0.0, 0.0, 1.710394795209432E9, 0.0, 2024-03-13 22:39:55.209
100.0, -769.875235428568, -382.247694671154, -502.03669025190175, -428.5981447719969, 0.8160000387579203, 0.576000027358532, 0.3200000151991844, 0.0, 0.0, 0.0, 0.0, 0.0, 1.7103947952202227E9, 0.0, 2024-03-13 22:39:55.220
100.0, -773.5964358844794, -385.8080794289708, -498.0948356986046, -431.68356223544106, 0.8160000387579203, 0.576000027358532, 0.3200000151991844, 0.0, 0.0, 0.0, 0.0, 0.0, 1.7103947952202227E9, 0.0, 2024-03-13 22:39:55.220
0.0, -765.9128114255145, -376.2152360426262, -489.3902185517363, -427.23682118812576, 0.8160000387579203, 0.576000027358532, 0.3200000151991844, 0.0, 0.0, 0.0, 0.0, 0.0, 1.7103947952362957E9, 0.0, 2024-03-13 22:39:55.236
1.0, -747.6994986413047, -361.1808382207528, -484.8312805057503, -409.82384699443355, 0.8160000387579203, 0.576000027358532, 0.3200000151991844, 0.0, 0.0, 0.0, 0.0, 0.0, 1.71039479523674E9, 0.0, 2024-03-13 22:39:55.236
1.0, -771.1112723639235, -378.9902418097481, -498.45573604432866, -427.5098338848911, 0.8160000387579203, 0.576000027358532, 0.3200000151991844, 0.0, 0.0, 0.0, 0.0, 0.0, 1.71039479523674E9, 0.0, 2024-03-13 22:39:55.236
2.0, -788.0044004637748, -380.9162902869284, -499.5515267313458, -432.79431252228096, 0.8160000387579203, 0.576000027358532, 0.3200000151991844, 0.0, 0.0, 0.0, 0.0, 0.0, 1.7103947952501783E9, 0.0, 2024-03-13 22:39:55.250
2.0, -758.5676479125395, -359.59886053949594, -483.67191151948646, -410.3175137885846, 0.8160000387579203, 0.576000027358532, 0.3200000151991844, 0.0, 0.0, 0.0, 0.0, 0.0, 1.7103947952501783E9, 0.0, 2024-03-13 22:39:55.250
3.0, -762.3561665676534, -366.3119809599593, -493.42557060392573, -415.34019942907616, 0.8160000387579203, 0.576000027358532, 0.3200000151991844, 0.0, 0.0, 0.0, 0.0, 0.0, 1.7103947952656696E9, 0.0, 2024-03-13 22:39:55.265
3.0, -776.291033802554, -374.93619025778025, -491.53692112630233, -424.544093220029, 0.8160000387579203, 0.576000027358532, 0.3200000151991844, 0.0, 0.0, 0.0, 0.0, 0.0, 1.7103947952656696E9, 0.0, 2024-03-13 22:39:55.265
4.0, -752.4603912848979, -360.3131814310327, -487.5389680736698, -414.1770905428566, 0.8160000387579203, 0.576000027358532, 0.3200000151991844, 0.0, 0.0, 0.0, 0.0, 0.0, 1.7103947952808733E9, 0.0, 2024-03-13 22:39:55.280
4.0, -744.1802527830005, -353.6935585094616, -481.74960294226184, -402.9873098754324, 0.8160000387579203, 0.576000027358532, 0.3200000151991844, 0.0, 0.0, 0.0, 0.0, 0.0, 1.7103947952808733E9, 0.0, 2024-03-13 22:39:55.280
5.0, -771.1486713634804, -366.8318270538002, -485.1753513016738, -418.5565133909695, 0.8160000387579203, 0.576000027358532, 0.3200000151991844, 0.0, 0.0, 0.0, 0.0, 0.0, 1.7103947952815807E9, 0.0, 2024-03-13 22:39:55.281
5.0, -744.112934583798, -358.36843345407397, -468.843208195176, -406.18866423750296, 0.8160000387579203, 0.576000027358532, 0.3200000151991844, 0.0, 0.0, 0.0, 0.0, 0.0, 1.7103947952815807E9, 0.0, 2024-03-13 22:39:55.281
6.0, -741.9998911088333, -358.802261848934, -493.8481792989187, -413.7058631484397, 0.8160000387579203, 0.576000027358532, 0.3200000151991844, 0.0, 0.0, 0.0, 0.0, 0.0, 1.710394795295906E9, 0.0, 2024-03-13 22:39:55.295
6.0, -754.0947275655344, -362.0559748103842, -485.63535899622366, -414.82409323519096, 0.8160000387579203, 0.576000027358532, 0.3200000151991844, 0.0, 0.0, 0.0, 0.0, 0.0, 1.710394795295906E9, 0.0, 2024-03-13 22:39:55.295
7.0, -764.5178287420422, -374.5808997619897, -494.57371989032254, -426.4776214971207, 0.8160000387579203, 0.576000027358532, 0.3200000151991844, 0.0, 0.0, 0.0, 0.0, 0.0, 1.7103947952965944E9, 0.0, 2024-03-13 22:39:55.296
7.0, -756.3087483393028, -367.811680842191, -493.1039392077364, -419.91035717492923, 0.8160000387579203, 0.576000027358532, 0.3200000151991844, 0.0, 0.0, 0.0, 0.0, 0.0, 1.7103947952965944E9, 0.0, 2024-03-13 22:39:55.296
8.0, -764.6786444401368, -372.2472021896392, -482.31058793561533, -413.6909035486169, 0.8160000387579203, 0.576000027358532, 0.3200000151991844, 0.0, 0.0, 0.0, 0.0, 0.0, 1.710394795310146E9, 0.0, 2024-03-13 22:39:55.310
8.0, -773.1532577397302, -385.52758693229407, -502.16571680037305, -436.87454337393865, 0.8160000387579203, 0.576000027358532, 0.3200000151991844, 0.0, 0.0, 0.0, 0.0, 0.0, 1.710394795310146E9, 0.0, 2024-03-13 22:39:55.310
9.0, -760.0860472945496, -377.4381833281368, -498.4370365445502, -432.697075123433, 0.8160000387579203, 0.576000027358532, 0.3200000151991844, 0.0, 0.0, 0.0, 0.0, 0.0, 1.7103947953258908E9, 0.0, 2024-03-13 22:39:55.325
9.0, -765.7632154272869, -379.510087903589, -501.35415850998834, -427.72300818236545, 0.8160000387579203, 0.576000027358532, 0.3200000151991844, 0.0, 0.0, 0.0, 0.0, 0.0, 1.7103947953258908E9, 0.0, 2024-03-13 22:39:55.325
10.0, -774.3201065259054, -373.3654322763905, -497.52824085531756, -430.06418555462733, 0.8160000387579203, 0.576000027358532, 0.3200000151991844, 0.0, 0.0, 0.0, 0.0, 0.0, 1.7103947953266E9, 0.0, 2024-03-13 22:39:55.326
10.0, -771.4029845604673, -384.2148820478469, -505.50170756084844, -441.28014552174136, 0.8160000387579203, 0.576000027358532, 0.3200000151991844, 0.0, 0.0, 0.0, 0.0, 0.0, 1.7103947953266E9, 0.0, 2024-03-13 22:39:55.326
11.0, -749.0122035257518, -366.0913268625736, -494.49144209129736, -424.5104341204278, 0.8160000387579203, 0.576000027358532, 0.3200000151991844, 0.0, 0.0, 0.0, 0.0, 0.0, 1.710394795340139E9, 0.0, 2024-03-13 22:39:55.340
11.0, -764.9067783374339, -379.4764288039878, -495.19454328296706, -427.9174829800613, 0.8160000387579203, 0.576000027358532, 0.3200000151991844, 0.0, 0.0, 0.0, 0.0, 0.0, 1.710394795340139E9, 0.0, 2024-03-13 22:39:55.340
12.0, -772.3790984489024, -385.4415692333132, -498.7100492413156, -438.0077330605127, 0.8160000387579203, 0.576000027358532, 0.3200000151991844, 0.0, 0.0, 0.0, 0.0, 0.0, 1.7103947953559732E9, 0.0, 2024-03-13 22:39:55.355
12.0, -770.6624843692407, -380.6956361895427, -504.98186146700755, -431.46290813805535, 0.8160000387579203, 0.576000027358532, 0.3200000151991844, 0.0, 0.0, 0.0, 0.0, 0.0, 1.7103947953559732E9, 0.0, 2024-03-13 22:39:55.355
13.0, -763.9905028482899, -372.2434622896835, -489.6520115486346, -426.83291199291125, 0.8160000387579203, 0.576000027358532, 0.3200000151991844, 0.0, 0.0, 0.0, 0.0, 0.0, 1.710394795356836E9, 0.0, 2024-03-13 22:39:55.356
13.0, -777.3868244895712, -382.60672506690025, -488.4028849634342, -431.455428338144, 0.8160000387579203, 0.576000027358532, 0.3200000151991844, 0.0, 0.0, 0.0, 0.0, 0.0, 1.710394795356836E9, 0.0, 2024-03-13 22:39:55.356
14.0, -765.7033770279959, -379.2482949066907, -496.6979830651544, -428.42236947407946, 0.8160000387579203, 0.576000027358532, 0.3200000151991844, 0.0, 0.0, 0.0, 0.0, 0.0, 1.710394795370472E9, 0.0, 2024-03-13 22:39:55.370
14.0, -741.6072016134858, -360.19724453240633, -485.740076194983, -414.82783313514665, 0.8160000387579203, 0.576000027358532, 0.3200000151991844, 0.0, 0.0, 0.0, 0.0, 0.0, 1.710394795370472E9, 0.0, 2024-03-13 22:39:55.370
15.0, -757.8009684216231, -371.0242549041286, -487.8531196699478, -428.7327811704017, 0.8160000387579203, 0.576000027358532, 0.3200000151991844, 0.0, 0.0, 0.0, 0.0, 0.0, 1.7103947953861659E9, 0.0, 2024-03-13 22:39:55.386
15.0, -781.6839695386589, -392.86901054531336, -507.5549126365222, -442.35349680902436, 0.8160000387579203, 0.576000027358532, 0.3200000151991844, 0.0, 0.0, 0.0, 0.0, 0.0, 1.7103947953861659E9, 0.0, 2024-03-13 22:39:55.386
16.0, -768.1717109987512, -376.16661734320223, -503.90851017972454, -426.94510899158195, 0.8160000387579203, 0.576000027358532, 0.3200000151991844, 0.0, 0.0, 0.0, 0.0, 0.0, 1.7103947953868203E9, 0.0, 2024-03-13 22:39:55.386
16.0, -764.3420534441248, -375.1493645552546, -500.1012920248322, -432.1211305302568, 0.8160000387579203, 0.576000027358532, 0.3200000151991844, 0.0, 0.0, 0.0, 0.0, 0.0, 1.7103947953868203E9, 0.0, 2024-03-13 22:39:55.386
17.0, -776.7697409968823, -385.6659632306546, -506.6311573474668, -440.61444332962856, 0.8160000387579203, 0.576000027358532, 0.3200000151991844, 0.0, 0.0, 0.0, 0.0, 0.0, 1.7103947954001436E9, 0.0, 2024-03-13 22:39:55.400
17.0, -770.9467167658731, -375.7739278478548, -509.2528272164054, -433.13838331820443, 0.8160000387579203, 0.576000027358532, 0.3200000151991844, 0.0, 0.0, 0.0, 0.0, 0.0, 1.7103947954001436E9, 0.0, 2024-03-13 22:39:55.400
18.0, -764.701083839871, -370.4744896106422, -490.8076406349428, -419.75702127674595, 0.8160000387579203, 0.576000027358532, 0.3200000151991844, 0.0, 0.0, 0.0, 0.0, 0.0, 1.710394795432157E9, 0.0, 2024-03-13 22:39:55.432
18.0, -774.1966898273677, -386.86647111643106, -500.1835698238574, -437.1625156705268, 0.8160000387579203, 0.576000027358532, 0.3200000151991844, 0.0, 0.0, 0.0, 0.0, 0.0, 1.710394795432157E9, 0.0, 2024-03-13 22:39:55.432
19.0, -787.7987059662119, -384.2298416476697, -514.9823539485224, -441.2689258218743, 0.8160000387579203, 0.576000027358532, 0.3200000151991844, 0.0, 0.0, 0.0, 0.0, 0.0, 1.710394795432965E9, 0.0, 2024-03-13 22:39:55.432
19.0, -769.0468475883827, -371.1327120028436, -504.30867947498336, -428.5944048720412, 0.8160000387579203, 0.576000027358532, 0.3200000151991844, 0.0, 0.0, 0.0, 0.0, 0.0, 1.710394795432965E9, 0.0, 2024-03-13 22:39:55.432
20.0, -764.5178287420422, -376.98191553354263, -494.6971365888603, -431.64616323588416, 0.8160000387579203, 0.576000027358532, 0.3040000144392252, 0.0, 0.0, 0.0, 0.0, 0.0, 1.7103947954336653E9, 0.0, 2024-03-13 22:39:55.433
20.0, -764.9479172369465, -385.02270043827593, -500.5874790190719, -435.83859108621255, 0.8160000387579203, 0.576000027358532, 0.3040000144392252, 0.0, 0.0, 0.0, 0.0, 0.0, 1.7103947954336653E9, 0.0, 2024-03-13 22:39:55.433
21.0, -760.8976055849344, -376.3349128412083, -497.0308341612108, -424.16636332450435, 0.8160000387579203, 0.576000027358532, 0.3040000144392252, 0.0, 0.0, 0.0, 0.0, 0.0, 1.7103947954344795E9, 0.0, 2024-03-13 22:39:55.434
21.0, -772.8166667437181, -375.1044857557863, -496.3277329695411, -423.9232698273845, 0.8160000387579203, 0.576000027358532, 0.3040000144392252, 0.0, 0.0, 0.0, 0.0, 0.0, 1.7103947954344795E9, 0.0, 2024-03-13 22:39:55.434
22.0, -776.5341272996739, -387.7416077060625, -498.82224623998627, -434.16311590606347, 0.8160000387579203, 0.576000027358532, 0.3040000144392252, 0.0, 0.0, 0.0, 0.0, 0.0, 1.710394795445162E9, 0.0, 2024-03-13 22:39:55.445
22.0, -773.3178133377805, -383.2986065587029, -512.3756436794065, -442.36097660893574, 0.8160000387579203, 0.576000027358532, 0.3040000144392252, 0.0, 0.0, 0.0, 0.0, 0.0, 1.710394795445162E9, 0.0, 2024-03-13 22:39:55.445
23.0, -747.3367283456028, -376.08433954417706, -502.3676713979803, -422.53202704386786, 0.8160000387579203, 0.576000027358532, 0.3040000144392252, 0.0, 0.0, 0.0, 0.0, 0.0, 1.7103947954601667E9, 0.0, 2024-03-13 22:39:55.460
23.0, -762.87975256145, -378.09266582038254, -494.8168133874424, -427.86886428063735, 0.8160000387579203, 0.576000027358532, 0.3040000144392252, 0.0, 0.0, 0.0, 0.0, 0.0, 1.7103947954601667E9, 0.0, 2024-03-13 22:39:55.460
24.0, -763.8558664498851, -383.91195015143603, -507.4875944373198, -435.27760609285906, 0.8160000387579203, 0.576000027358532, 0.3040000144392252, 0.0, 0.0, 0.0, 0.0, 0.0, 1.7103947954760833E9, 0.0, 2024-03-13 22:39:55.476
24.0, -765.4565436309204, -384.3607381461188, -521.7179137687199, -442.5666711064987, 0.8160000387579203, 0.576000027358532, 0.3040000144392252, 0.0, 0.0, 0.0, 0.0, 0.0, 1.7103947954760833E9, 0.0, 2024-03-13 22:39:55.476
25.0, -781.1080249454826, -388.1118578016758, -514.9935736483894, -444.5226387833245, 0.8160000387579203, 0.576000027358532, 0.3040000144392252, 0.0, 0.0, 0.0, 0.0, 0.0, 1.7103947954765973E9, 0.0, 2024-03-13 22:39:55.476
25.0, -774.675397021696, -386.64955691900104, -509.79137281002477, -445.349156673532, 0.8160000387579203, 0.576000027358532, 0.3040000144392252, 0.0, 0.0, 0.0, 0.0, 0.0, 1.7103947954765973E9, 0.0, 2024-03-13 22:39:55.476
26.0, -760.6021534884349, -367.3180140480399, -506.9266094439663, -422.64048414258286, 0.8160000387579203, 0.576000027358532, 0.3040000144392252, 0.0, 0.0, 0.0, 0.0, 0.0, 1.7103947954902244E9, 0.0, 2024-03-13 22:39:55.490
26.0, -759.0014763073996, -363.2826619958505, -485.5082023977302, -412.4006380639039, 0.8160000387579203, 0.576000027358532, 0.3040000144392252, 0.0, 0.0, 0.0, 0.0, 0.0, 1.7103947954902244E9, 0.0, 2024-03-13 22:39:55.490
27.0, -772.9438233422115, -388.3325118990615, -509.4473020141013, -444.2010073871352, 0.8160000387579203, 0.576000027358532, 0.3040000144392252, 0.0, 0.0, 0.0, 0.0, 0.0, 1.710394795505906E9, 0.0, 2024-03-13 22:39:55.505
27.0, -768.4148044958711, -385.2919732350856, -518.460460907314, -440.2928119334392, 0.8160000387579203, 0.576000027358532, 0.3040000144392252, 0.0, 0.0, 0.0, 0.0, 0.0, 1.710394795505906E9, 0.0, 2024-03-13 22:39:55.505
28.0, -763.5828537531197, -375.1493645552546, -504.05062637804076, -426.46640179725364, 0.8160000387579203, 0.576000027358532, 0.3040000144392252, 0.0, 0.0, 0.0, 0.0, 0.0, 1.7103947955068636E9, 0.0, 2024-03-13 22:39:55.506
28.0, -788.3671707594767, -397.9403148852289, -505.68870255863294, -441.2016076226719, 0.8160000387579203, 0.576000027358532, 0.3040000144392252, 0.0, 0.0, 0.0, 0.0, 0.0, 1.7103947955068636E9, 0.0, 2024-03-13 22:39:55.506
29.0, -786.4860010817647, -390.20246187690645, -507.6371904355474, -440.05719823623076, 0.8160000387579203, 0.576000027358532, 0.3040000144392252, 0.0, 0.0, 0.0, 0.0, 0.0, 1.7103947955204613E9, 0.0, 2024-03-13 22:39:55.520
29.0, -770.0154816769063, -383.89699055161327, -517.3160515208729, -432.7344741229899, 0.8160000387579203, 0.576000027358532, 0.3040000144392252, 0.0, 0.0, 0.0, 0.0, 0.0, 1.7103947955204613E9, 0.0, 2024-03-13 22:39:55.520
30.0, -776.1526575041935, -389.3011459875852, -510.6403300999664, -437.1550358706154, 0.8160000387579203, 0.576000027358532, 0.3200000151991844, 0.0, 0.0, 0.0, 0.0, 0.0, 1.7103947955362597E9, 0.0, 2024-03-13 22:39:55.536
30.0, -773.1682173395529, -388.34747149888426, -495.6208918779157, -430.5092336493544, 0.8160000387579203, 0.576000027358532, 0.3200000151991844, 0.0, 0.0, 0.0, 0.0, 0.0, 1.7103947955362597E9, 0.0, 2024-03-13 22:39:55.536
31.0, -762.3524266676977, -373.8366596708074, -504.01322737848386, -421.2529812590219, 0.8160000387579203, 0.576000027358532, 0.3200000151991844, 0.0, 0.0, 0.0, 0.0, 0.0, 1.7103947955367987E9, 0.0, 2024-03-13 22:39:55.536
31.0, -768.3774054963142, -376.5967058381066, -497.5170211554505, -428.9197761681862, 0.8160000387579203, 0.576000027358532, 0.3200000151991844, 0.0, 0.0, 0.0, 0.0, 0.0, 1.7103947955367987E9, 0.0, 2024-03-13 22:39:55.536
32.0, -774.1144120283425, -383.7361748535186, -493.49662870308384, -430.60647104820237, 0.8160000387579203, 0.576000027358532, 0.3200000151991844, 0.0, 0.0, 0.0, 0.0, 0.0, 1.7103947955501707E9, 0.0, 2024-03-13 22:39:55.550
32.0, -766.2718418212608, -380.15709059592336, -508.23931432841346, -432.8578908215277, 0.8160000387579203, 0.576000027358532, 0.3200000151991844, 0.0, 0.0, 0.0, 0.0, 0.0, 1.7103947955501707E9, 0.0, 2024-03-13 22:39:55.550
33.0, -766.2007837221026, -374.82025335915387, -491.26390842953697, -420.43020326877013, 0.8160000387579203, 0.576000027358532, 0.3200000151991844, 0.0, 0.0, 0.0, 0.0, 0.0, 1.710394795565852E9, 0.0, 2024-03-13 22:39:55.565
33.0, -765.5837002294138, -383.0293337618932, -493.57142670219764, -431.032819643151, 0.8160000387579203, 0.576000027358532, 0.3200000151991844, 0.0, 0.0, 0.0, 0.0, 0.0, 1.710394795565852E9, 0.0, 2024-03-13 22:39:55.565
34.0, -770.7522419681773, -386.4850013209507, -500.23966832319275, -429.64157685963437, 0.8160000387579203, 0.576000027358532, 0.3200000151991844, 0.0, 0.0, 0.0, 0.0, 0.0, 1.7103947955665555E9, 0.0, 2024-03-13 22:39:55.566
34.0, -766.5859934175387, -377.5840394264087, -501.1746433121152, -421.5446934555657, 0.8160000387579203, 0.576000027358532, 0.3200000151991844, 0.0, 0.0, 0.0, 0.0, 0.0, 1.7103947955665555E9, 0.0, 2024-03-13 22:39:55.566
35.0, -790.4054162353277, -390.2211613766849, -509.16306961746886, -434.675482199993, 0.8160000387579203, 0.576000027358532, 0.3200000151991844, 0.0, 0.0, 0.0, 0.0, 0.0, 1.7103947955965843E9, 0.0, 2024-03-13 22:39:55.596
35.0, -787.0769052747637, -394.86611712165177, -509.98210770776495, -445.06492427689955, 0.8160000387579203, 0.576000027358532, 0.3200000151991844, 0.0, 0.0, 0.0, 0.0, 0.0, 1.7103947955965843E9, 0.0, 2024-03-13 22:39:55.596
36.0, -763.2574824569747, -375.53831415064633, -494.7457552882843, -421.42875655693933, 0.8160000387579203, 0.576000027358532, 0.3200000151991844, 0.0, 0.0, 0.0, 0.0, 0.0, 1.710394795597361E9, 0.0, 2024-03-13 22:39:55.597
36.0, -756.7089176345617, -378.1038855202496, -496.6194451660849, -427.34527828684077, 0.8160000387579203, 0.576000027358532, 0.3200000151991844, 0.0, 0.0, 0.0, 0.0, 0.0, 1.710394795597361E9, 0.0, 2024-03-13 22:39:55.597
37.0, -778.1647236803547, -397.480307190679, -496.72416236484423, -440.2217538342811, 0.8160000387579203, 0.576000027358532, 0.3200000151991844, 0.0, 0.0, 0.0, 0.0, 0.0, 1.7103947955983253E9, 0.0, 2024-03-13 22:39:55.598
37.0, -762.0494947712868, -386.64955691900104, -494.82055328739807, -427.68186928285286, 0.8160000387579203, 0.576000027358532, 0.3200000151991844, 0.0, 0.0, 0.0, 0.0, 0.0, 1.7103947955983253E9, 0.0, 2024-03-13 22:39:55.598
38.0, -759.5437618009746, -375.94596324581653, -486.44691728660837, -414.2518885419704, 0.8160000387579203, 0.576000027358532, 0.3200000151991844, 0.0, 0.0, 0.0, 0.0, 0.0, 1.7103947956103082E9, 0.0, 2024-03-13 22:39:55.610
38.0, -783.3781442185864, -393.934882032685, -498.91200383892283, -431.45916823809966, 0.8160000387579203, 0.576000027358532, 0.3200000151991844, 0.0, 0.0, 0.0, 0.0, 0.0, 1.7103947956103082E9, 0.0, 2024-03-13 22:39:55.610
39.0, -774.9820688180625, -384.94790243916214, -511.8258783859201, -432.4390220264904, 0.8160000387579203, 0.576000027358532, 0.3200000151991844, 0.0, 0.0, 0.0, 0.0, 0.0, 1.710394795625821E9, 0.0, 2024-03-13 22:39:55.625
39.0, -770.8419995671138, -377.4344434281811, -504.46201537316665, -422.3001532466151, 0.8160000387579203, 0.576000027358532, 0.3200000151991844, 0.0, 0.0, 0.0, 0.0, 0.0, 1.710394795625821E9, 0.0, 2024-03-13 22:39:55.625
40.0, -785.4837078936398, -392.3005457520485, -496.5072481674142, -431.09639794239774, 0.8160000387579203, 0.576000027358532, 0.3200000151991844, 0.0, 0.0, 0.0, 0.0, 0.0, 1.7103947956266491E9, 0.0, 2024-03-13 22:39:55.626
40.0, -770.5577671704814, -387.8912037042901, -488.81801385851577, -427.7491874820553, 0.8160000387579203, 0.576000027358532, 0.3200000151991844, 0.0, 0.0, 0.0, 0.0, 0.0, 1.7103947956266491E9, 0.0, 2024-03-13 22:39:55.626
41.0, -781.6166513394564, -377.79721372388303, -504.8060861690901, -427.72300818236545, 0.8160000387579203, 0.576000027358532, 0.3200000151991844, 0.0, 0.0, 0.0, 0.0, 0.0, 1.710394795640139E9, 0.0, 2024-03-13 22:39:55.640
41.0, -768.4709029952064, -378.08144612051547, -496.6568441656418, -424.6188912191428, 0.8160000387579203, 0.576000027358532, 0.3200000151991844, 0.0, 0.0, 0.0, 0.0, 0.0, 1.710394795640139E9, 0.0, 2024-03-13 22:39:55.640
42.0, -768.57188029401, -380.35156539361924, -492.2811612174846, -430.27361995214596, 0.8160000387579203, 0.576000027358532, 0.3200000151991844, 0.0, 0.0, 0.0, 0.0, 0.0, 1.710394795656182E9, 0.0, 2024-03-13 22:39:55.656
42.0, -750.9831308024004, -365.67245806753635, -489.34159985231236, -414.8801917345263, 0.8160000387579203, 0.576000027358532, 0.3200000151991844, 0.0, 0.0, 0.0, 0.0, 0.0, 1.710394795656182E9, 0.0, 2024-03-13 22:39:55.656
43.0, -760.1720649935305, -376.4396300399676, -494.6933966889046, -421.08468576101586, 0.8160000387579203, 0.576000027358532, 0.3200000151991844, 0.0, 0.0, 0.0, 0.0, 0.0, 1.7103947956567233E9, 0.0, 2024-03-13 22:39:55.656
43.0, -771.8966513546184, -381.5558131793514, -492.0006687208079, -431.72844103490934, 0.8160000387579203, 0.576000027358532, 0.3200000151991844, 0.0, 0.0, 0.0, 0.0, 0.0, 1.7103947956567233E9, 0.0, 2024-03-13 22:39:55.656
44.0, -765.0900334352627, -384.069025949575, -497.6254782541655, -427.64821018325165, 0.8160000387579203, 0.576000027358532, 0.3200000151991844, 0.0, 0.0, 0.0, 0.0, 0.0, 1.7103947956707861E9, 0.0, 2024-03-13 22:39:55.670
44.0, -748.7616302287206, -375.2054630545899, -493.94541669776663, -419.4017307809554, 0.8160000387579203, 0.576000027358532, 0.3200000151991844, 0.0, 0.0, 0.0, 0.0, 0.0, 1.7103947956707861E9, 0.0, 2024-03-13 22:39:55.670
45.0, -763.7885482506827, -388.3287719991058, -500.16487032407895, -435.1878484939225, 0.8160000387579203, 0.576000027358532, 0.3200000151991844, 0.0, 0.0, 0.0, 0.0, 0.0, 1.7103947956861584E9, 0.0, 2024-03-13 22:39:55.686
45.0, -780.1431307569146, -402.25241953413934, -519.0251858006231, -450.11004931712523, 0.8160000387579203, 0.576000027358532, 0.3200000151991844, 0.0, 0.0, 0.0, 0.0, 0.0, 1.7103947956861584E9, 0.0, 2024-03-13 22:39:55.686
46.0, -776.7547813970596, -396.5303726019338, -523.2325732507743, -445.5324117713608, 0.8160000387579203, 0.576000027358532, 0.3200000151991844, 0.0, 0.0, 0.0, 0.0, 0.0, 1.7103947956868048E9, 0.0, 2024-03-13 22:39:55.686
46.0, -780.7564743496478, -384.708548841998, -499.94421622669324, -432.1435699299909, 0.8160000387579203, 0.576000027358532, 0.3200000151991844, 0.0, 0.0, 0.0, 0.0, 0.0, 1.7103947956868048E9, 0.0, 2024-03-13 22:39:55.686
47.0, -778.3217994784936, -389.61903748381883, -490.20177684212103, -434.97841409640387, 0.8160000387579203, 0.576000027358532, 0.3200000151991844, 0.0, 0.0, 0.0, 0.0, 0.0, 1.7103947957001576E9, 0.0, 2024-03-13 22:39:55.700
47.0, -751.4169591972604, -376.5518270386383, -484.6854244074784, -417.97308899788186, 0.8160000387579203, 0.576000027358532, 0.3200000151991844, 0.0, 0.0, 0.0, 0.0, 0.0, 1.7103947957001576E9, 0.0, 2024-03-13 22:39:55.700
48.0, -766.1708645224571, -375.168064055033, -496.52594766719267, -421.7840470527299, 0.8160000387579203, 0.576000027358532, 0.3200000151991844, 0.0, 0.0, 0.0, 0.0, 0.0, 1.7103947957159293E9, 0.0, 2024-03-13 22:39:55.715
48.0, -774.6529576219618, -390.46425487380475, -495.12722508376464, -432.0837315306999, 0.8160000387579203, 0.576000027358532, 0.3200000151991844, 0.0, 0.0, 0.0, 0.0, 0.0, 1.7103947957159293E9, 0.0, 2024-03-13 22:39:55.715
49.0, -774.0508337290958, -391.57500516064465, -507.4352358379401, -434.50344680203125, 0.8160000387579203, 0.576000027358532, 0.3200000151991844, 0.0, 0.0, 0.0, 0.0, 0.0, 1.7103947957166069E9, 0.0, 2024-03-13 22:39:55.716
49.0, -752.3781134858727, -377.83461272343993, -493.01044170884416, -427.31535908719525, 0.8160000387579203, 0.576000027358532, 0.3200000151991844, 0.0, 0.0, 0.0, 0.0, 0.0, 1.7103947957166069E9, 0.0, 2024-03-13 22:39:55.716
50.0, -768.7401757920161, -378.72096901293844, -482.60230013215914, -426.0026542027481, 0.8160000387579203, 0.576000027358532, 0.3200000151991844, 0.0, 0.0, 0.0, 0.0, 0.0, 1.710394795730089E9, 0.0, 2024-03-13 22:39:55.730
50.0, -758.5489484127611, -389.09919138997793, -500.41918352106586, -432.854150921572, 0.8160000387579203, 0.576000027358532, 0.3200000151991844, 0.0, 0.0, 0.0, 0.0, 0.0, 1.710394795730089E9, 0.0, 2024-03-13 22:39:55.730
51.0, -754.1134270653129, -370.9457170050591, -493.96785609750077, -417.60657880222425, 0.8160000387579203, 0.576000027358532, 0.3200000151991844, 0.0, 0.0, 0.0, 0.0, 0.0, 1.710394795745901E9, 0.0, 2024-03-13 22:39:55.745
51.0, -756.2676094397902, -372.0228081922978, -494.3680253927596, -421.2529812590219, 0.8160000387579203, 0.576000027358532, 0.3200000151991844, 0.0, 0.0, 0.0, 0.0, 0.0, 1.710394795745901E9, 0.0, 2024-03-13 22:39:55.745
52.0, -776.0853393049911, -387.8837239043787, -509.57445861259475, -438.77067265147343, 0.8160000387579203, 0.576000027358532, 0.3200000151991844, 0.0, 0.0, 0.0, 0.0, 0.0, 1.710394795746616E9, 0.0, 2024-03-13 22:39:55.746
52.0, -752.4903104845434, -369.7751283189282, -506.7844932456501, -428.0408996785991, 0.8160000387579203, 0.576000027358532, 0.3200000151991844, 0.0, 0.0, 0.0, 0.0, 0.0, 1.710394795746616E9, 0.0, 2024-03-13 22:39:55.746
53.0, -753.4065859736875, -372.5015153866261, -493.45548980357125, -414.3940047402866, 0.8160000387579203, 0.576000027358532, 0.3200000151991844, 0.0, 0.0, 0.0, 0.0, 0.0, 1.7103947957601137E9, 0.0, 2024-03-13 22:39:55.760
53.0, -761.8886790731922, -374.3714653644711, -479.14663257310167, -415.8824849226512, 0.8160000387579203, 0.576000027358532, 0.3200000151991844, 0.0, 0.0, 0.0, 0.0, 0.0, 1.7103947957601137E9, 0.0, 2024-03-13 22:39:55.760
54.0, -758.9491177080199, -358.8321810485795, -472.4933505519293, -405.67629794357345, 0.8160000387579203, 0.576000027358532, 0.3200000151991844, 0.0, 0.0, 0.0, 0.0, 0.0, 1.710394795775856E9, 0.0, 2024-03-13 22:39:55.775
54.0, -745.2910030698404, -356.7565365731716, -465.77649023151025, -386.18393937451765, 0.8160000387579203, 0.576000027358532, 0.3200000151991844, 0.0, 0.0, 0.0, 0.0, 0.0, 1.710394795775856E9, 0.0, 2024-03-13 22:39:55.775
55.0, -757.3708799267188, -368.63445883244276, -480.0217691627331, -414.0349743445404, 0.8160000387579203, 0.576000027358532, 0.3200000151991844, 0.0, 0.0, 0.0, 0.0, 0.0, 1.7103947957766082E9, 0.0, 2024-03-13 22:39:55.776
55.0, -778.8154662726447, -383.635197554715, -505.3595913625322, -438.87164995027706, 0.8160000387579203, 0.576000027358532, 0.3200000151991844, 0.0, 0.0, 0.0, 0.0, 0.0, 1.7103947957766082E9, 0.0, 2024-03-13 22:39:55.776
56.0, -751.9704643907025, -374.4275638638064, -490.6580446367152, -416.6603841134347, 0.8160000387579203, 0.576000027358532, 0.3200000151991844, 0.0, 0.0, 0.0, 0.0, 0.0, 1.7103947957901468E9, 0.0, 2024-03-13 22:39:55.790
56.0, -773.119598640129, -381.12946458440274, -493.45922970352694, -424.5814922195859, 0.8160000387579203, 0.576000027358532, 0.3200000151991844, 0.0, 0.0, 0.0, 0.0, 0.0, 1.7103947957901468E9, 0.0, 2024-03-13 22:39:55.790
57.0, -777.6710568862036, -379.9177369987592, -473.88833323540166, -423.23138833558187, 0.8160000387579203, 0.576000027358532, 0.3200000151991844, 0.0, 0.0, 0.0, 0.0, 0.0, 1.7103947958061628E9, 0.0, 2024-03-13 22:39:55.806
57.0, -781.1080249454826, -385.9651552271098, -499.71608232939616, -431.3619308392517, 0.8160000387579203, 0.576000027358532, 0.3200000151991844, 0.0, 0.0, 0.0, 0.0, 0.0, 1.7103947958061628E9, 0.0, 2024-03-13 22:39:55.806
58.0, -786.9497486762702, -383.53422025591135, -492.7411689120345, -421.7653475529514, 0.8160000387579203, 0.576000027358532, 0.3200000151991844, 0.0, 0.0, 0.0, 0.0, 0.0, 1.7103947958067558E9, 0.0, 2024-03-13 22:39:55.806
58.0, -795.009233080782, -401.4932198431343, -492.445716815535, -433.05610551917925, 0.8160000387579203, 0.576000027358532, 0.3200000151991844, 0.0, 0.0, 0.0, 0.0, 0.0, 1.7103947958067558E9, 0.0, 2024-03-13 22:39:55.806
59.0, -781.7961665373296, -387.09834491368383, -492.2961208173074, -428.90481656836346, 0.8160000387579203, 0.576000027358532, 0.3200000151991844, 0.0, 0.0, 0.0, 0.0, 0.0, 1.710394795820181E9, 0.0, 2024-03-13 22:39:55.820
59.0, -770.0715801762417, -385.76320062950253, -487.56140747340396, -421.57835255516693, 0.8160000387579203, 0.576000027358532, 0.3200000151991844, 0.0, 0.0, 0.0, 0.0, 0.0, 1.710394795820181E9, 0.0, 2024-03-13 22:39:55.820
60.0, -783.3818841185421, -396.13394320663065, -496.1332581718452, -436.773566075135, 0.8160000387579203, 0.576000027358532, 0.3200000151991844, 0.0, 0.0, 0.0, 0.0, 0.0, 1.7103947958522356E9, 0.0, 2024-03-13 22:39:55.852
60.0, -796.6585289612412, -405.199460699223, -499.72356212930754, -442.4095953083597, 0.8160000387579203, 0.576000027358532, 0.3200000151991844, 0.0, 0.0, 0.0, 0.0, 0.0, 1.7103947958522356E9, 0.0, 2024-03-13 22:39:55.852
61.0, -791.2057548258454, -397.36063039209694, -510.94700189633295, -442.9705803017132, 0.8160000387579203, 0.576000027358532, 0.3200000151991844, 0.0, 0.0, 0.0, 0.0, 0.0, 1.7103947958529656E9, 0.0, 2024-03-13 22:39:55.852
61.0, -793.3300180006772, -416.4939585654065, -513.4938737661578, -451.9276406955905, 0.8160000387579203, 0.576000027358532, 0.3200000151991844, 0.0, 0.0, 0.0, 0.0, 0.0, 1.7103947958529656E9, 0.0, 2024-03-13 22:39:55.852
62.0, -799.0445851329714, -408.0156053658575, -505.26983376359567, -445.4613536722027, 0.8160000387579203, 0.576000027358532, 0.3200000151991844, 0.0, 0.0, 0.0, 0.0, 0.0, 1.71039479585386E9, 0.0, 2024-03-13 22:39:55.853
62.0, -782.4880480291322, -398.46016097906977, -496.4810688677244, -434.6717423000373, 0.8160000387579203, 0.576000027358532, 0.3200000151991844, 0.0, 0.0, 0.0, 0.0, 0.0, 1.71039479585386E9, 0.0, 2024-03-13 22:39:55.853
63.0, -781.3772977422923, -385.64352383092046, -485.96447019232437, -421.64567075436935, 0.8160000387579203, 0.576000027358532, 0.3200000151991844, 0.0, 0.0, 0.0, 0.0, 0.0, 1.7103947958546708E9, 0.0, 2024-03-13 22:39:55.854
63.0, -775.9245236068964, -386.2568674236536, -488.6609380603768, -427.5547126843594, 0.8160000387579203, 0.576000027358532, 0.3200000151991844, 0.0, 0.0, 0.0, 0.0, 0.0, 1.7103947958546708E9, 0.0, 2024-03-13 22:39:55.854
64.0, -764.6075863409787, -378.60877201426774, -493.4068711041473, -425.7820001053624, 0.8160000387579203, 0.576000027358532, 0.3200000151991844, 0.0, 0.0, 0.0, 0.0, 0.0, 1.710394795865202E9, 0.0, 2024-03-13 22:39:55.865
64.0, -771.672257357277, -386.23442802391946, -495.6208918779157, -425.5950051075779, 0.8160000387579203, 0.576000027358532, 0.3200000151991844, 0.0, 0.0, 0.0, 0.0, 0.0, 1.710394795865202E9, 0.0, 2024-03-13 22:39:55.865
65.0, -781.3735578423366, -394.02089973166585, -496.87001846311614, -438.0750512597151, 0.8160000387579203, 0.576000027358532, 0.3200000151991844, 0.0, 0.0, 0.0, 0.0, 0.0, 1.7103947958801625E9, 0.0, 2024-03-13 22:39:55.880
65.0, -790.3380980361253, -392.8166519459337, -499.68242322979495, -439.21572074620053, 0.8160000387579203, 0.576000027358532, 0.3200000151991844, 0.0, 0.0, 0.0, 0.0, 0.0, 1.7103947958801625E9, 0.0, 2024-03-13 22:39:55.880
66.0, -777.8393523842096, -381.31271968223155, -503.38118428597227, -432.1847088295035, 0.8160000387579203, 0.576000027358532, 0.3200000151991844, 0.0, 0.0, 0.0, 0.0, 0.0, 1.7103947958959455E9, 0.0, 2024-03-13 22:39:55.895
66.0, -785.3415916953236, -391.5899647604674, -493.9940353971906, -439.47377384314314, 0.8160000387579203, 0.576000027358532, 0.3200000151991844, 0.0, 0.0, 0.0, 0.0, 0.0, 1.7103947958959455E9, 0.0, 2024-03-13 22:39:55.895
67.0, -791.6470630206168, -399.50359306670725, -497.1355513599701, -440.633142829407, 0.8160000387579203, 0.576000027358532, 0.3200000151991844, 0.0, 0.0, 0.0, 0.0, 0.0, 1.7103947958966627E9, 0.0, 2024-03-13 22:39:55.896
67.0, -789.6275170445442, -398.4190220795572, -511.8557975855656, -442.080484112259, 0.8160000387579203, 0.576000027358532, 0.3200000151991844, 0.0, 0.0, 0.0, 0.0, 0.0, 1.7103947958966627E9, 0.0, 2024-03-13 22:39:55.896
68.0, -785.8389983894303, -395.49816021416336, -510.69268869934604, -444.2234467868693, 0.8160000387579203, 0.576000027358532, 0.3200000151991844, 0.0, 0.0, 0.0, 0.0, 0.0, 1.7103947959101741E9, 0.0, 2024-03-13 22:39:55.910
68.0, -802.4366743927822, -403.7371598165482, -501.49253480834886, -446.99471265403554, 0.8160000387579203, 0.576000027358532, 0.3200000151991844, 0.0, 0.0, 0.0, 0.0, 0.0, 1.7103947959101741E9, 0.0, 2024-03-13 22:39:55.910
69.0, -798.2143273428082, -399.1557823708281, -514.7243008515798, -450.9664864069782, 0.8160000387579203, 0.576000027358532, 0.3200000151991844, 0.0, 0.0, 0.0, 0.0, 0.0, 1.7103947959259028E9, 0.0, 2024-03-13 22:39:55.925
69.0, -779.3876709658653, -387.13574391324073, -505.61390455951914, -438.329364456702, 0.8160000387579203, 0.576000027358532, 0.3200000151991844, 0.0, 0.0, 0.0, 0.0, 0.0, 1.7103947959259028E9, 0.0, 2024-03-13 22:39:55.925
70.0, -792.3127652127296, -398.9239085735753, -509.76893341029063, -446.10461646458134, 0.8160000387579203, 0.576000027358532, 0.3200000151991844, 0.0, 0.0, 0.0, 0.0, 0.0, 1.7103947959267623E9, 0.0, 2024-03-13 22:39:55.926
70.0, -785.4276093943045, -385.3630313342437, -501.2531812111847, -442.1104033119045, 0.8160000387579203, 0.576000027358532, 0.3200000151991844, 0.0, 0.0, 0.0, 0.0, 0.0, 1.7103947959267623E9, 0.0, 2024-03-13 22:39:55.926
