%OpenBCI Raw EXG Data
%Number of channels = 4
%Sample Rate = 200 Hz
%Board = OpenBCI_GUI$BoardGanglionBLE
Sample Index, EXG Channel 0, EXG Channel 1, EXG Channel 2, EXG Channel 3, Accel Channel 0, Accel Channel 1, Accel Channel 2, Other, Other, Other, Other, Other, Timestamp, Other, Timestamp (Formatted)
2.0, -18.841615976765752, -21.003278151154518, -21.508164645172656, -22.832089229486883, 0.7040000334382057, 0.0, 0.0, 0.0, 0.0, 0.0, 0.0, 0.0, 1.710395206828944E9, 0.0, 2024-03-13 22:46:46.828
2.0, -2.288818772882223, -4.102670251391828, 3.7212004559114575, -0.28049249667674303, 0.7040000334382057, 0.0, 0.0, 0.0, 0.0, 0.0, 0.0, 0.0, 1.710395206828944E9, 0.0, 2024-03-13 22:46:46.828
3.0, 1.851250478066504, -2.7862254669889808, 19.211866072379053, 3.4781069587916136, 0.7040000334382057, 0.0, 0.0, 0.0, 0.0, 0.0, 0.0, 0.0, 1.7103952068419006E9, 0.0, 2024-03-13 22:46:46.841
3.0, 9.734959584660828, 6.073597528040409, 5.456514035351574, 8.07070410437882, 0.7040000334382057, 0.0, 0.0, 0.0, 0.0, 0.0, 0.0, 0.0, 1.7103952068419006E9, 0.0, 2024-03-13 22:46:46.841
4.0, 5.920261629857123, 7.019792216829956, -2.894682565703988, 1.3426240840926766, 0.7040000334382057, 0.0, 0.0, 0.0, 0.0, 0.0, 0.0, 0.0, 1.7103952068427243E9, 0.0, 2024-03-13 22:46:46.842
4.0, -12.46882645227015, -11.885402059182525, -15.894574811682105, -15.905794511549175, 0.7040000334382057, 0.0, 0.0, 0.0, 0.0, 0.0, 0.0, 0.0, 1.7103952068427243E9, 0.0, 2024-03-13 22:46:46.842
5.0, -11.328156965784729, -7.449880711734295, -29.02162365615368, -17.136221596971154, 0.7040000334382057, 0.0, 0.0, 0.0, 0.0, 0.0, 0.0, 0.0, 1.7103952068565447E9, 0.0, 2024-03-13 22:46:46.856
5.0, -1.4735205825418234, 9.061777592636645, -11.189780667424202, 2.5992304692044854, 0.7040000334382057, 0.0, 0.0, 0.0, 0.0, 0.0, 0.0, 0.0, 1.7103952068565447E9, 0.0, 2024-03-13 22:46:46.856
6.0, 1.2977452846243978, 1.3949826834723353, 4.869349742308259, 7.188087714836001, 0.7040000334382057, 0.0, 0.0, 0.0, 0.0, 0.0, 0.0, 0.0, 1.7103952068719358E9, 0.0, 2024-03-13 22:46:46.871
6.0, -24.283170412294567, -32.47355131525546, -20.636767955496907, -24.10365521442145, 0.7040000334382057, 0.0, 0.0, 0.0, 0.0, 0.0, 0.0, 0.0, 1.7103952068719358E9, 0.0, 2024-03-13 22:46:46.871
7.0, -2.8423239663243294, 2.0008464762941003, -4.787071943283081, -2.696467868052423, 0.7040000334382057, 0.0, 0.0, 0.0, 0.0, 0.0, 0.0, 0.0, 1.710395206872645E9, 0.0, 2024-03-13 22:46:46.872
7.0, -9.454467087984085, -10.153828379698098, -7.176868014968932, -8.42599460016936, 0.7040000334382057, 0.0, 0.0, 0.0, 0.0, 0.0, 0.0, 0.0, 1.710395206872645E9, 0.0, 2024-03-13 22:46:46.872
8.0, -9.589103486388922, -13.568357039242983, 14.249018831178546, -1.484740282408893, 0.7040000334382057, 0.0, 0.0, 0.0, 0.0, 0.0, 0.0, 0.0, 1.7103952068862677E9, 0.0, 2024-03-13 22:46:46.886
8.0, 17.872981888242066, 7.397522112354636, 10.924247770570219, 8.777545196004212, 0.7040000334382057, 0.0, 0.0, 0.0, 0.0, 0.0, 0.0, 0.0, 1.7103952068862677E9, 0.0, 2024-03-13 22:46:46.886
9.0, -4.226086949929595, -4.573897645808756, -4.9703270411118865, -5.075044239871204, 0.7040000334382057, 0.0, 0.0, 0.0, 0.0, 0.0, 0.0, 0.0, 1.710395206901938E9, 0.0, 2024-03-13 22:46:46.901
9.0, -17.035244298167527, -13.628195438534021, -3.7660792553797364, -13.527218139730394, 0.7040000334382057, 0.0, 0.0, 0.0, 0.0, 0.0, 0.0, 0.0, 1.710395206901938E9, 0.0, 2024-03-13 22:46:46.901
10.0, -25.81652939412743, -22.353382035158575, -23.32201612368226, -23.509011121466756, 0.7040000334382057, 0.0, 0.33600001595914364, 0.0, 0.0, 0.0, 0.0, 0.0, 1.7103952069026475E9, 0.0, 2024-03-13 22:46:46.902
10.0, -9.936914182268083, -9.417068088427186, -11.118722568266094, -9.316090789623559, 0.7040000334382057, 0.0, 0.33600001595914364, 0.0, 0.0, 0.0, 0.0, 0.0, 1.7103952069026475E9, 0.0, 2024-03-13 22:46:46.902
11.0, 1.1406694864854217, 6.365309724584222, 15.513105016201735, 6.084817227907479, 0.7040000334382057, 0.7040000334382057, 0.33600001595914364, 0.0, 0.0, 0.0, 0.0, 0.0, 1.7103952069165337E9, 0.0, 2024-03-13 22:46:46.916
11.0, -17.891681388020515, -20.59188915602863, 4.962847241200507, -11.66100806184113, 0.7040000334382057, 0.7040000334382057, 0.33600001595914364, 0.0, 0.0, 0.0, 0.0, 0.0, 1.7103952069165337E9, 0.0, 2024-03-13 22:46:46.916
12.0, -23.74088491871953, -23.931619816459715, -27.884694069623947, -20.808803353458643, 0.6880000326782465, 0.7040000334382057, 0.33600001595914364, 0.0, 0.0, 0.0, 0.0, 0.0, 1.7103952069318976E9, 0.0, 2024-03-13 22:46:46.931
12.0, -9.705040385015309, -7.431181211955845, 2.41223547141999, -5.789365131407976, 0.6880000326782465, 0.7040000334382057, 0.33600001595914364, 0.0, 0.0, 0.0, 0.0, 0.0, 1.7103952069318976E9, 0.0, 2024-03-13 22:46:46.931
13.0, -12.005078857764602, -16.07782990951091, -13.25794534292072, -19.140807973220944, 0.6880000326782465, 0.7040000334382057, 0.33600001595914364, 0.0, 0.0, 0.0, 0.0, 0.0, 1.7103952069327135E9, 0.0, 2024-03-13 22:46:46.932
13.0, -15.617822214961052, -11.552550963126123, -10.03415158111602, -12.352889553643763, 0.6880000326782465, 0.7040000334382057, 0.33600001595914364, 0.0, 0.0, 0.0, 0.0, 0.0, 1.7103952069327135E9, 0.0, 2024-03-13 22:46:46.932
14.0, -32.54086951445788, -31.79662942327559, -29.76212384738028, -26.59442858491093, 0.6880000326782465, 0.7040000334382057, 0.33600001595914364, 0.0, 0.0, 0.0, 0.0, 0.0, 1.7103952069462655E9, 0.0, 2024-03-13 22:46:46.946
14.0, -1.4548210827633739, -1.3762831836938858, 8.05200460460037, -2.4421546710655093, 0.6880000326782465, 0.7040000334382057, 0.33600001595914364, 0.0, 0.0, 0.0, 0.0, 0.0, 1.7103952069462655E9, 0.0, 2024-03-13 22:46:46.946
15.0, -3.62022315710783, -8.4858329994604, -9.596583286300302, -8.86356289498508, 0.6880000326782465, 0.7040000334382057, 0.33600001595914364, 0.0, 0.0, 0.0, 0.0, 0.0, 1.7103952069622865E9, 0.0, 2024-03-13 22:46:46.962
15.0, 8.702747196890414, 5.198460938408971, -6.511165822856128, 1.0396921876817942, 0.6880000326782465, 0.7040000334382057, 0.33600001595914364, 0.0, 0.0, 0.0, 0.0, 0.0, 1.7103952069622865E9, 0.0, 2024-03-13 22:46:46.962
16.0, -3.938114653341472, -6.765479019843042, -7.565817610360682, -12.614682550542057, 0.6880000326782465, 0.7040000334382057, 0.33600001595914364, 0.0, 0.0, 0.0, 0.0, 0.0, 1.7103952069631362E9, 0.0, 2024-03-13 22:46:46.963
16.0, -1.4735205825418234, -7.808911107480526, -3.463147358968854, -4.241046549752355, 0.6880000326782465, 0.7040000334382057, 0.33600001595914364, 0.0, 0.0, 0.0, 0.0, 0.0, 1.7103952069631362E9, 0.0, 2024-03-13 22:46:46.963
17.0, -14.563170427456498, -20.86490185279399, -16.94922659918666, -12.689480549655855, 0.6880000326782465, 0.7040000334382057, 0.33600001595914364, 0.0, 0.0, 0.0, 0.0, 0.0, 1.710395206976637E9, 0.0, 2024-03-13 22:46:46.976
17.0, -6.069857628084719, -9.708780284970999, -7.835090407170355, -8.915921494364738, 0.6880000326782465, 0.7040000334382057, 0.33600001595914364, 0.0, 0.0, 0.0, 0.0, 0.0, 1.710395206976637E9, 0.0, 2024-03-13 22:46:46.976
18.0, -5.497652934864163, -10.176267779432237, 1.974667176604271, -9.525525187142193, 0.6880000326782465, 0.7040000334382057, 0.33600001595914364, 0.0, 0.0, 0.0, 0.0, 0.0, 1.710395206992298E9, 0.0, 2024-03-13 22:46:46.992
18.0, -18.665840678848326, -12.44638705253601, -11.773205060511827, -13.774051536805928, 0.6880000326782465, 0.7040000334382057, 0.33600001595914364, 0.0, 0.0, 0.0, 0.0, 0.0, 1.710395206992298E9, 0.0, 2024-03-13 22:46:46.992
19.0, -8.657868397422135, -10.03415158111602, -7.23296651430428, -4.854390142485499, 0.6880000326782465, 0.7040000334382057, 0.33600001595914364, 0.0, 0.0, 0.0, 0.0, 0.0, 1.7103952069929512E9, 0.0, 2024-03-13 22:46:46.992
19.0, -9.005679093301296, -15.587903015315533, -20.07952286209911, -20.58814925607294, 0.6880000326782465, 0.7040000334382057, 0.33600001595914364, 0.0, 0.0, 0.0, 0.0, 0.0, 1.7103952069929512E9, 0.0, 2024-03-13 22:46:46.992
20.0, -23.75958441849798, -24.668380107730627, -23.636167719960213, -26.052143091335893, 0.6880000326782465, 0.7040000334382057, 0.35200001671910286, 0.0, 0.0, 0.0, 0.0, 0.0, 1.710395207006258E9, 0.0, 2024-03-13 22:46:47.006
20.0, -13.987225834280252, -6.720600220374763, -19.873828364536166, -13.751612137071788, 0.6880000326782465, 0.7040000334382057, 0.35200001671910286, 0.0, 0.0, 0.0, 0.0, 0.0, 1.710395207006258E9, 0.0, 2024-03-13 22:46:47.006
21.0, -24.346748711541295, -17.35687569435686, -18.695759878493845, -19.33528277091682, 0.6880000326782465, 0.7040000334382057, 0.35200001671910286, 0.0, 0.0, 0.0, 0.0, 0.0, 1.7103952070220735E9, 0.0, 2024-03-13 22:46:47.022
21.0, -8.530711798928678, -6.84775681886822, -8.310057701542974, -11.604909562505782, 0.6880000326782465, 0.7040000334382057, 0.35200001671910286, 0.0, 0.0, 0.0, 0.0, 0.0, 1.7103952070220735E9, 0.0, 2024-03-13 22:46:47.022
22.0, -8.384855700656772, -0.4338283948600292, -5.924001529812813, -2.3972758715972304, 0.7040000334382057, 0.7040000334382057, 0.35200001671910286, 0.0, 0.0, 0.0, 0.0, 0.0, 1.7103952070227132E9, 0.0, 2024-03-13 22:46:47.022
22.0, 6.877676018513739, 0.643262792378664, -2.5169526701793075, 0.564724893309176, 0.7040000334382057, 0.7040000334382057, 0.35200001671910286, 0.0, 0.0, 0.0, 0.0, 0.0, 1.7103952070227132E9, 0.0, 2024-03-13 22:46:47.022
23.0, -11.997599057853222, -7.610696409828961, -13.815190436318517, -13.871288935653865, 0.7040000334382057, 0.7040000334382057, 0.35200001671910286, 0.0, 0.0, 0.0, 0.0, 0.0, 1.7103952070363014E9, 0.0, 2024-03-13 22:46:47.036
23.0, -9.121615991927683, -9.24877259042114, -32.46981141529977, -22.08036933839321, 0.7040000334382057, 0.7040000334382057, 0.35200001671910286, 0.0, 0.0, 0.0, 0.0, 0.0, 1.7103952070363014E9, 0.0, 2024-03-13 22:46:47.036
24.0, -8.594290098175406, -10.172527879476547, -20.629288155585527, -18.8977144761011, 0.7040000334382057, 0.7040000334382057, 0.35200001671910286, 0.0, 0.0, 0.0, 0.0, 0.0, 1.710395207051941E9, 0.0, 2024-03-13 22:46:47.051
24.0, -3.6912812562659383, -20.195459760725498, -20.57692955620587, -22.87322812899947, 0.7040000334382057, 0.7040000334382057, 0.35200001671910286, 0.0, 0.0, 0.0, 0.0, 0.0, 1.710395207051941E9, 0.0, 2024-03-13 22:46:47.051
25.0, -12.236952655017376, -14.753905325196683, -20.195459760725498, -21.885894540697336, 0.7040000334382057, 0.7040000334382057, 0.35200001671910286, 0.0, 0.0, 0.0, 0.0, 0.0, 1.710395207052693E9, 0.0, 2024-03-13 22:46:47.052
25.0, -11.545071163214743, -10.116429380141199, -18.46014618128538, -12.408988052979112, 0.7040000334382057, 0.7040000334382057, 0.35200001671910286, 0.0, 0.0, 0.0, 0.0, 0.0, 1.710395207052693E9, 0.0, 2024-03-13 22:46:47.052
26.0, -5.071304339915514, -2.4458945710211992, -3.062978063710034, -3.306071560829878, 0.7040000334382057, 0.7040000334382057, 0.35200001671910286, 0.0, 0.0, 0.0, 0.0, 0.0, 1.7103952070670247E9, 0.0, 2024-03-13 22:46:47.067
26.0, -11.537591363303363, -16.9342669993639, -12.592243150807917, -11.24587916675955, 0.7040000334382057, 0.7040000334382057, 0.35200001671910286, 0.0, 0.0, 0.0, 0.0, 0.0, 1.7103952070670247E9, 0.0, 2024-03-13 22:46:47.067
27.0, -0.8115582903847098, 5.445294335484505, 3.2798922611400485, 7.752812608145177, 0.7040000334382057, 0.7040000334382057, 0.35200001671910286, 0.0, 0.0, 0.0, 0.0, 0.0, 1.7103952070821784E9, 0.0, 2024-03-13 22:46:47.082
27.0, -6.324170825071633, -6.683201220817864, -5.471473635174334, 2.9657406648620963, 0.7040000334382057, 0.7040000334382057, 0.35200001671910286, 0.0, 0.0, 0.0, 0.0, 0.0, 1.7103952070821784E9, 0.0, 2024-03-13 22:46:47.082
28.0, -1.1032704869285226, -3.822177754715085, 10.782131572254002, 5.385455936193466, 0.7040000334382057, 0.7040000334382057, 0.35200001671910286, 0.0, 0.0, 0.0, 0.0, 0.0, 1.7103952070827072E9, 0.0, 2024-03-13 22:46:47.082
28.0, 2.2738591730594635, -4.674874944612384, -7.483539811335504, 2.1093035750091076, 0.7040000334382057, 0.7040000334382057, 0.35200001671910286, 0.0, 0.0, 0.0, 0.0, 0.0, 1.7103952070827072E9, 0.0, 2024-03-13 22:46:47.082
29.0, 10.991565969772637, -0.029919199645519257, -1.4136821832507849, 5.385455936193466, 0.7040000334382057, 0.7040000334382057, 0.35200001671910286, 0.0, 0.0, 0.0, 0.0, 0.0, 1.7103952070967216E9, 0.0, 2024-03-13 22:46:47.096
29.0, -2.849803766235709, -7.550858010537922, -3.6052635572850704, -5.61732973344624, 0.7040000334382057, 0.7040000334382057, 0.35200001671910286, 0.0, 0.0, 0.0, 0.0, 0.0, 1.7103952070967216E9, 0.0, 2024-03-13 22:46:47.096
30.0, -6.107256627641618, -5.400415536016226, -4.390642547979951, -1.9634474767372012, 0.7040000334382057, 0.7040000334382057, 0.35200001671910286, 0.0, 0.0, 0.0, 0.0, 0.0, 1.7103952071122863E9, 0.0, 2024-03-13 22:46:47.112
30.0, -10.381962276995182, -8.362416300922632, -15.479445916600525, -6.997352817095816, 0.7040000334382057, 0.7040000334382057, 0.35200001671910286, 0.0, 0.0, 0.0, 0.0, 0.0, 1.7103952071122863E9, 0.0, 2024-03-13 22:46:47.112
31.0, -15.210173119790852, -14.207879931665957, -9.147795291617513, -12.319230454042554, 0.7040000334382057, 0.7040000334382057, 0.35200001671910286, 0.0, 0.0, 0.0, 0.0, 0.0, 1.7103952071129892E9, 0.0, 2024-03-13 22:46:47.112
31.0, -5.991319729015231, -20.034644062630832, -5.482693335041404, -12.10605615656823, 0.7040000334382057, 0.7040000334382057, 0.35200001671910286, 0.0, 0.0, 0.0, 0.0, 0.0, 1.7103952071129892E9, 0.0, 2024-03-13 22:46:47.112
32.0, -4.787071943283081, -5.714567132294178, -9.177714491263032, -5.449034235440195, 0.7040000334382057, 0.7040000334382057, 0.35200001671910286, 0.0, 0.0, 0.0, 0.0, 0.0, 1.7103952071262467E9, 0.0, 2024-03-13 22:46:47.126
32.0, -3.4407079592347145, -7.674274709075689, 1.0172527879476547, -6.1371758272871375, 0.7040000334382057, 0.7040000334382057, 0.35200001671910286, 0.0, 0.0, 0.0, 0.0, 0.0, 1.7103952071262467E9, 0.0, 2024-03-13 22:46:47.126
33.0, -3.504286258481443, -14.566910327412188, -1.9671873766928911, -10.572697174735367, 0.7040000334382057, 0.7040000334382057, 0.35200001671910286, 0.0, 0.0, 0.0, 0.0, 0.0, 1.7103952071419404E9, 0.0, 2024-03-13 22:46:47.141
33.0, -1.9447479769587517, -9.67512118536979, -5.097483639605343, -8.8186840955168, 0.7040000334382057, 0.7040000334382057, 0.35200001671910286, 0.0, 0.0, 0.0, 0.0, 0.0, 1.7103952071419404E9, 0.0, 2024-03-13 22:46:47.141
34.0, -15.913274311460555, -20.95839935168624, -26.661746784113348, -24.021377415396273, 0.7040000334382057, 0.7040000334382057, 0.35200001671910286, 0.0, 0.0, 0.0, 0.0, 0.0, 1.7103952071426945E9, 0.0, 2024-03-13 22:46:47.142
34.0, -3.62022315710783, -16.810850300826132, -5.740746431984007, -13.041031145490706, 0.7040000334382057, 0.7040000334382057, 0.35200001671910286, 0.0, 0.0, 0.0, 0.0, 0.0, 1.7103952071426945E9, 0.0, 2024-03-13 22:46:47.142
35.0, -6.799138119444251, -21.448326245881617, -26.22791838925332, -26.21295878943056, 0.7040000334382057, 0.7040000334382057, 0.35200001671910286, 0.0, 0.0, 0.0, 0.0, 0.0, 1.7103952071565049E9, 0.0, 2024-03-13 22:46:47.156
35.0, -22.95176602806896, -28.288603264838457, -30.801816035062075, -29.548949549905956, 0.7040000334382057, 0.7040000334382057, 0.35200001671910286, 0.0, 0.0, 0.0, 0.0, 0.0, 1.7103952071565049E9, 0.0, 2024-03-13 22:46:47.156
36.0, -1.933528277091682, -20.16554056107998, -18.97999227512628, -24.043816815130413, 0.7040000334382057, 0.7040000334382057, 0.35200001671910286, 0.0, 0.0, 0.0, 0.0, 0.0, 1.710395207171957E9, 0.0, 2024-03-13 22:46:47.171
36.0, -10.572697174735367, -25.435059598647058, -14.177960732020438, -24.447726010344923, 0.7040000334382057, 0.7040000334382057, 0.35200001671910286, 0.0, 0.0, 0.0, 0.0, 0.0, 1.710395207171957E9, 0.0, 2024-03-13 22:46:47.171
37.0, -8.44095419999212, -11.601169662550092, -11.163601367734373, -10.243585978634655, 0.7040000334382057, 0.7040000334382057, 0.35200001671910286, 0.0, 0.0, 0.0, 0.0, 0.0, 1.710395207172698E9, 0.0, 2024-03-13 22:46:47.172
37.0, -7.857529806904495, -13.385101941414177, -9.933174282312393, -10.419361276552081, 0.7040000334382057, 0.7040000334382057, 0.35200001671910286, 0.0, 0.0, 0.0, 0.0, 0.0, 1.710395207172698E9, 0.0, 2024-03-13 22:46:47.172
38.0, -0.13837629836052656, 0.8190380902960896, 6.915075018070638, 0.34781069587916136, 0.7040000334382057, 0.7040000334382057, 0.35200001671910286, 0.0, 0.0, 0.0, 0.0, 0.0, 1.7103952071863005E9, 0.0, 2024-03-13 22:46:47.186
38.0, 14.634228526614606, 16.44434010516852, 16.003031910397112, 14.970819522626698, 0.7040000334382057, 0.7040000334382057, 0.35200001671910286, 0.0, 0.0, 0.0, 0.0, 0.0, 1.7103952071863005E9, 0.0, 2024-03-13 22:46:47.186
39.0, 27.80241627059877, 35.07652168441564, 24.357968411408365, 31.84524812269956, 0.7040000334382057, 0.7040000334382057, 0.35200001671910286, 0.0, 0.0, 0.0, 0.0, 0.0, 1.7103952072019408E9, 0.0, 2024-03-13 22:46:47.201
39.0, 13.65063483826816, 15.423347417265177, 14.278938030824065, 18.325509782880545, 0.7040000334382057, 0.7040000334382057, 0.35200001671910286, 0.0, 0.0, 0.0, 0.0, 0.0, 1.7103952072019408E9, 0.0, 2024-03-13 22:46:47.201
40.0, -16.06287030968815, -14.222839531488717, -19.66065406706184, -16.90434779971838, 0.7040000334382057, 0.7040000334382057, 0.35200001671910286, 0.0, 0.0, 0.0, 0.0, 0.0, 1.7103952072027035E9, 0.0, 2024-03-13 22:46:47.202
40.0, -0.5011465940624475, 4.214867250062525, -9.828457083553076, -3.104116963222623, 0.7040000334382057, 0.7040000334382057, 0.35200001671910286, 0.0, 0.0, 0.0, 0.0, 0.0, 1.7103952072027035E9, 0.0, 2024-03-13 22:46:47.202
41.0, 0.1047171987593174, 1.1331896865740418, 4.3682031482458115, 4.143809150904417, 0.7040000334382057, 0.7040000334382057, 0.35200001671910286, 0.0, 0.0, 0.0, 0.0, 0.0, 1.7103952072163205E9, 0.0, 2024-03-13 22:46:47.216
41.0, -6.088557127863169, -9.708780284970999, 3.092897263355553, -3.0891573633998632, 0.7040000334382057, 0.7040000334382057, 0.35200001671910286, 0.0, 0.0, 0.0, 0.0, 0.0, 1.7103952072163205E9, 0.0, 2024-03-13 22:46:47.216
42.0, -7.375082712620497, -3.9268949534744024, -12.423947652801871, -5.067564439959824, 0.7040000334382057, 0.7040000334382057, 0.35200001671910286, 0.0, 0.0, 0.0, 0.0, 0.0, 1.7103952072320495E9, 0.0, 2024-03-13 22:46:47.232
42.0, -16.88190839998424, -11.754505560733378, -3.979253552854061, -10.09025008045137, 0.7040000334382057, 0.7040000334382057, 0.35200001671910286, 0.0, 0.0, 0.0, 0.0, 0.0, 1.7103952072320495E9, 0.0, 2024-03-13 22:46:47.232
43.0, -5.538791834376752, -7.509719111025333, 9.63024238590151, -2.662808768451214, 0.7040000334382057, 0.7040000334382057, 0.35200001671910286, 0.0, 0.0, 0.0, 0.0, 0.0, 1.7103952072330132E9, 0.0, 2024-03-13 22:46:47.233
43.0, -5.946440929546952, 2.3449172722175717, 6.915075018070638, 7.1432089153677225, 0.7040000334382057, 0.7040000334382057, 0.35200001671910286, 0.0, 0.0, 0.0, 0.0, 0.0, 1.7103952072330132E9, 0.0, 2024-03-13 22:46:47.233
44.0, -12.554844151251018, -10.759692172519863, -5.0488649401813745, -0.11593689862638712, 0.7040000334382057, 0.7040000334382057, 0.35200001671910286, 0.0, 0.0, 0.0, 0.0, 0.0, 1.7103952072466722E9, 0.0, 2024-03-13 22:46:47.246
44.0, -7.405001912266016, -7.535898410715163, 9.417068088427186, 3.8333974545821548, 0.7040000334382057, 0.7040000334382057, 0.35200001671910286, 0.0, 0.0, 0.0, 0.0, 0.0, 1.7103952072466722E9, 0.0, 2024-03-13 22:46:47.246
45.0, -0.6619622921571136, -4.222347049973905, 10.307164277881384, 7.64435550943017, 0.7040000334382057, 0.7040000334382057, 0.35200001671910286, 0.0, 0.0, 0.0, 0.0, 0.0, 1.710395207262071E9, 0.0, 2024-03-13 22:46:47.262
45.0, -23.235998424701393, -10.46050017606467, -19.851388964802027, -8.48209309950471, 0.7040000334382057, 0.7040000334382057, 0.35200001671910286, 0.0, 0.0, 0.0, 0.0, 0.0, 1.710395207262071E9, 0.0, 2024-03-13 22:46:47.262
46.0, -8.48209309950471, -2.4645940707996488, 2.621669868938625, 4.472920347005129, 0.7040000334382057, 0.7040000334382057, 0.35200001671910286, 0.0, 0.0, 0.0, 0.0, 0.0, 1.7103952072629285E9, 0.0, 2024-03-13 22:46:47.262
46.0, -16.46303960494697, -16.743532101623714, 3.743639855645597, -0.3141515962779522, 0.7040000334382057, 0.7040000334382057, 0.35200001671910286, 0.0, 0.0, 0.0, 0.0, 0.0, 1.7103952072629285E9, 0.0, 2024-03-13 22:46:47.262
47.0, -10.344563277438283, -1.933528277091682, 10.931727570481598, 11.945240458473563, 0.7040000334382057, 0.7040000334382057, 0.35200001671910286, 0.0, 0.0, 0.0, 0.0, 0.0, 1.710395207276286E9, 0.0, 2024-03-13 22:46:47.276
47.0, -8.399815300479531, -8.43347440008074, 3.1676952624693513, -1.974667176604271, 0.7040000334382057, 0.7040000334382057, 0.35200001671910286, 0.0, 0.0, 0.0, 0.0, 0.0, 1.710395207276286E9, 0.0, 2024-03-13 22:46:47.276
48.0, -18.994951874949038, -17.790704089216888, 2.7637860672548413, -6.746779520064592, 0.7040000334382057, 0.7040000334382057, 0.35200001671910286, 0.0, 0.0, 0.0, 0.0, 0.0, 1.7103952072919297E9, 0.0, 2024-03-13 22:46:47.291
48.0, -8.05200460460037, -3.904455553740263, 0.7180607914924622, 0.13837629836052656, 0.7040000334382057, 0.7040000334382057, 0.35200001671910286, 0.0, 0.0, 0.0, 0.0, 0.0, 1.7103952072919297E9, 0.0, 2024-03-13 22:46:47.291
49.0, -22.06914963852614, -5.164801838807762, -9.978053081780672, -5.931481329724193, 0.7040000334382057, 0.7040000334382057, 0.35200001671910286, 0.0, 0.0, 0.0, 0.0, 0.0, 1.7103952072926557E9, 0.0, 2024-03-13 22:46:47.292
49.0, -24.260731012560427, -19.200646372511983, -14.776344724930823, -18.06745668593794, 0.7040000334382057, 0.7040000334382057, 0.35200001671910286, 0.0, 0.0, 0.0, 0.0, 0.0, 1.7103952072926557E9, 0.0, 2024-03-13 22:46:47.292
50.0, -24.343008811585605, -26.52337048575282, -30.379207340069115, -33.13925350736827, 0.7040000334382057, 0.7040000334382057, 0.35200001671910286, 0.0, 0.0, 0.0, 0.0, 0.0, 1.7103952073063166E9, 0.0, 2024-03-13 22:46:47.306
50.0, -25.850188493728638, -16.354582506231964, -28.397060363553464, -22.271104236133397, 0.7040000334382057, 0.7040000334382057, 0.35200001671910286, 0.0, 0.0, 0.0, 0.0, 0.0, 1.7103952073063166E9, 0.0, 2024-03-13 22:46:47.306
51.0, -14.91846092324704, -13.964786434546113, -14.615529026836157, -16.792150801047683, 0.7040000334382057, 0.7040000334382057, 0.35200001671910286, 0.0, 0.0, 0.0, 0.0, 0.0, 1.710395207321947E9, 0.0, 2024-03-13 22:46:47.321
51.0, -20.288957259617746, -23.471612121909857, -18.635921479202807, -21.844755641184747, 0.7040000334382057, 0.7040000334382057, 0.35200001671910286, 0.0, 0.0, 0.0, 0.0, 0.0, 1.710395207321947E9, 0.0, 2024-03-13 22:46:47.321
52.0, -15.165294320322573, -13.115829144604504, -18.90893417596817, -16.335883006453514, 0.6880000326782465, 0.7040000334382057, 0.35200001671910286, 0.0, 0.0, 0.0, 0.0, 0.0, 1.7103952073229115E9, 0.0, 2024-03-13 22:46:47.322
52.0, -0.24683339707553387, 1.5595382815226912, -1.20798768568784, -1.3426240840926766, 0.6880000326782465, 0.7040000334382057, 0.35200001671910286, 0.0, 0.0, 0.0, 0.0, 0.0, 1.7103952073229115E9, 0.0, 2024-03-13 22:46:47.322
53.0, -2.905902265571058, -5.385455936193466, 3.7922585550695658, -8.291358201764524, 0.6880000326782465, 0.7040000334382057, 0.35200001671910286, 0.0, 0.0, 0.0, 0.0, 0.0, 1.7103952073363435E9, 0.0, 2024-03-13 22:46:47.336
53.0, -16.04043090995401, -13.919907635077834, -22.278584036044776, -16.586456303484738, 0.6880000326782465, 0.7040000334382057, 0.35200001671910286, 0.0, 0.0, 0.0, 0.0, 0.0, 1.7103952073363435E9, 0.0, 2024-03-13 22:46:47.336
54.0, -10.939207370392978, -3.9642939530313015, -3.975513652898371, -2.449634470976889, 0.6880000326782465, 0.7040000334382057, 0.35200001671910286, 0.0, 0.0, 0.0, 0.0, 0.0, 1.710395207352202E9, 0.0, 2024-03-13 22:46:47.352
54.0, -5.037645240314305, -1.4249018831178546, 9.495605987496674, 2.1541823744773865, 0.6880000326782465, 0.7040000334382057, 0.35200001671910286, 0.0, 0.0, 0.0, 0.0, 0.0, 1.710395207352202E9, 0.0, 2024-03-13 22:46:47.352
55.0, -4.644955744966865, -9.102916492149234, -2.9208618653938174, -3.4107887595891953, 0.6880000326782465, 0.7040000334382057, 0.35200001671910286, 0.0, 0.0, 0.0, 0.0, 0.0, 1.7103952073528388E9, 0.0, 2024-03-13 22:46:47.352
55.0, -14.436013828963041, -2.6291496688500047, -13.426240840926766, -7.539638310670853, 0.6880000326782465, 0.7040000334382057, 0.35200001671910286, 0.0, 0.0, 0.0, 0.0, 0.0, 1.7103952073528388E9, 0.0, 2024-03-13 22:46:47.352
56.0, -13.789011136628687, -5.366756436415017, 0.7517198910936713, -1.2566063851118088, 0.6880000326782465, 0.7040000334382057, 0.35200001671910286, 0.0, 0.0, 0.0, 0.0, 0.0, 1.7103952073665059E9, 0.0, 2024-03-13 22:46:47.366
56.0, -6.103516727685928, -8.508272399194539, 1.5782377813011408, -3.653882256709039, 0.6880000326782465, 0.7040000334382057, 0.35200001671910286, 0.0, 0.0, 0.0, 0.0, 0.0, 1.7103952073665059E9, 0.0, 2024-03-13 22:46:47.366
57.0, -8.788764895871282, -2.0644247755408287, -11.541331263259053, -1.4323816830292344, 0.6880000326782465, 0.7040000334382057, 0.35200001671910286, 0.0, 0.0, 0.0, 0.0, 0.0, 1.7103952073819172E9, 0.0, 2024-03-13 22:46:47.381
57.0, -6.8627164186909795, -0.22065409738570452, -3.62770295701921, 3.979253552854061, 0.6880000326782465, 0.7040000334382057, 0.35200001671910286, 0.0, 0.0, 0.0, 0.0, 0.0, 1.7103952073819172E9, 0.0, 2024-03-13 22:46:47.381
58.0, -3.8371373545378447, -4.173728350549936, -2.6403693687170744, -2.80866486672312, 0.6880000326782465, 0.7040000334382057, 0.35200001671910286, 0.0, 0.0, 0.0, 0.0, 0.0, 1.7103952073826773E9, 0.0, 2024-03-13 22:46:47.382
58.0, -13.69925353769213, -7.24044631421566, -13.444940340705216, -7.090850315988064, 0.6880000326782465, 0.7040000334382057, 0.35200001671910286, 0.0, 0.0, 0.0, 0.0, 0.0, 1.7103952073826773E9, 0.0, 2024-03-13 22:46:47.382
59.0, 3.9605540530756116, 8.46339359972626, 5.875382830388844, 8.8560830950737, 0.6880000326782465, 0.7040000334382057, 0.35200001671910286, 0.0, 0.0, 0.0, 0.0, 0.0, 1.710395207396268E9, 0.0, 2024-03-13 22:46:47.396
59.0, 3.137776062823832, 0.5273258937522769, 13.115829144604504, 9.824717183597386, 0.6880000326782465, 0.7040000334382057, 0.35200001671910286, 0.0, 0.0, 0.0, 0.0, 0.0, 1.710395207396268E9, 0.0, 2024-03-13 22:46:47.396
60.0, -0.8190380902960896, 1.5782377813011408, 6.6196229215711355, 8.627949197776616, 0.6880000326782465, 0.7040000334382057, 0.35200001671910286, 0.0, 0.0, 0.0, 0.0, 0.0, 1.7103952074286249E9, 0.0, 2024-03-13 22:46:47.428
60.0, 1.7353135794401169, 3.7623393554240465, -3.7324201557785273, 4.884309342131019, 0.6880000326782465, 0.7040000334382057, 0.35200001671910286, 0.0, 0.0, 0.0, 0.0, 0.0, 1.7103952074286249E9, 0.0, 2024-03-13 22:46:47.428
61.0, 5.583670633845031, 10.785871472209692, 10.408141576685011, 5.037645240314305, 0.6880000326782465, 0.7040000334382057, 0.35200001671910286, 0.0, 0.0, 0.0, 0.0, 0.0, 1.7103952074293268E9, 0.0, 2024-03-13 22:46:47.429
61.0, 0.2730126967653632, -1.1930280858650804, -10.86066947132349, -4.775852243416011, 0.6880000326782465, 0.7040000334382057, 0.35200001671910286, 0.0, 0.0, 0.0, 0.0, 0.0, 1.7103952074293268E9, 0.0, 2024-03-13 22:46:47.429
62.0, -4.43926124740392, 5.677168132737279, -12.782978048548102, 0.4637475945055485, 0.6880000326782465, 0.7040000334382057, 0.35200001671910286, 0.0, 0.0, 0.0, 0.0, 0.0, 1.7103952074299564E9, 0.0, 2024-03-13 22:46:47.429
62.0, 4.719753744080663, 3.3958291597664356, -1.1107502868399024, 0.5198460938408971, 0.6880000326782465, 0.7040000334382057, 0.35200001671910286, 0.0, 0.0, 0.0, 0.0, 0.0, 1.7103952074299564E9, 0.0, 2024-03-13 22:46:47.429
63.0, -15.453266616910696, -14.727726025506854, -18.48258558101952, -20.85742205288261, 0.6880000326782465, 0.7040000334382057, 0.35200001671910286, 0.0, 0.0, 0.0, 0.0, 0.0, 1.7103952074309275E9, 0.0, 2024-03-13 22:46:47.430
63.0, -24.746918006800115, -16.335883006453514, -32.4959907149896, -22.12898803781718, 0.6880000326782465, 0.7040000334382057, 0.35200001671910286, 0.0, 0.0, 0.0, 0.0, 0.0, 1.7103952074309275E9, 0.0, 2024-03-13 22:46:47.430
64.0, -20.221639060415328, -16.95296649914235, -21.530604044906795, -13.089649844914675, 0.6880000326782465, 0.7040000334382057, 0.35200001671910286, 0.0, 0.0, 0.0, 0.0, 0.0, 1.710395207441248E9, 0.0, 2024-03-13 22:46:47.441
64.0, -14.406094629317522, -16.02921121008694, -17.158660996705294, -15.958153110928833, 0.6880000326782465, 0.7040000334382057, 0.35200001671910286, 0.0, 0.0, 0.0, 0.0, 0.0, 1.710395207441248E9, 0.0, 2024-03-13 22:46:47.441
65.0, -0.29919199645519257, 3.870796454139054, 7.711673708632588, 3.5229857582598925, 0.6880000326782465, 0.7040000334382057, 0.35200001671910286, 0.0, 0.0, 0.0, 0.0, 0.0, 1.7103952074562392E9, 0.0, 2024-03-13 22:46:47.456
65.0, -6.361569824628532, 4.2447864497080445, 2.1878414740785956, 7.124509415589273, 0.6880000326782465, 0.7040000334382057, 0.35200001671910286, 0.0, 0.0, 0.0, 0.0, 0.0, 1.7103952074562392E9, 0.0, 2024-03-13 22:46:47.456
66.0, -10.628795674070716, -5.662208532914519, 12.46134665235877, 1.5595382815226912, 0.6880000326782465, 0.7040000334382057, 0.35200001671910286, 0.0, 0.0, 0.0, 0.0, 0.0, 1.7103952074719625E9, 0.0, 2024-03-13 22:46:47.471
66.0, -1.5146594820544124, -1.7427933793514967, 4.757152743637562, 3.9717737529426813, 0.6880000326782465, 0.7040000334382057, 0.35200001671910286, 0.0, 0.0, 0.0, 0.0, 0.0, 1.7103952074719625E9, 0.0, 2024-03-13 22:46:47.471
67.0, 3.4107887595891953, 13.422500940971076, -10.815790671855211, 5.512612534686923, 0.6880000326782465, 0.7040000334382057, 0.35200001671910286, 0.0, 0.0, 0.0, 0.0, 0.0, 1.7103952074726567E9, 0.0, 2024-03-13 22:46:47.472
67.0, -7.419961512088776, 4.8880492420867085, -12.04621775727719, -2.861023466102779, 0.6880000326782465, 0.7040000334382057, 0.35200001671910286, 0.0, 0.0, 0.0, 0.0, 0.0, 1.7103952074726567E9, 0.0, 2024-03-13 22:46:47.472
68.0, 9.050557892769575, 15.812297012656927, 9.110396292060614, 8.960800293833017, 0.6880000326782465, 0.7040000334382057, 0.35200001671910286, 0.0, 0.0, 0.0, 0.0, 0.0, 1.710395207486432E9, 0.0, 2024-03-13 22:46:47.486
68.0, -0.011219699867069721, 11.855482859537005, 1.6605155803263187, 12.233212755061686, 0.6880000326782465, 0.7040000334382057, 0.35200001671910286, 0.0, 0.0, 0.0, 0.0, 0.0, 1.710395207486432E9, 0.0, 2024-03-13 22:46:47.486
69.0, 4.371943048201501, 25.431319698691368, 23.022824127227068, 26.99833778012544, 0.6880000326782465, 0.7040000334382057, 0.35200001671910286, 0.0, 0.0, 0.0, 0.0, 0.0, 1.710395207501922E9, 0.0, 2024-03-13 22:46:47.501
69.0, 9.058037692680955, 19.888787964358926, 24.036337015219033, 23.467872221954167, 0.6880000326782465, 0.7040000334382057, 0.35200001671910286, 0.0, 0.0, 0.0, 0.0, 0.0, 1.710395207501922E9, 0.0, 2024-03-13 22:46:47.501
70.0, 6.04367832839489, 16.4518199050799, 12.236952655017376, 12.50248555187136, 0.6880000326782465, 0.7040000334382057, 0.35200001671910286, 0.0, 0.0, 0.0, 0.0, 0.0, 1.7103952075026457E9, 0.0, 2024-03-13 22:46:47.502
70.0, 8.03330510482192, 18.56112348008901, 5.950180829502642, 10.785871472209692, 0.6880000326782465, 0.7040000334382057, 0.35200001671910286, 0.0, 0.0, 0.0, 0.0, 0.0, 1.7103952075026457E9, 0.0, 2024-03-13 22:46:47.502
71.0, 13.070950345136225, 17.72712578997016, 7.315244313329458, 9.319830689579248, 0.6880000326782465, 0.7040000334382057, 0.35200001671910286, 0.0, 0.0, 0.0, 0.0, 0.0, 1.7103952075165067E9, 0.0, 2024-03-13 22:46:47.516
71.0, 1.7801923789083958, 4.095190451480448, 4.155028850771487, 3.739899955689907, 0.6880000326782465, 0.7040000334382057, 0.35200001671910286, 0.0, 0.0, 0.0, 0.0, 0.0, 1.7103952075165067E9, 0.0, 2024-03-13 22:46:47.516
72.0, 10.247325878590345, 22.046710238792002, 3.7922585550695658, 16.575236603617668, 0.6880000326782465, 0.7040000334382057, 0.35200001671910286, 0.0, 0.0, 0.0, 0.0, 0.0, 1.7103952075319583E9, 0.0, 2024-03-13 22:46:47.531
72.0, 22.293543635867536, 30.050096143968403, 27.510704074054956, 29.623747549019754, 0.6880000326782465, 0.7040000334382057, 0.35200001671910286, 0.0, 0.0, 0.0, 0.0, 0.0, 1.7103952075319583E9, 0.0, 2024-03-13 22:46:47.531
73.0, 20.202939560636878, 26.485971486195922, 20.95839935168624, 20.281477459706366, 0.6880000326782465, 0.7040000334382057, 0.35200001671910286, 0.0, 0.0, 0.0, 0.0, 0.0, 1.7103952075326633E9, 0.0, 2024-03-13 22:46:47.532
73.0, 11.511412063613534, 15.404647917486727, 14.940900322981179, 18.46762598119676, 0.6880000326782465, 0.7040000334382057, 0.35200001671910286, 0.0, 0.0, 0.0, 0.0, 0.0, 1.7103952075326633E9, 0.0, 2024-03-13 22:46:47.532
74.0, 15.827256612479687, 16.11522890906781, -7.969726805575192, 8.156721803359687, 0.6880000326782465, 0.7040000334382057, 0.35200001671910286, 0.0, 0.0, 0.0, 0.0, 0.0, 1.7103952075462804E9, 0.0, 2024-03-13 22:46:47.546
74.0, 13.29908424243331, 18.987472075037658, 8.119322803802788, 7.075890716165304, 0.6880000326782465, 0.7040000334382057, 0.35200001671910286, 0.0, 0.0, 0.0, 0.0, 0.0, 1.7103952075462804E9, 0.0, 2024-03-13 22:46:47.546
75.0, 1.4398614829406142, 3.4107887595891953, -11.144901867955923, -4.315844548866153, 0.6880000326782465, 0.7040000334382057, 0.35200001671910286, 0.0, 0.0, 0.0, 0.0, 0.0, 1.7103952075619736E9, 0.0, 2024-03-13 22:46:47.561
75.0, 1.6567756803706288, 4.102670251391828, -13.515998439863324, 0.33285109605640173, 0.6880000326782465, 0.7040000334382057, 0.35200001671910286, 0.0, 0.0, 0.0, 0.0, 0.0, 1.7103952075619736E9, 0.0, 2024-03-13 22:46:47.561
76.0, -7.188087714836001, -1.047171987593174, -5.882862630300224, -1.8325509782880545, 0.6880000326782465, 0.7040000334382057, 0.35200001671910286, 0.0, 0.0, 0.0, 0.0, 0.0, 1.710395207562889E9, 0.0, 2024-03-13 22:46:47.562
76.0, -0.28423239663243294, 3.586564057506621, 3.575344357639551, -2.9993997644633055, 0.6880000326782465, 0.7040000334382057, 0.35200001671910286, 0.0, 0.0, 0.0, 0.0, 0.0, 1.710395207562889E9, 0.0, 2024-03-13 22:46:47.562
77.0, -14.398614829406142, 2.543131969869137, -14.45471332874149, -12.524924951605499, 0.6880000326782465, 0.7040000334382057, 0.35200001671910286, 0.0, 0.0, 0.0, 0.0, 0.0, 1.7103952075762856E9, 0.0, 2024-03-13 22:46:47.576
77.0, -16.182547108270228, -4.8169911429286, -7.954767205752432, -9.454467087984085, 0.6880000326782465, 0.7040000334382057, 0.35200001671910286, 0.0, 0.0, 0.0, 0.0, 0.0, 1.7103952075762856E9, 0.0, 2024-03-13 22:46:47.576
78.0, -11.447833764366806, -9.574143886566162, -4.633736045099795, -12.966233146376908, 0.6880000326782465, 0.7040000334382057, 0.35200001671910286, 0.0, 0.0, 0.0, 0.0, 0.0, 1.7103952075919623E9, 0.0, 2024-03-13 22:46:47.591
78.0, -17.947779887355864, -8.4858329994604, -14.963339722715318, -9.301131189800799, 0.6880000326782465, 0.7040000334382057, 0.35200001671910286, 0.0, 0.0, 0.0, 0.0, 0.0, 1.7103952075919623E9, 0.0, 2024-03-13 22:46:47.591
79.0, -19.30162367131561, -8.713966896757483, -18.692019978538156, -12.274351654574275, 0.6880000326782465, 0.7040000334382057, 0.35200001671910286, 0.0, 0.0, 0.0, 0.0, 0.0, 1.7103952075926948E9, 0.0, 2024-03-13 22:46:47.592
79.0, -15.3036706186831, -15.26253171917051, -9.981792981736362, -14.290157730691135, 0.6880000326782465, 0.7040000334382057, 0.35200001671910286, 0.0, 0.0, 0.0, 0.0, 0.0, 1.7103952075926948E9, 0.0, 2024-03-13 22:46:47.592
80.0, -13.822670236229897, -15.217652919702232, -3.298591760918498, -10.946687170304358, 0.6880000326782465, 0.7040000334382057, 0.35200001671910286, 0.0, 0.0, 0.0, 0.0, 0.0, 1.7103952076062696E9, 0.0, 2024-03-13 22:46:47.606
80.0, -16.582716403529048, -12.05369755718857, -11.919061158783734, -9.170234691351652, 0.6880000326782465, 0.7040000334382057, 0.35200001671910286, 0.0, 0.0, 0.0, 0.0, 0.0, 1.7103952076062696E9, 0.0, 2024-03-13 22:46:47.606
81.0, -7.898668706417084, -6.470026923343539, 0.4749672943726182, -7.969726805575192, 0.6880000326782465, 0.7040000334382057, 0.35200001671910286, 0.0, 0.0, 0.0, 0.0, 0.0, 1.710395207622124E9, 0.0, 2024-03-13 22:46:47.622
81.0, -8.46713349968195, -14.450973428785801, -7.797691407613456, -15.584163115359843, 0.6880000326782465, 0.7040000334382057, 0.35200001671910286, 0.0, 0.0, 0.0, 0.0, 0.0, 1.710395207622124E9, 0.0, 2024-03-13 22:46:47.622
82.0, -17.521431292407215, -14.791304324753582, -20.737745254300535, -19.062270074151456, 0.6880000326782465, 0.7040000334382057, 0.35200001671910286, 0.0, 0.0, 0.0, 0.0, 0.0, 1.71039520762272E9, 0.0, 2024-03-13 22:46:47.622
82.0, -20.56944975629449, -20.91352055221796, -15.165294320322573, -19.245525171980262, 0.6880000326782465, 0.7040000334382057, 0.35200001671910286, 0.0, 0.0, 0.0, 0.0, 0.0, 1.71039520762272E9, 0.0, 2024-03-13 22:46:47.622
83.0, -16.12270870897919, -15.786117712967098, 2.6291496688500047, -7.4237014120444655, 0.6880000326782465, 0.7040000334382057, 0.35200001671910286, 0.0, 0.0, 0.0, 0.0, 0.0, 1.7103952076363642E9, 0.0, 2024-03-13 22:46:47.636
83.0, -24.036337015219033, -19.634474767372012, -25.28546360041946, -17.33443629462272, 0.6880000326782465, 0.7040000334382057, 0.35200001671910286, 0.0, 0.0, 0.0, 0.0, 0.0, 1.7103952076363642E9, 0.0, 2024-03-13 22:46:47.636
84.0, -10.804570971988142, -11.051404369063675, -4.794551743194461, -0.8339976901188493, 0.6880000326782465, 0.7040000334382057, 0.35200001671910286, 0.0, 0.0, 0.0, 0.0, 0.0, 1.7103952076520743E9, 0.0, 2024-03-13 22:46:47.652
84.0, -3.979253552854061, -1.8175913784652948, 4.390642547979951, 3.0068795643746853, 0.6880000326782465, 0.7040000334382057, 0.35200001671910286, 0.0, 0.0, 0.0, 0.0, 0.0, 1.7103952076520743E9, 0.0, 2024-03-13 22:46:47.652
85.0, -0.003739899955689907, 1.1107502868399024, -1.1855482859537005, 5.157322038896382, 0.6880000326782465, 0.7040000334382057, 0.35200001671910286, 0.0, 0.0, 0.0, 0.0, 0.0, 1.7103952076527452E9, 0.0, 2024-03-13 22:46:47.652
85.0, -9.577883786521852, -3.979253552854061, -8.661608297377825, -3.706240856088698, 0.6880000326782465, 0.7040000334382057, 0.35200001671910286, 0.0, 0.0, 0.0, 0.0, 0.0, 1.7103952076527452E9, 0.0, 2024-03-13 22:46:47.652
86.0, -29.01788375619799, -23.965278916060925, -15.053097321651876, -16.51913810428232, 0.6880000326782465, 0.7040000334382057, 0.35200001671910286, 0.0, 0.0, 0.0, 0.0, 0.0, 1.7103952076663578E9, 0.0, 2024-03-13 22:46:47.666
86.0, -34.14528659544885, -30.55498263798654, -20.57692955620587, -22.92932662833482, 0.6880000326782465, 0.7040000334382057, 0.35200001671910286, 0.0, 0.0, 0.0, 0.0, 0.0, 1.7103952076663578E9, 0.0, 2024-03-13 22:46:47.666
87.0, -31.43385912757367, -24.877814505249262, -32.342654816806316, -21.960692539811134, 0.6880000326782465, 0.7040000334382057, 0.35200001671910286, 0.0, 0.0, 0.0, 0.0, 0.0, 1.7103952076819613E9, 0.0, 2024-03-13 22:46:47.681
87.0, -16.324663306586444, -17.607448991388083, -14.305117330513895, -7.098330115899444, 0.6880000326782465, 0.7040000334382057, 0.35200001671910286, 0.0, 0.0, 0.0, 0.0, 0.0, 1.7103952076819613E9, 0.0, 2024-03-13 22:46:47.681
88.0, -18.46014618128538, -19.821469765156507, -16.49295880459249, -16.672474002465606, 0.6880000326782465, 0.7040000334382057, 0.35200001671910286, 0.0, 0.0, 0.0, 0.0, 0.0, 1.7103952076827695E9, 0.0, 2024-03-13 22:46:47.682
88.0, -9.600323186255991, -11.24587916675955, -22.338422435335815, -14.005925334058702, 0.6880000326782465, 0.7040000334382057, 0.35200001671910286, 0.0, 0.0, 0.0, 0.0, 0.0, 1.7103952076827695E9, 0.0, 2024-03-13 22:46:47.682
89.0, -11.197260467335582, -8.493312799371779, -7.9061485063284636, -6.956213917583227, 0.6880000326782465, 0.7040000334382057, 0.35200001671910286, 0.0, 0.0, 0.0, 0.0, 0.0, 1.7103952076965477E9, 0.0, 2024-03-13 22:46:47.696
89.0, -24.432766410522163, -21.433366646058857, -23.015344327315688, -20.737745254300535, 0.6880000326782465, 0.7040000334382057, 0.35200001671910286, 0.0, 0.0, 0.0, 0.0, 0.0, 1.7103952076965477E9, 0.0, 2024-03-13 22:46:47.696
90.0, -20.09822236187756, -15.991812210530043, -16.612635603174567, -10.352043077349663, 0.6880000326782465, 0.7040000334382057, 0.35200001671910286, 0.0, 0.0, 0.0, 0.0, 0.0, 1.7103952077122512E9, 0.0, 2024-03-13 22:46:47.712
90.0, -16.661254302598536, -11.567510562948883, -18.299330483190715, -3.657622156664729, 0.6880000326782465, 0.7040000334382057, 0.35200001671910286, 0.0, 0.0, 0.0, 0.0, 0.0, 1.7103952077122512E9, 0.0, 2024-03-13 22:46:47.712
91.0, -6.327910725027323, -1.3127048844471574, -9.828457083553076, -5.321877636946738, 0.6880000326782465, 0.7040000334382057, 0.35200001671910286, 0.0, 0.0, 0.0, 0.0, 0.0, 1.7103952077128477E9, 0.0, 2024-03-13 22:46:47.712
91.0, 2.165402074344456, -2.4084955714643, -0.7853789906948805, -1.5969372810795903, 0.6880000326782465, 0.7040000334382057, 0.35200001671910286, 0.0, 0.0, 0.0, 0.0, 0.0, 1.7103952077128477E9, 0.0, 2024-03-13 22:46:47.712
92.0, 7.22922661434859, 12.233212755061686, 1.7764524789527059, 13.908687935210764, 0.6880000326782465, 0.7040000334382057, 0.35200001671910286, 0.0, 0.0, 0.0, 0.0, 0.0, 1.7103952077262933E9, 0.0, 2024-03-13 22:46:47.726
92.0, 2.247679873369634, 2.935821465216577, -4.091450551524758, 1.2753058848902583, 0.6880000326782465, 0.7040000334382057, 0.35200001671910286, 0.0, 0.0, 0.0, 0.0, 0.0, 1.7103952077262933E9, 0.0, 2024-03-13 22:46:47.726
93.0, -9.342270089313388, -7.049711416475475, 4.3682031482458115, -5.8978222301229835, 0.6880000326782465, 0.7040000334382057, 0.35200001671910286, 0.0, 0.0, 0.0, 0.0, 0.0, 1.710395207741953E9, 0.0, 2024-03-13 22:46:47.741
93.0, -28.733651359565556, -27.73509807139635, -31.074828731827438, -28.55413616169244, 0.6880000326782465, 0.7040000334382057, 0.35200001671910286, 0.0, 0.0, 0.0, 0.0, 0.0, 1.710395207741953E9, 0.0, 2024-03-13 22:46:47.741
94.0, -34.6090341899544, -26.257837588898838, -32.18931891862303, -27.33866867609322, 0.6880000326782465, 0.7040000334382057, 0.35200001671910286, 0.0, 0.0, 0.0, 0.0, 0.0, 1.710395207742862E9, 0.0, 2024-03-13 22:46:47.742
94.0, -51.55452088918537, -44.9461176674813, -38.29283564630896, -40.102947224862874, 0.6880000326782465, 0.7040000334382057, 0.35200001671910286, 0.0, 0.0, 0.0, 0.0, 0.0, 1.710395207742862E9, 0.0, 2024-03-13 22:46:47.742
95.0, -24.866594805382192, -16.706133102066815, -14.600569427013397, -14.49959212820977, 0.6880000326782465, 0.7040000334382057, 0.35200001671910286, 0.0, 0.0, 0.0, 0.0, 0.0, 1.710395207756336E9, 0.0, 2024-03-13 22:46:47.756
95.0, -17.68598689045757, -13.302824142389, -10.112689480185509, -7.165648315101862, 0.6880000326782465, 0.7040000334382057, 0.35200001671910286, 0.0, 0.0, 0.0, 0.0, 0.0, 1.710395207756336E9, 0.0, 2024-03-13 22:46:47.756
96.0, -15.195213519968092, -4.966587141156197, 15.565463615581393, 8.627949197776616, 0.6880000326782465, 0.7040000334382057, 0.35200001671910286, 0.0, 0.0, 0.0, 0.0, 0.0, 1.710395207771928E9, 0.0, 2024-03-13 22:46:47.771
96.0, -17.506471692584455, -8.03704500477761, 6.668241620995104, 1.492220082320273, 0.6880000326782465, 0.7040000334382057, 0.35200001671910286, 0.0, 0.0, 0.0, 0.0, 0.0, 1.710395207771928E9, 0.0, 2024-03-13 22:46:47.771
97.0, -25.861408193595707, -17.910380887798965, -28.95804535690695, -18.751858377829194, 0.6880000326782465, 0.7040000334382057, 0.35200001671910286, 0.0, 0.0, 0.0, 0.0, 0.0, 1.7103952077726948E9, 0.0, 2024-03-13 22:46:47.772
97.0, -58.40227770805359, -45.20417076442391, -37.32420155778527, -36.90907266270369, 0.6880000326782465, 0.7040000334382057, 0.35200001671910286, 0.0, 0.0, 0.0, 0.0, 0.0, 1.7103952077726948E9, 0.0, 2024-03-13 22:46:47.772
98.0, -46.939484343864024, -38.21055784728378, -31.561015726067126, -37.33542125765234, 0.6880000326782465, 0.7040000334382057, 0.35200001671910286, 0.0, 0.0, 0.0, 0.0, 0.0, 1.7103952077864099E9, 0.0, 2024-03-13 22:46:47.786
98.0, -39.80749512836337, -39.39984603319317, -30.9401923334226, -31.138407031074166, 0.6880000326782465, 0.7040000334382057, 0.35200001671910286, 0.0, 0.0, 0.0, 0.0, 0.0, 1.7103952077864099E9, 0.0, 2024-03-13 22:46:47.786
99.0, -30.727018035948277, -24.874074605293572, -21.37352824676782, -16.612635603174567, 0.6880000326782465, 0.7040000334382057, 0.35200001671910286, 0.0, 0.0, 0.0, 0.0, 0.0, 1.710395207801956E9, 0.0, 2024-03-13 22:46:47.801
99.0, -24.219592113047838, -23.3818545229733, -7.419961512088776, -12.08361675683409, 0.6880000326782465, 0.7040000334382057, 0.35200001671910286, 0.0, 0.0, 0.0, 0.0, 0.0, 1.710395207801956E9, 0.0, 2024-03-13 22:46:47.801
100.0, -26.332635588012636, -19.477398969233036, -14.024624833837152, -11.978899558074772, 0.6880000326782465, 0.7040000334382057, 0.35200001671910286, 0.0, 0.0, 0.0, 0.0, 0.0, 1.7103952078026483E9, 0.0, 2024-03-13 22:46:47.802
100.0, -33.01957670878619, -24.713258907198906, -19.537237368524075, -17.225979195907712, 0.6880000326782465, 0.7040000334382057, 0.35200001671910286, 0.0, 0.0, 0.0, 0.0, 0.0, 1.7103952078026483E9, 0.0, 2024-03-13 22:46:47.802
0.0, -849.993242229335, -459.36256180750206, -565.3775058514439, -526.8322269581258, 0.6880000326782465, 0.7040000334382057, 0.35200001671910286, 0.0, 0.0, 0.0, 0.0, 0.0, 1.7103952078171754E9, 0.0, 2024-03-13 22:46:47.817
1.0, -850.3821918247268, -464.609641445335, -559.8013150175102, -531.0807533077896, 0.6880000326782465, 0.7040000334382057, 0.35200001671910286, 0.0, 0.0, 0.0, 0.0, 0.0, 1.7103952078177283E9, 0.0, 2024-03-13 22:46:47.817
1.0, -853.4863087879494, -461.55788308149204, -564.4051318629645, -524.4461707863957, 0.6880000326782465, 0.7040000334382057, 0.35200001671910286, 0.0, 0.0, 0.0, 0.0, 0.0, 1.7103952078177283E9, 0.0, 2024-03-13 22:46:47.817
2.0, -841.5223688296974, -448.80482423258945, -533.5771365282126, -504.916413217783, 0.6880000326782465, 0.7040000334382057, 0.35200001671910286, 0.0, 0.0, 0.0, 0.0, 0.0, 1.7103952078316405E9, 0.0, 2024-03-13 22:46:47.831
2.0, -857.4019840415567, -463.70084575610235, -545.2755435896106, -518.7577829537913, 0.6880000326782465, 0.7040000334382057, 0.35200001671910286, 0.0, 0.0, 0.0, 0.0, 0.0, 1.7103952078316405E9, 0.0, 2024-03-13 22:46:47.831
3.0, -862.6490636793897, -460.03948369948193, -564.3004146642052, -521.2448164243251, 0.6880000326782465, 0.7040000334382057, 0.35200001671910286, 0.0, 0.0, 0.0, 0.0, 0.0, 1.7103952078472679E9, 0.0, 2024-03-13 22:46:47.847
3.0, -858.20606253203, -451.3105572029017, -555.8332811645232, -517.5423154681921, 0.6880000326782465, 0.7040000334382057, 0.35200001671910286, 0.0, 0.0, 0.0, 0.0, 0.0, 1.7103952078472679E9, 0.0, 2024-03-13 22:46:47.847
4.0, -862.1553968852386, -467.17895271489397, -565.5345816495828, -532.8422461869195, 0.6880000326782465, 0.7040000334382057, 0.35200001671910286, 0.0, 0.0, 0.0, 0.0, 0.0, 1.710395207847865E9, 0.0, 2024-03-13 22:46:47.847
4.0, -863.2586673721671, -478.67166527872905, -577.1768902116455, -538.769987616688, 0.6880000326782465, 0.7040000334382057, 0.35200001671910286, 0.0, 0.0, 0.0, 0.0, 0.0, 1.710395207847865E9, 0.0, 2024-03-13 22:46:47.847
5.0, -845.27722838521, -453.54327747644857, -557.1833850485273, -519.5020230449736, 0.6880000326782465, 0.7040000334382057, 0.35200001671910286, 0.0, 0.0, 0.0, 0.0, 0.0, 1.7103952078612704E9, 0.0, 2024-03-13 22:46:47.861
5.0, -840.7295100390911, -452.1969134924002, -554.6589525784366, -522.7594759063795, 0.6880000326782465, 0.7040000334382057, 0.35200001671910286, 0.0, 0.0, 0.0, 0.0, 0.0, 1.7103952078612704E9, 0.0, 2024-03-13 22:46:47.861
6.0, -850.8421995192766, -462.91920666536316, -547.0632157684304, -514.5990142030641, 0.6880000326782465, 0.7040000334382057, 0.35200001671910286, 0.0, 0.0, 0.0, 0.0, 0.0, 1.7103952078769343E9, 0.0, 2024-03-13 22:46:47.876
6.0, -845.5951198814437, -446.96479345439, -539.8003300544806, -505.63073410931975, 0.6880000326782465, 0.7040000334382057, 0.35200001671910286, 0.0, 0.0, 0.0, 0.0, 0.0, 1.7103952078769343E9, 0.0, 2024-03-13 22:46:47.876
7.0, -848.6206989455968, -448.834743432235, -549.7522038365714, -518.1556590609252, 0.6880000326782465, 0.7040000334382057, 0.35200001671910286, 0.0, 0.0, 0.0, 0.0, 0.0, 1.710395207877659E9, 0.0, 2024-03-13 22:46:47.877
7.0, -856.0331806577742, -474.4567980286665, -567.9168979213573, -535.1535043595359, 0.6880000326782465, 0.7040000334382057, 0.35200001671910286, 0.0, 0.0, 0.0, 0.0, 0.0, 1.710395207877659E9, 0.0, 2024-03-13 22:46:47.877
8.0, -859.6272245151922, -472.30261565418914, -570.3515727925114, -529.0537275318056, 0.6880000326782465, 0.7040000334382057, 0.35200001671910286, 0.0, 0.0, 0.0, 0.0, 0.0, 1.7103952078912883E9, 0.0, 2024-03-13 22:46:47.891
8.0, -844.686324192211, -454.1566210691817, -550.1486332318746, -510.73943744879216, 0.6880000326782465, 0.7040000334382057, 0.35200001671910286, 0.0, 0.0, 0.0, 0.0, 0.0, 1.7103952078912883E9, 0.0, 2024-03-13 22:46:47.891
9.0, -838.3097947677597, -446.43746756063774, -534.1381215215661, -511.8352281358093, 0.6880000326782465, 0.7040000334382057, 0.35200001671910286, 0.0, 0.0, 0.0, 0.0, 0.0, 1.710395207907206E9, 0.0, 2024-03-13 22:46:47.907
9.0, -851.126431915909, -455.3758284547366, -558.4699106332846, -524.0347817912698, 0.6880000326782465, 0.7040000334382057, 0.35200001671910286, 0.0, 0.0, 0.0, 0.0, 0.0, 1.710395207907206E9, 0.0, 2024-03-13 22:46:47.907
10.0, -838.9605373600498, -446.7441393570043, -538.4165670708753, -502.7659707432613, 0.6880000326782465, 0.7040000334382057, 0.35200001671910286, 0.0, 0.0, 0.0, 0.0, 0.0, 1.7103952079077835E9, 0.0, 2024-03-13 22:46:47.907
10.0, -846.4665165711194, -450.7794914091937, -542.9044470177032, -510.3168287537992, 0.6880000326782465, 0.7040000334382057, 0.35200001671910286, 0.0, 0.0, 0.0, 0.0, 0.0, 1.7103952079077835E9, 0.0, 2024-03-13 22:46:47.907
11.0, -822.2469244580716, -435.3037853925489, -537.0963823865168, -500.5669095693156, 0.6880000326782465, 0.7040000334382057, 0.35200001671910286, 0.0, 0.0, 0.0, 0.0, 0.0, 1.7103952079214604E9, 0.0, 2024-03-13 22:46:47.921
11.0, -846.2683018734679, -449.61638252297416, -560.4445778098889, -512.5906879268587, 0.6880000326782465, 0.7040000334382057, 0.35200001671910286, 0.0, 0.0, 0.0, 0.0, 0.0, 1.7103952079214604E9, 0.0, 2024-03-13 22:46:47.921
12.0, -828.1260471884161, -439.4588142433204, -536.5653165928088, -501.3597683599219, 0.6880000326782465, 0.7040000334382057, 0.35200001671910286, 0.0, 0.0, 0.0, 0.0, 0.0, 1.7103952079369211E9, 0.0, 2024-03-13 22:46:47.936
12.0, -828.3579209856689, -441.6803148170002, -544.1161746033467, -514.3783601056784, 0.6880000326782465, 0.7040000334382057, 0.35200001671910286, 0.0, 0.0, 0.0, 0.0, 0.0, 1.7103952079369211E9, 0.0, 2024-03-13 22:46:47.936
13.0, -826.3757740091532, -425.9989143027924, -535.5779830045067, -500.8324424661696, 0.6880000326782465, 0.7040000334382057, 0.35200001671910286, 0.0, 0.0, 0.0, 0.0, 0.0, 1.7103952079376547E9, 0.0, 2024-03-13 22:46:47.937
13.0, -817.0297640198842, -423.09301203722134, -517.5292258183472, -483.73735976871103, 0.6880000326782465, 0.7040000334382057, 0.35200001671910286, 0.0, 0.0, 0.0, 0.0, 0.0, 1.7103952079376547E9, 0.0, 2024-03-13 22:46:47.937
14.0, -826.9629383021966, -438.3405841565691, -531.5239314525388, -497.33563600759953, 0.6880000326782465, 0.7040000334382057, 0.35200001671910286, 0.0, 0.0, 0.0, 0.0, 0.0, 1.7103952079512484E9, 0.0, 2024-03-13 22:46:47.951
14.0, -842.5658009173349, -457.9713190239854, -552.9086793991737, -511.4238391406834, 0.6880000326782465, 0.7040000334382057, 0.35200001671910286, 0.0, 0.0, 0.0, 0.0, 0.0, 1.7103952079512484E9, 0.0, 2024-03-13 22:46:47.951
15.0, -831.6901718461886, -431.4479485382326, -539.8601684537716, -496.40440091863275, 0.6880000326782465, 0.7040000334382057, 0.35200001671910286, 0.0, 0.0, 0.0, 0.0, 0.0, 1.7103952079669597E9, 0.0, 2024-03-13 22:46:47.966
15.0, -829.7566435690969, -432.5923579246737, -526.5012458120473, -494.40355444233865, 0.6880000326782465, 0.7040000334382057, 0.35200001671910286, 0.0, 0.0, 0.0, 0.0, 0.0, 1.7103952079669597E9, 0.0, 2024-03-13 22:46:47.966
16.0, -816.2855239287019, -432.4390220264904, -520.5510649825446, -490.6038160873577, 0.6880000326782465, 0.7040000334382057, 0.35200001671910286, 0.0, 0.0, 0.0, 0.0, 0.0, 1.7103952079677205E9, 0.0, 2024-03-13 22:46:47.967
16.0, -819.9169667856768, -433.7031082115136, -526.4339276128449, -488.4159746132791, 0.6880000326782465, 0.7040000334382057, 0.35200001671910286, 0.0, 0.0, 0.0, 0.0, 0.0, 1.7103952079677205E9, 0.0, 2024-03-13 22:46:47.967
17.0, -823.9635385377333, -436.57535137748346, -523.9281946425326, -492.73181916214526, 0.6880000326782465, 0.7040000334382057, 0.35200001671910286, 0.0, 0.0, 0.0, 0.0, 0.0, 1.710395207981256E9, 0.0, 2024-03-13 22:46:47.981
17.0, -809.8902950044721, -430.21004165289924, -515.6891950401478, -489.7062400979921, 0.6880000326782465, 0.7040000334382057, 0.35200001671910286, 0.0, 0.0, 0.0, 0.0, 0.0, 1.710395207981256E9, 0.0, 2024-03-13 22:46:47.981
18.0, -826.7796832043678, -439.54483194230124, -538.9251934648491, -502.6051550451666, 0.6880000326782465, 0.7040000334382057, 0.35200001671910286, 0.0, 0.0, 0.0, 0.0, 0.0, 1.7103952079972606E9, 0.0, 2024-03-13 22:46:47.997
18.0, -847.3266935609281, -454.63158836355433, -555.3844931698404, -517.0636082738638, 0.6880000326782465, 0.7040000334382057, 0.35200001671910286, 0.0, 0.0, 0.0, 0.0, 0.0, 1.7103952079972606E9, 0.0, 2024-03-13 22:46:47.997
19.0, -831.2862626509741, -445.240699574817, -537.0290641873144, -505.8738276064396, 0.6880000326782465, 0.7040000334382057, 0.35200001671910286, 0.0, 0.0, 0.0, 0.0, 0.0, 1.7103952079980364E9, 0.0, 2024-03-13 22:46:47.998
19.0, -840.6547120399773, -452.8700954844244, -543.727225007955, -510.07747515663505, 0.6880000326782465, 0.7040000334382057, 0.35200001671910286, 0.0, 0.0, 0.0, 0.0, 0.0, 1.7103952079980364E9, 0.0, 2024-03-13 22:46:47.998
20.0, -840.6921110395342, -450.5289181121625, -547.6055012620054, -508.6824924731627, 0.6880000326782465, 0.7040000334382057, 0.35200001671910286, 0.0, 0.0, 0.0, 0.0, 0.0, 1.7103952080113404E9, 0.0, 2024-03-13 22:46:48.011
20.0, -841.0399217354134, -459.4186603068374, -535.248871808406, -512.6318268263713, 0.6880000326782465, 0.7040000334382057, 0.35200001671910286, 0.0, 0.0, 0.0, 0.0, 0.0, 1.7103952080113404E9, 0.0, 2024-03-13 22:46:48.011
21.0, -845.5539809819311, -463.29693656088784, -546.1693796790205, -516.1286332849413, 0.6880000326782465, 0.7040000334382057, 0.35200001671910286, 0.0, 0.0, 0.0, 0.0, 0.0, 1.7103952080269988E9, 0.0, 2024-03-13 22:46:48.026
21.0, -854.5260009756312, -466.4683717233129, -566.5518344375305, -522.452804110013, 0.6880000326782465, 0.7040000334382057, 0.35200001671910286, 0.0, 0.0, 0.0, 0.0, 0.0, 1.7103952080269988E9, 0.0, 2024-03-13 22:46:48.026
22.0, -835.9125188961625, -453.2029465804808, -533.704293126706, -506.6442469973117, 0.6880000326782465, 0.7040000334382057, 0.35200001671910286, 0.0, 0.0, 0.0, 0.0, 0.0, 1.7103952080276845E9, 0.0, 2024-03-13 22:46:48.027
22.0, -840.6846312396228, -451.65462799882516, -532.7019999385811, -510.3130888538435, 0.6880000326782465, 0.7040000334382057, 0.35200001671910286, 0.0, 0.0, 0.0, 0.0, 0.0, 1.7103952080276845E9, 0.0, 2024-03-13 22:46:48.027
23.0, -838.8072014618665, -451.47137290099636, -553.7875558887608, -514.0866479091346, 0.6880000326782465, 0.7040000334382057, 0.35200001671910286, 0.0, 0.0, 0.0, 0.0, 0.0, 1.7103952080412583E9, 0.0, 2024-03-13 22:46:48.041
23.0, -830.2727497629821, -431.18989544129, -534.7813843139447, -500.51829086989164, 0.6880000326782465, 0.7040000334382057, 0.35200001671910286, 0.0, 0.0, 0.0, 0.0, 0.0, 1.7103952080412583E9, 0.0, 2024-03-13 22:46:48.041
24.0, -832.6662857346237, -442.24877961026505, -529.2276328797452, -503.15118043869734, 0.6880000326782465, 0.7040000334382057, 0.35200001671910286, 0.0, 0.0, 0.0, 0.0, 0.0, 1.7103952080569613E9, 0.0, 2024-03-13 22:46:48.056
24.0, -837.3449005791917, -448.1540816402994, -538.7606378667988, -504.25071102567017, 0.6880000326782465, 0.7040000334382057, 0.35200001671910286, 0.0, 0.0, 0.0, 0.0, 0.0, 1.7103952080569613E9, 0.0, 2024-03-13 22:46:48.056
25.0, -848.0896331518888, -458.229372120928, -559.935951415915, -518.810141553171, 0.6880000326782465, 0.7040000334382057, 0.35200001671910286, 0.0, 0.0, 0.0, 0.0, 0.0, 1.7103952080576816E9, 0.0, 2024-03-13 22:46:48.057
25.0, -843.2988213086501, -454.06312357028946, -545.559775986243, -513.8921731114388, 0.6880000326782465, 0.7040000334382057, 0.35200001671910286, 0.0, 0.0, 0.0, 0.0, 0.0, 1.7103952080576816E9, 0.0, 2024-03-13 22:46:48.057
26.0, -839.9329113485292, -453.7826310736127, -536.5204377933405, -509.97275795787573, 0.6880000326782465, 0.7040000334382057, 0.35200001671910286, 0.0, 0.0, 0.0, 0.0, 0.0, 1.7103952080713294E9, 0.0, 2024-03-13 22:46:48.071
26.0, -836.4884634893388, -442.4095953083597, -541.9245932293124, -501.9057937534526, 0.6880000326782465, 0.7040000334382057, 0.35200001671910286, 0.0, 0.0, 0.0, 0.0, 0.0, 1.7103952080713294E9, 0.0, 2024-03-13 22:46:48.071
27.0, -832.0192830422893, -442.7050474048592, -536.8532888893969, -494.7999838376418, 0.6880000326782465, 0.7040000334382057, 0.35200001671910286, 0.0, 0.0, 0.0, 0.0, 0.0, 1.7103952080869737E9, 0.0, 2024-03-13 22:46:48.086
27.0, -840.2283634450287, -447.6304956465028, -524.9117883308791, -494.6129888398573, 0.6880000326782465, 0.7040000334382057, 0.35200001671910286, 0.0, 0.0, 0.0, 0.0, 0.0, 1.7103952080869737E9, 0.0, 2024-03-13 22:46:48.086
28.0, -843.7924881028011, -447.1517884521745, -548.1590064554475, -506.90603999421, 0.6880000326782465, 0.7040000334382057, 0.35200001671910286, 0.0, 0.0, 0.0, 0.0, 0.0, 1.7103952080877144E9, 0.0, 2024-03-13 22:46:48.087
28.0, -839.1886712573469, -445.68948756949976, -545.1446470911615, -505.6943124085665, 0.6880000326782465, 0.7040000334382057, 0.35200001671910286, 0.0, 0.0, 0.0, 0.0, 0.0, 1.7103952080877144E9, 0.0, 2024-03-13 22:46:48.087
29.0, -845.423084483482, -456.40056104259565, -546.03100338066, -514.1090873088688, 0.6880000326782465, 0.7040000334382057, 0.35200001671910286, 0.0, 0.0, 0.0, 0.0, 0.0, 1.710395208101316E9, 0.0, 2024-03-13 22:46:48.101
29.0, -826.6413069060072, -438.87538985023275, -528.3300568903796, -493.8911881484091, 0.6880000326782465, 0.7040000334382057, 0.35200001671910286, 0.0, 0.0, 0.0, 0.0, 0.0, 1.710395208101316E9, 0.0, 2024-03-13 22:46:48.101
30.0, -820.4255931796506, -430.1576830535196, -519.8629233906977, -488.344916514121, 0.6880000326782465, 0.7040000334382057, 0.35200001671910286, 0.0, 0.0, 0.0, 0.0, 0.0, 1.7103952081172347E9, 0.0, 2024-03-13 22:46:48.117
30.0, -820.373234580271, -436.4519346789457, -524.6911342334934, -496.50911811739206, 0.6880000326782465, 0.7040000334382057, 0.35200001671910286, 0.0, 0.0, 0.0, 0.0, 0.0, 1.7103952081172347E9, 0.0, 2024-03-13 22:46:48.117
31.0, -837.7001910749823, -446.3514498616569, -539.0785293630324, -506.96213849354535, 0.6880000326782465, 0.7040000334382057, 0.35200001671910286, 0.0, 0.0, 0.0, 0.0, 0.0, 1.7103952081177773E9, 0.0, 2024-03-13 22:46:48.117
31.0, -825.9756047138944, -428.8150589694269, -527.2118268036284, -489.5603839997202, 0.6880000326782465, 0.7040000334382057, 0.35200001671910286, 0.0, 0.0, 0.0, 0.0, 0.0, 1.7103952081177773E9, 0.0, 2024-03-13 22:46:48.117
32.0, -831.1927651520818, -440.84257722692564, -534.6841469150968, -502.938006141223, 0.6880000326782465, 0.7040000334382057, 0.35200001671910286, 0.0, 0.0, 0.0, 0.0, 0.0, 1.7103952081316292E9, 0.0, 2024-03-13 22:46:48.131
32.0, -832.5690483357757, -441.9009689143859, -533.2742046318017, -503.73460483178496, 0.6880000326782465, 0.7040000334382057, 0.35200001671910286, 0.0, 0.0, 0.0, 0.0, 0.0, 1.7103952081316292E9, 0.0, 2024-03-13 22:46:48.131
33.0, -836.7689559860155, -449.0778369293548, -544.6883792965673, -507.8073558835313, 0.6880000326782465, 0.7040000334382057, 0.35200001671910286, 0.0, 0.0, 0.0, 0.0, 0.0, 1.7103952081472104E9, 0.0, 2024-03-13 22:46:48.147
33.0, -822.8266089512035, -434.42864880291745, -540.3089564484544, -500.1966594737023, 0.6880000326782465, 0.7040000334382057, 0.35200001671910286, 0.0, 0.0, 0.0, 0.0, 0.0, 1.7103952081472104E9, 0.0, 2024-03-13 22:46:48.147
34.0, -830.1455931644887, -441.50079961912706, -531.2434389558621, -500.8773212656379, 0.6880000326782465, 0.7040000334382057, 0.35200001671910286, 0.0, 0.0, 0.0, 0.0, 0.0, 1.7103952081478927E9, 0.0, 2024-03-13 22:46:48.147
34.0, -829.7641233690083, -437.39812936773524, -531.9241007477976, -497.0850627105683, 0.6880000326782465, 0.7040000334382057, 0.35200001671910286, 0.0, 0.0, 0.0, 0.0, 0.0, 1.7103952081478927E9, 0.0, 2024-03-13 22:46:48.147
35.0, -835.0523419063538, -433.6320501123555, -527.3913420015015, -494.8635621368885, 0.6880000326782465, 0.7040000334382057, 0.35200001671910286, 0.0, 0.0, 0.0, 0.0, 0.0, 1.7103952081616812E9, 0.0, 2024-03-13 22:46:48.161
35.0, -826.6974054053426, -436.8521039742045, -530.6338352630846, -500.5332504697144, 0.6880000326782465, 0.7040000334382057, 0.35200001671910286, 0.0, 0.0, 0.0, 0.0, 0.0, 1.7103952081616812E9, 0.0, 2024-03-13 22:46:48.161
36.0, -836.3388674911112, -459.51963760564104, -541.1541738384403, -513.297529018484, 0.6880000326782465, 0.7040000334382057, 0.35200001671910286, 0.0, 0.0, 0.0, 0.0, 0.0, 1.7103952081770658E9, 0.0, 2024-03-13 22:46:48.177
36.0, -824.992011025548, -438.20220785820857, -538.7643777667545, -500.4322731709108, 0.6880000326782465, 0.7040000334382057, 0.35200001671910286, 0.0, 0.0, 0.0, 0.0, 0.0, 1.7103952081770658E9, 0.0, 2024-03-13 22:46:48.177
37.0, -821.409186867997, -434.4810074022971, -522.8885024548508, -495.8621154250577, 0.6880000326782465, 0.7040000334382057, 0.35200001671910286, 0.0, 0.0, 0.0, 0.0, 0.0, 1.710395208177772E9, 0.0, 2024-03-13 22:46:48.177
37.0, -817.6505874125287, -426.1185911013745, -518.7147741043009, -491.3069172790274, 0.6880000326782465, 0.7040000334382057, 0.35200001671910286, 0.0, 0.0, 0.0, 0.0, 0.0, 1.710395208177772E9, 0.0, 2024-03-13 22:46:48.177
38.0, -829.4836308723316, -437.42804856738076, -535.0057783112861, -499.0821692869067, 0.6880000326782465, 0.7040000334382057, 0.35200001671910286, 0.0, 0.0, 0.0, 0.0, 0.0, 1.7103952081912863E9, 0.0, 2024-03-13 22:46:48.191
38.0, -847.6408451572061, -444.66101508168504, -548.611534350086, -513.9557514106855, 0.6880000326782465, 0.7040000334382057, 0.35200001671910286, 0.0, 0.0, 0.0, 0.0, 0.0, 1.7103952081912863E9, 0.0, 2024-03-13 22:46:48.191
39.0, -831.6901718461886, -446.6282024583779, -544.0301569043659, -511.44627854041755, 0.6880000326782465, 0.7040000334382057, 0.35200001671910286, 0.0, 0.0, 0.0, 0.0, 0.0, 1.7103952082070265E9, 0.0, 2024-03-13 22:46:48.207
39.0, -836.256589692086, -449.21621322771534, -541.6179214329459, -512.9310188228264, 0.6880000326782465, 0.7040000334382057, 0.35200001671910286, 0.0, 0.0, 0.0, 0.0, 0.0, 1.7103952082070265E9, 0.0, 2024-03-13 22:46:48.207
40.0, -831.215204551816, -438.02643256029114, -535.9145740005188, -495.40958753041923, 0.6880000326782465, 0.7040000334382057, 0.35200001671910286, 0.0, 0.0, 0.0, 0.0, 0.0, 1.710395208207726E9, 0.0, 2024-03-13 22:46:48.207
40.0, -825.3959202207625, -438.84547065058723, -535.7238391027786, -505.024870316498, 0.6880000326782465, 0.7040000334382057, 0.35200001671910286, 0.0, 0.0, 0.0, 0.0, 0.0, 1.710395208207726E9, 0.0, 2024-03-13 22:46:48.207
41.0, -832.7448236336932, -450.4541201130487, -536.2399452966638, -509.583808362484, 0.6880000326782465, 0.7040000334382057, 0.35200001671910286, 0.0, 0.0, 0.0, 0.0, 0.0, 1.7103952082212663E9, 0.0, 2024-03-13 22:46:48.221
41.0, -820.0403834842145, -426.90770999202505, -521.7104339688085, -487.54831782355905, 0.6880000326782465, 0.7040000334382057, 0.35200001671910286, 0.0, 0.0, 0.0, 0.0, 0.0, 1.7103952082212663E9, 0.0, 2024-03-13 22:46:48.221
42.0, -808.2447390239686, -427.5098338848911, -529.8185370727442, -494.77380453795195, 0.7040000334382057, 0.7040000334382057, 0.35200001671910286, 0.0, 0.0, 0.0, 0.0, 0.0, 1.7103952082370112E9, 0.0, 2024-03-13 22:46:48.237
42.0, -817.695466211997, -437.7048011641018, -534.3251165193506, -504.40778682380915, 0.7040000334382057, 0.7040000334382057, 0.35200001671910286, 0.0, 0.0, 0.0, 0.0, 0.0, 1.7103952082370112E9, 0.0, 2024-03-13 22:46:48.237
43.0, -808.0166051266715, -425.65110360691324, -538.8017767663114, -499.03729048743844, 0.7040000334382057, 0.7040000334382057, 0.35200001671910286, 0.0, 0.0, 0.0, 0.0, 0.0, 1.7103952082377129E9, 0.0, 2024-03-13 22:46:48.237
43.0, -801.7597525008023, -418.0665864967741, -527.9897259944119, -491.0451242821291, 0.7040000334382057, 0.7040000334382057, 0.35200001671910286, 0.0, 0.0, 0.0, 0.0, 0.0, 1.7103952082377129E9, 0.0, 2024-03-13 22:46:48.237
44.0, -804.0859702732414, -414.2182294423692, -523.139075751882, -497.9414998004213, 0.7040000334382057, 0.7040000334382057, 0.35200001671910286, 0.0, 0.0, 0.0, 0.0, 0.0, 1.7103952082676208E9, 0.0, 2024-03-13 22:46:48.267
44.0, -800.0917571205646, -412.5913729616441, -527.795251196716, -491.6472481749952, 0.7040000334382057, 0.7040000334382057, 0.35200001671910286, 0.0, 0.0, 0.0, 0.0, 0.0, 1.7103952082676208E9, 0.0, 2024-03-13 22:46:48.267
45.0, -795.6898948727176, -409.8388065942563, -521.4187217722647, -483.6737814694643, 0.7040000334382057, 0.7040000334382057, 0.35200001671910286, 0.0, 0.0, 0.0, 0.0, 0.0, 1.7103952082683449E9, 0.0, 2024-03-13 22:46:48.268
45.0, -796.9726805575192, -415.63565152557567, -510.53935280116275, -476.1528426585719, 0.7040000334382057, 0.7040000334382057, 0.35200001671910286, 0.0, 0.0, 0.0, 0.0, 0.0, 1.7103952082683449E9, 0.0, 2024-03-13 22:46:48.268
46.0, -795.1064704796299, -413.67968384874985, -512.3232850800268, -481.7851319918409, 0.7040000334382057, 0.7040000334382057, 0.35200001671910286, 0.0, 0.0, 0.0, 0.0, 0.0, 1.710395208269101E9, 0.0, 2024-03-13 22:46:48.269
46.0, -794.9344350816682, -402.9611305757426, -517.9705340131186, -475.1542893704027, 0.7040000334382057, 0.7040000334382057, 0.35200001671910286, 0.0, 0.0, 0.0, 0.0, 0.0, 1.710395208269101E9, 0.0, 2024-03-13 22:46:48.269
47.0, -795.5178594747558, -407.9464172166772, -511.8483177856542, -478.41922203172, 0.7040000334382057, 0.7040000334382057, 0.35200001671910286, 0.0, 0.0, 0.0, 0.0, 0.0, 1.710395208281777E9, 0.0, 2024-03-13 22:46:48.281
47.0, -798.7566128363833, -417.2213691067882, -509.9372289082967, -479.91892191395164, 0.7040000334382057, 0.7040000334382057, 0.35200001671910286, 0.0, 0.0, 0.0, 0.0, 0.0, 1.710395208281777E9, 0.0, 2024-03-13 22:46:48.281
48.0, -802.3917955933139, -412.23982236580923, -534.2091796207242, -487.62311582267284, 0.7040000334382057, 0.7040000334382057, 0.35200001671910286, 0.0, 0.0, 0.0, 0.0, 0.0, 1.7103952082974408E9, 0.0, 2024-03-13 22:46:48.297
48.0, -789.3881634473801, -400.66483200294897, -515.8163516386412, -474.0136198839173, 0.7040000334382057, 0.7040000334382057, 0.35200001671910286, 0.0, 0.0, 0.0, 0.0, 0.0, 1.7103952082974408E9, 0.0, 2024-03-13 22:46:48.297
49.0, -791.0224997280166, -410.1305187908001, -518.1313497112133, -482.0880638882518, 0.7040000334382057, 0.7040000334382057, 0.35200001671910286, 0.0, 0.0, 0.0, 0.0, 0.0, 1.7103952082978568E9, 0.0, 2024-03-13 22:46:48.297
49.0, -793.3898563999683, -411.6601378726773, -522.0171057651751, -485.91024164296687, 0.7040000334382057, 0.7040000334382057, 0.35200001671910286, 0.0, 0.0, 0.0, 0.0, 0.0, 1.7103952082978568E9, 0.0, 2024-03-13 22:46:48.297
50.0, -789.1001911507919, -405.52296204539016, -519.5637313942425, -478.744593327865, 0.7040000334382057, 0.7040000334382057, 0.35200001671910286, 0.0, 0.0, 0.0, 0.0, 0.0, 1.7103952083115845E9, 0.0, 2024-03-13 22:46:48.311
50.0, -785.5136270932853, -399.89815251203254, -514.02119965991, -478.17986843455583, 0.7040000334382057, 0.7040000334382057, 0.35200001671910286, 0.0, 0.0, 0.0, 0.0, 0.0, 1.7103952083115845E9, 0.0, 2024-03-13 22:46:48.311
51.0, -783.0004143230617, -394.4603379764594, -504.97812156705186, -474.4773674784228, 0.7040000334382057, 0.7040000334382057, 0.35200001671910286, 0.0, 0.0, 0.0, 0.0, 0.0, 1.7103952083269448E9, 0.0, 2024-03-13 22:46:48.326
51.0, -799.3811761289835, -414.9849089332856, -536.6924731913023, -492.9375136597082, 0.7040000334382057, 0.7040000334382057, 0.35200001671910286, 0.0, 0.0, 0.0, 0.0, 0.0, 1.7103952083269448E9, 0.0, 2024-03-13 22:46:48.326
52.0, -805.7464858535677, -420.1160516724922, -542.7174520199187, -497.8330427017063, 0.7040000334382057, 0.7040000334382057, 0.35200001671910286, 0.0, 0.0, 0.0, 0.0, 0.0, 1.71039520832771E9, 0.0, 2024-03-13 22:46:48.327
52.0, -802.0439848974347, -420.9575291625224, -516.7101877280511, -488.54313121177256, 0.7040000334382057, 0.7040000334382057, 0.35200001671910286, 0.0, 0.0, 0.0, 0.0, 0.0, 1.71039520832771E9, 0.0, 2024-03-13 22:46:48.327
53.0, -810.941206892021, -418.57521289074793, -536.2436851966195, -496.6474944157526, 0.7040000334382057, 0.7040000334382057, 0.35200001671910286, 0.0, 0.0, 0.0, 0.0, 0.0, 1.7103952083413064E9, 0.0, 2024-03-13 22:46:48.341
53.0, -801.3221842059866, -414.16213094303384, -528.434774089139, -482.712627180852, 0.7040000334382057, 0.7040000334382057, 0.35200001671910286, 0.0, 0.0, 0.0, 0.0, 0.0, 1.7103952083413064E9, 0.0, 2024-03-13 22:46:48.341
54.0, -796.6772284610197, -407.9538970165886, -501.38033780967817, -468.80393924564123, 0.7040000334382057, 0.7040000334382057, 0.35200001671910286, 0.0, 0.0, 0.0, 0.0, 0.0, 1.7103952083569992E9, 0.0, 2024-03-13 22:46:48.356
54.0, -795.5963973738253, -407.67714441986755, -502.3377521983348, -462.53212701994926, 0.7040000334382057, 0.7040000334382057, 0.35200001671910286, 0.0, 0.0, 0.0, 0.0, 0.0, 1.7103952083569992E9, 0.0, 2024-03-13 22:46:48.356
55.0, -791.1122573269531, -404.5393683570437, -513.1647625700571, -471.28349291626364, 0.7040000334382057, 0.7040000334382057, 0.35200001671910286, 0.0, 0.0, 0.0, 0.0, 0.0, 1.710395208357674E9, 0.0, 2024-03-13 22:46:48.357
55.0, -788.5167667577043, -412.41933756368235, -518.0902108117007, -480.3714498085901, 0.7040000334382057, 0.7040000334382057, 0.35200001671910286, 0.0, 0.0, 0.0, 0.0, 0.0, 1.710395208357674E9, 0.0, 2024-03-13 22:46:48.357
56.0, -798.120829843916, -417.57665960257873, -513.2059014695697, -483.2586525743827, 0.7040000334382057, 0.7040000334382057, 0.35200001671910286, 0.0, 0.0, 0.0, 0.0, 0.0, 1.7103952083713307E9, 0.0, 2024-03-13 22:46:48.371
56.0, -805.2976978588849, -417.56917980266735, -521.0559514765628, -479.35045712068677, 0.7040000334382057, 0.7040000334382057, 0.35200001671910286, 0.0, 0.0, 0.0, 0.0, 0.0, 1.7103952083713307E9, 0.0, 2024-03-13 22:46:48.371
57.0, -815.1598140420392, -427.1171443895437, -529.0892565813847, -491.3517960784957, 0.7040000334382057, 0.7040000334382057, 0.35200001671910286, 0.0, 0.0, 0.0, 0.0, 0.0, 1.710395208386947E9, 0.0, 2024-03-13 22:46:48.386
57.0, -802.5152122918516, -414.0985526437871, -520.6146432817914, -481.58317739423364, 0.7040000334382057, 0.7040000334382057, 0.35200001671910286, 0.0, 0.0, 0.0, 0.0, 0.0, 1.710395208386947E9, 0.0, 2024-03-13 22:46:48.386
58.0, -796.5575516624376, -403.59691356820986, -516.4147356315516, -475.58437786530703, 0.7040000334382057, 0.7040000334382057, 0.35200001671910286, 0.0, 0.0, 0.0, 0.0, 0.0, 1.710395208387706E9, 0.0, 2024-03-13 22:46:48.387
58.0, -794.0368590923026, -405.30604784796014, -523.3298106496222, -480.2181139104068, 0.7040000334382057, 0.7040000334382057, 0.35200001671910286, 0.0, 0.0, 0.0, 0.0, 0.0, 1.710395208387706E9, 0.0, 2024-03-13 22:46:48.387
59.0, -798.4200218403712, -424.9293029154651, -525.1586217279546, -487.10700962878764, 0.7040000334382057, 0.7040000334382057, 0.35200001671910286, 0.0, 0.0, 0.0, 0.0, 0.0, 1.7103952084017396E9, 0.0, 2024-03-13 22:46:48.401
59.0, -805.8212838526815, -423.3585449340753, -521.4411611719988, -487.3875021254644, 0.7040000334382057, 0.7040000334382057, 0.35200001671910286, 0.0, 0.0, 0.0, 0.0, 0.0, 1.7103952084017396E9, 0.0, 2024-03-13 22:46:48.401
60.0, -802.7620456889272, -404.56180775677785, -514.8065786506049, -474.27915278077126, 0.7040000334382057, 0.7040000334382057, 0.35200001671910286, 0.0, 0.0, 0.0, 0.0, 0.0, 1.7103952084173968E9, 0.0, 2024-03-13 22:46:48.417
60.0, -809.7743581058457, -418.4368365923874, -528.4123346894048, -487.9746664185077, 0.7040000334382057, 0.7040000334382057, 0.35200001671910286, 0.0, 0.0, 0.0, 0.0, 0.0, 1.7103952084173968E9, 0.0, 2024-03-13 22:46:48.417
61.0, -811.1132422899827, -429.8248319574632, -528.1655012923293, -491.57992997579277, 0.7040000334382057, 0.7040000334382057, 0.35200001671910286, 0.0, 0.0, 0.0, 0.0, 0.0, 1.7103952084178813E9, 0.0, 2024-03-13 22:46:48.417
61.0, -807.6351353311911, -416.04704052070156, -531.0414843582548, -482.57799078244716, 0.7040000334382057, 0.7040000334382057, 0.35200001671910286, 0.0, 0.0, 0.0, 0.0, 0.0, 1.7103952084178813E9, 0.0, 2024-03-13 22:46:48.417
62.0, -789.2759664487094, -406.11386623838916, -517.5890642176382, -474.2679330809042, 0.6880000326782465, 0.7040000334382057, 0.35200001671910286, 0.0, 0.0, 0.0, 0.0, 0.0, 1.710395208431661E9, 0.0, 2024-03-13 22:46:48.431
62.0, -796.6809683609754, -411.68257727241144, -520.7417998802848, -482.31619778554887, 0.6880000326782465, 0.7040000334382057, 0.35200001671910286, 0.0, 0.0, 0.0, 0.0, 0.0, 1.710395208431661E9, 0.0, 2024-03-13 22:46:48.431
63.0, -815.2420918410644, -427.3265787870623, -535.9893719996326, -495.3460092311725, 0.6880000326782465, 0.7040000334382057, 0.35200001671910286, 0.0, 0.0, 0.0, 0.0, 0.0, 1.7103952084473896E9, 0.0, 2024-03-13 22:46:48.447
63.0, -822.5049775550142, -428.68416247097775, -525.6410688222386, -494.96079953573644, 0.6880000326782465, 0.7040000334382057, 0.35200001671910286, 0.0, 0.0, 0.0, 0.0, 0.0, 1.7103952084473896E9, 0.0, 2024-03-13 22:46:48.447
64.0, -814.475412350148, -430.7523271464743, -516.1192835350521, -490.5738968877122, 0.6880000326782465, 0.7040000334382057, 0.35200001671910286, 0.0, 0.0, 0.0, 0.0, 0.0, 1.710395208447873E9, 0.0, 2024-03-13 22:46:48.447
64.0, -842.9584904126823, -453.61807547556236, -549.7222846369259, -516.4914035806432, 0.6880000326782465, 0.7040000334382057, 0.35200001671910286, 0.0, 0.0, 0.0, 0.0, 0.0, 1.710395208447873E9, 0.0, 2024-03-13 22:46:48.447
65.0, -841.7243234273046, -451.25071880361065, -549.7858629361726, -510.89277334697545, 0.6880000326782465, 0.7040000334382057, 0.35200001671910286, 0.0, 0.0, 0.0, 0.0, 0.0, 1.7103952084613066E9, 0.0, 2024-03-13 22:46:48.461
65.0, -829.7828228687868, -451.02258490631357, -536.8345893896185, -504.5349434223026, 0.6880000326782465, 0.7040000334382057, 0.35200001671910286, 0.0, 0.0, 0.0, 0.0, 0.0, 1.7103952084613066E9, 0.0, 2024-03-13 22:46:48.461
66.0, -822.5087174549699, -436.4033159795217, -524.5901569346897, -491.5238314764574, 0.6880000326782465, 0.7040000334382057, 0.35200001671910286, 0.0, 0.0, 0.0, 0.0, 0.0, 1.710395208477018E9, 0.0, 2024-03-13 22:46:48.477
66.0, -823.1519802473485, -432.8204918219708, -527.8924885955639, -489.22005310375243, 0.6880000326782465, 0.7040000334382057, 0.35200001671910286, 0.0, 0.0, 0.0, 0.0, 0.0, 1.710395208477018E9, 0.0, 2024-03-13 22:46:48.477
67.0, -816.4575593266636, -429.5219000610523, -515.6630157404579, -487.9036083193496, 0.6880000326782465, 0.7040000334382057, 0.35200001671910286, 0.0, 0.0, 0.0, 0.0, 0.0, 1.7103952084777353E9, 0.0, 2024-03-13 22:46:48.477
67.0, -825.8260087156668, -441.381122820545, -525.5026925238781, -493.91736744809896, 0.6880000326782465, 0.7040000334382057, 0.35200001671910286, 0.0, 0.0, 0.0, 0.0, 0.0, 1.7103952084777353E9, 0.0, 2024-03-13 22:46:48.477
68.0, -831.7013915460557, -439.54857184225693, -542.665093420539, -497.6909265033901, 0.6880000326782465, 0.7040000334382057, 0.35200001671910286, 0.0, 0.0, 0.0, 0.0, 0.0, 1.7103952084912946E9, 0.0, 2024-03-13 22:46:48.491
68.0, -821.506424266845, -428.01098047895357, -538.3941276711412, -494.0968826459721, 0.6880000326782465, 0.7040000334382057, 0.35200001671910286, 0.0, 0.0, 0.0, 0.0, 0.0, 1.7103952084912946E9, 0.0, 2024-03-13 22:46:48.491
69.0, -820.5789290778339, -425.35565151041374, -530.2411457677372, -494.2763978438452, 0.6880000326782465, 0.7040000334382057, 0.35200001671910286, 0.0, 0.0, 0.0, 0.0, 0.0, 1.7103952085070007E9, 0.0, 2024-03-13 22:46:48.507
69.0, -814.112642054446, -421.1520039602183, -528.0420845937915, -492.4924655649811, 0.6880000326782465, 0.7040000334382057, 0.35200001671910286, 0.0, 0.0, 0.0, 0.0, 0.0, 1.7103952085070007E9, 0.0, 2024-03-13 22:46:48.507
70.0, -817.2990368166938, -426.30932599911466, -539.493658258114, -499.6506340801716, 0.6880000326782465, 0.7040000334382057, 0.35200001671910286, 0.0, 0.0, 0.0, 0.0, 0.0, 1.7103952085077014E9, 0.0, 2024-03-13 22:46:48.507
70.0, -814.4903719499707, -429.634097059723, -523.8010380440392, -492.1970134684816, 0.6880000326782465, 0.7040000334382057, 0.35200001671910286, 0.0, 0.0, 0.0, 0.0, 0.0, 1.7103952085077014E9, 0.0, 2024-03-13 22:46:48.507
71.0, -819.0081710964441, -439.50369304278865, -547.2315112664364, -506.0832620039582, 0.6880000326782465, 0.7040000334382057, 0.35200001671910286, 0.0, 0.0, 0.0, 0.0, 0.0, 1.7103952085215304E9, 0.0, 2024-03-13 22:46:48.521
71.0, -836.099513893947, -449.9791528186761, -548.2151049547829, -508.85826777108014, 0.6880000326782465, 0.7040000334382057, 0.35200001671910286, 0.0, 0.0, 0.0, 0.0, 0.0, 1.7103952085215304E9, 0.0, 2024-03-13 22:46:48.521
72.0, -824.2365512344986, -432.962608020287, -543.9366594054736, -500.7576444670558, 0.7040000334382057, 0.7040000334382057, 0.35200001671910286, 0.0, 0.0, 0.0, 0.0, 0.0, 1.7103952085369487E9, 0.0, 2024-03-13 22:46:48.536
72.0, -816.2256855294108, -431.43298893840984, -534.3138968194835, -499.6468941802159, 0.7040000334382057, 0.7040000334382057, 0.35200001671910286, 0.0, 0.0, 0.0, 0.0, 0.0, 1.7103952085369487E9, 0.0, 2024-03-13 22:46:48.536
73.0, -822.9425458498299, -425.17239641258493, -529.8634158722125, -489.9381138952449, 0.7040000334382057, 0.7040000334382057, 0.35200001671910286, 0.0, 0.0, 0.0, 0.0, 0.0, 1.7103952085376604E9, 0.0, 2024-03-13 22:46:48.537
73.0, -825.7624304164201, -421.41753685707226, -526.673281210009, -487.02099192980677, 0.7040000334382057, 0.7040000334382057, 0.35200001671910286, 0.0, 0.0, 0.0, 0.0, 0.0, 1.7103952085376604E9, 0.0, 2024-03-13 22:46:48.537
74.0, -832.3558740383014, -444.1972674871795, -532.8328964370303, -499.127048086375, 0.7040000334382057, 0.7040000334382057, 0.35200001671910286, 0.0, 0.0, 0.0, 0.0, 0.0, 1.7103952085515225E9, 0.0, 2024-03-13 22:46:48.551
74.0, -839.8543734494597, -456.0190912471153, -551.1397067201324, -511.51359673961997, 0.7040000334382057, 0.7040000334382057, 0.35200001671910286, 0.0, 0.0, 0.0, 0.0, 0.0, 1.7103952085515225E9, 0.0, 2024-03-13 22:46:48.551
75.0, -831.1366666527465, -445.31923747388646, -546.3301953771152, -504.0861554276198, 0.7040000334382057, 0.7040000334382057, 0.35200001671910286, 0.0, 0.0, 0.0, 0.0, 0.0, 1.710395208566929E9, 0.0, 2024-03-13 22:46:48.566
75.0, -808.8880018163472, -433.68066881177947, -526.6471019103192, -490.14380839280784, 0.7040000334382057, 0.7040000334382057, 0.35200001671910286, 0.0, 0.0, 0.0, 0.0, 0.0, 1.710395208566929E9, 0.0, 2024-03-13 22:46:48.566
76.0, -818.7314184997231, -435.49826019024476, -531.4154743538238, -496.51659791730344, 0.7040000334382057, 0.7040000334382057, 0.35200001671910286, 0.0, 0.0, 0.0, 0.0, 0.0, 1.7103952085676467E9, 0.0, 2024-03-13 22:46:48.567
76.0, -832.0791214415804, -443.06407780060545, -549.0902415444143, -506.37497420050204, 0.7040000334382057, 0.7040000334382057, 0.35200001671910286, 0.0, 0.0, 0.0, 0.0, 0.0, 1.7103952085676467E9, 0.0, 2024-03-13 22:46:48.567
77.0, -824.5731422305107, -434.7801993987523, -530.2897644671611, -497.84800230152905, 0.7040000334382057, 0.7040000334382057, 0.35200001671910286, 0.0, 0.0, 0.0, 0.0, 0.0, 1.7103952085815475E9, 0.0, 2024-03-13 22:46:48.581
77.0, -826.7609837045893, -439.776705739554, -537.2048394852318, -503.9141200296581, 0.7040000334382057, 0.7040000334382057, 0.35200001671910286, 0.0, 0.0, 0.0, 0.0, 0.0, 1.7103952085815475E9, 0.0, 2024-03-13 22:46:48.581
78.0, -834.10988711752, -446.06347756506875, -549.8756205351092, -509.84934125933796, 0.7040000334382057, 0.7040000334382057, 0.35200001671910286, 0.0, 0.0, 0.0, 0.0, 0.0, 1.7103952085977252E9, 0.0, 2024-03-13 22:46:48.597
78.0, -814.6885866476223, -432.42780232662335, -530.3683023662306, -498.2070326972753, 0.7040000334382057, 0.7040000334382057, 0.35200001671910286, 0.0, 0.0, 0.0, 0.0, 0.0, 1.7103952085977252E9, 0.0, 2024-03-13 22:46:48.597
79.0, -823.6194677418098, -442.49935290729627, -541.5954820332117, -510.14853325579315, 0.7040000334382057, 0.7040000334382057, 0.35200001671910286, 0.0, 0.0, 0.0, 0.0, 0.0, 1.710395208597787E9, 0.0, 2024-03-13 22:46:48.597
79.0, -836.7278170865029, -449.4480870249681, -536.3708417951129, -513.443385116756, 0.7040000334382057, 0.7040000334382057, 0.35200001671910286, 0.0, 0.0, 0.0, 0.0, 0.0, 1.710395208597787E9, 0.0, 2024-03-13 22:46:48.597
80.0, -827.0751353008673, -439.87394313840196, -549.9391988343559, -505.5634159101173, 0.7040000334382057, 0.7040000334382057, 0.35200001671910286, 0.0, 0.0, 0.0, 0.0, 0.0, 1.7103952086113389E9, 0.0, 2024-03-13 22:46:48.611
80.0, -830.4223457612097, -446.2616922627203, -541.8348356303759, -511.248063842766, 0.7040000334382057, 0.7040000334382057, 0.35200001671910286, 0.0, 0.0, 0.0, 0.0, 0.0, 1.7103952086113389E9, 0.0, 2024-03-13 22:46:48.611
81.0, -829.5696485713124, -440.3713498325087, -536.5241776932962, -507.52312348689884, 0.7040000334382057, 0.7040000334382057, 0.35200001671910286, 0.0, 0.0, 0.0, 0.0, 0.0, 1.7103952086269267E9, 0.0, 2024-03-13 22:46:48.626
81.0, -827.5388828953728, -433.8115653102286, -532.5411842404865, -500.9072404652834, 0.7040000334382057, 0.7040000334382057, 0.35200001671910286, 0.0, 0.0, 0.0, 0.0, 0.0, 1.7103952086269267E9, 0.0, 2024-03-13 22:46:48.626
82.0, -821.3194292690605, -425.50150760868564, -528.1019229930826, -491.65846787486225, 0.7040000334382057, 0.7040000334382057, 0.35200001671910286, 0.0, 0.0, 0.0, 0.0, 0.0, 1.710395208627791E9, 0.0, 2024-03-13 22:46:48.627
82.0, -814.5576901491731, -430.2324810526334, -513.8603839618154, -492.28303116746247, 0.7040000334382057, 0.7040000334382057, 0.35200001671910286, 0.0, 0.0, 0.0, 0.0, 0.0, 1.710395208627791E9, 0.0, 2024-03-13 22:46:48.627
83.0, -827.8492945916951, -432.79057262232527, -536.1314881979488, -496.37074181903154, 0.7040000334382057, 0.7040000334382057, 0.35200001671910286, 0.0, 0.0, 0.0, 0.0, 0.0, 1.7103952086413057E9, 0.0, 2024-03-13 22:46:48.641
83.0, -840.7519494388252, -442.562931206543, -547.2015920667909, -508.9891642695293, 0.7040000334382057, 0.7040000334382057, 0.35200001671910286, 0.0, 0.0, 0.0, 0.0, 0.0, 1.7103952086413057E9, 0.0, 2024-03-13 22:46:48.641
84.0, -841.0474015353248, -447.02463185368106, -548.3609610530548, -514.6401531025767, 0.7040000334382057, 0.7040000334382057, 0.35200001671910286, 0.0, 0.0, 0.0, 0.0, 0.0, 1.710395208656964E9, 0.0, 2024-03-13 22:46:48.656
84.0, -840.0974669465795, -445.9251012667082, -547.6541199614294, -513.4059861171991, 0.7040000334382057, 0.7040000334382057, 0.35200001671910286, 0.0, 0.0, 0.0, 0.0, 0.0, 1.710395208656964E9, 0.0, 2024-03-13 22:46:48.656
85.0, -831.9594446429983, -437.54024556605145, -545.8888871823438, -505.7504109079018, 0.7040000334382057, 0.7040000334382057, 0.35200001671910286, 0.0, 0.0, 0.0, 0.0, 0.0, 1.7103952086576588E9, 0.0, 2024-03-13 22:46:48.657
85.0, -820.9903180729598, -434.084578006994, -534.9085409124382, -500.10690187476575, 0.7040000334382057, 0.7040000334382057, 0.35200001671910286, 0.0, 0.0, 0.0, 0.0, 0.0, 1.7103952086576588E9, 0.0, 2024-03-13 22:46:48.657
86.0, -830.889833255671, -445.43517437251285, -532.7543585379608, -499.96478567644954, 0.7040000334382057, 0.7040000334382057, 0.35200001671910286, 0.0, 0.0, 0.0, 0.0, 0.0, 1.7103952086712947E9, 0.0, 2024-03-13 22:46:48.671
86.0, -835.4936501011252, -444.6049165823497, -544.0189372044988, -509.6960053611547, 0.7040000334382057, 0.7040000334382057, 0.35200001671910286, 0.0, 0.0, 0.0, 0.0, 0.0, 1.7103952086712947E9, 0.0, 2024-03-13 22:46:48.671
87.0, -844.1103795990348, -450.7832313091494, -550.6722192256711, -517.0000299746171, 0.7040000334382057, 0.7040000334382057, 0.35200001671910286, 0.0, 0.0, 0.0, 0.0, 0.0, 1.7103952086869247E9, 0.0, 2024-03-13 22:46:48.686
87.0, -837.7076708748937, -451.946340195369, -551.5735351149924, -520.5903339320794, 0.7040000334382057, 0.7040000334382057, 0.35200001671910286, 0.0, 0.0, 0.0, 0.0, 0.0, 1.7103952086869247E9, 0.0, 2024-03-13 22:46:48.686
88.0, -840.0039694476873, -442.1478023114614, -547.4708648636006, -511.70807153731585, 0.7040000334382057, 0.7040000334382057, 0.35200001671910286, 0.0, 0.0, 0.0, 0.0, 0.0, 1.710395208687626E9, 0.0, 2024-03-13 22:46:48.687
88.0, -836.0022764950991, -436.8969827736728, -544.643500497099, -506.9883177932352, 0.7040000334382057, 0.7040000334382057, 0.35200001671910286, 0.0, 0.0, 0.0, 0.0, 0.0, 1.710395208687626E9, 0.0, 2024-03-13 22:46:48.687
89.0, -833.1337732290849, -437.4504879671149, -534.1306417216547, -501.43456635903567, 0.7040000334382057, 0.7040000334382057, 0.35200001671910286, 0.0, 0.0, 0.0, 0.0, 0.0, 1.710395208701488E9, 0.0, 2024-03-13 22:46:48.701
89.0, -840.3031614441425, -449.8968750196509, -549.6400068379007, -512.8861400233582, 0.7040000334382057, 0.7040000334382057, 0.35200001671910286, 0.0, 0.0, 0.0, 0.0, 0.0, 1.710395208701488E9, 0.0, 2024-03-13 22:46:48.701
90.0, -837.8273476734757, -436.35469728009775, -535.091796010267, -500.6491873683408, 0.7040000334382057, 0.7040000334382057, 0.35200001671910286, 0.0, 0.0, 0.0, 0.0, 0.0, 1.7103952087169328E9, 0.0, 2024-03-13 22:46:48.716
90.0, -825.5903950184584, -423.4483025330119, -519.2757590976544, -488.3710958138108, 0.7040000334382057, 0.7040000334382057, 0.35200001671910286, 0.0, 0.0, 0.0, 0.0, 0.0, 1.7103952087169328E9, 0.0, 2024-03-13 22:46:48.716
91.0, -820.5303103784099, -428.1156976777129, -519.5562515943311, -487.70165372174233, 0.7040000334382057, 0.7040000334382057, 0.35200001671910286, 0.0, 0.0, 0.0, 0.0, 0.0, 1.7103952087176473E9, 0.0, 2024-03-13 22:46:48.717
91.0, -821.5139040667564, -425.24345451174304, -544.4639852992259, -500.3125963723287, 0.7040000334382057, 0.7040000334382057, 0.35200001671910286, 0.0, 0.0, 0.0, 0.0, 0.0, 1.7103952087176473E9, 0.0, 2024-03-13 22:46:48.717
92.0, -829.6033076709136, -432.5848781247623, -538.3829079712741, -505.2866633133963, 0.7040000334382057, 0.7040000334382057, 0.35200001671910286, 0.0, 0.0, 0.0, 0.0, 0.0, 1.7103952087315404E9, 0.0, 2024-03-13 22:46:48.731
92.0, -843.8448467021808, -450.4129812135361, -556.6261399551295, -523.851526693441, 0.7040000334382057, 0.7040000334382057, 0.35200001671910286, 0.0, 0.0, 0.0, 0.0, 0.0, 1.7103952087315404E9, 0.0, 2024-03-13 22:46:48.731
93.0, -846.1935038743541, -455.540384052787, -566.8398067341186, -523.0624078027904, 0.7040000334382057, 0.7040000334382057, 0.35200001671910286, 0.0, 0.0, 0.0, 0.0, 0.0, 1.7103952087473843E9, 0.0, 2024-03-13 22:46:48.747
93.0, -836.9409913839772, -441.9982063132338, -555.5677482676692, -511.30042244214565, 0.7040000334382057, 0.7040000334382057, 0.35200001671910286, 0.0, 0.0, 0.0, 0.0, 0.0, 1.7103952087473843E9, 0.0, 2024-03-13 22:46:48.747
94.0, -825.7437309166417, -433.0748050189577, -531.8754820483737, -502.4256398472935, 0.7040000334382057, 0.7040000334382057, 0.35200001671910286, 0.0, 0.0, 0.0, 0.0, 0.0, 1.7103952087478774E9, 0.0, 2024-03-13 22:46:48.747
94.0, -817.6206682128832, -423.3211459345184, -519.4777136952616, -488.4271943131462, 0.7040000334382057, 0.7040000334382057, 0.35200001671910286, 0.0, 0.0, 0.0, 0.0, 0.0, 1.7103952087478774E9, 0.0, 2024-03-13 22:46:48.747
95.0, -835.676905198954, -435.7114344877191, -540.0696028512903, -498.1284947982058, 0.7040000334382057, 0.7040000334382057, 0.35200001671910286, 0.0, 0.0, 0.0, 0.0, 0.0, 1.710395208761586E9, 0.0, 2024-03-13 22:46:48.761
95.0, -844.2188366977498, -451.6134890993126, -556.1062938612886, -518.5633081560954, 0.7040000334382057, 0.7040000334382057, 0.35200001671910286, 0.0, 0.0, 0.0, 0.0, 0.0, 1.710395208761586E9, 0.0, 2024-03-13 22:46:48.761
96.0, -835.1794985048473, -446.1644548638724, -545.5672557861544, -512.4597914284095, 0.7040000334382057, 0.7040000334382057, 0.35200001671910286, 0.0, 0.0, 0.0, 0.0, 0.0, 1.7103952087773042E9, 0.0, 2024-03-13 22:46:48.777
96.0, -836.8736731847748, -439.3316576448269, -536.8832080890425, -497.0925425104797, 0.7040000334382057, 0.7040000334382057, 0.35200001671910286, 0.0, 0.0, 0.0, 0.0, 0.0, 1.7103952087773042E9, 0.0, 2024-03-13 22:46:48.777
97.0, -832.4605912370607, -434.4398685027845, -530.2972442670725, -496.8344894135371, 0.7040000334382057, 0.7040000334382057, 0.35200001671910286, 0.0, 0.0, 0.0, 0.0, 0.0, 1.7103952087780137E9, 0.0, 2024-03-13 22:46:48.778
97.0, -831.26382325124, -440.6443625292741, -529.3660091781057, -503.00158444046974, 0.7040000334382057, 0.7040000334382057, 0.35200001671910286, 0.0, 0.0, 0.0, 0.0, 0.0, 1.7103952087780137E9, 0.0, 2024-03-13 22:46:48.778
98.0, -857.8171129366383, -448.80482423258945, -558.9673173273914, -513.9669711105525, 0.7040000334382057, 0.7040000334382057, 0.35200001671910286, 0.0, 0.0, 0.0, 0.0, 0.0, 1.7103952087913096E9, 0.0, 2024-03-13 22:46:48.791
98.0, -841.2830152325332, -437.76089966343716, -533.7080330266617, -502.29848324880004, 0.7040000334382057, 0.7040000334382057, 0.35200001671910286, 0.0, 0.0, 0.0, 0.0, 0.0, 1.7103952087913096E9, 0.0, 2024-03-13 22:46:48.791
99.0, -844.420791295357, -448.03440484171733, -548.1029079561122, -511.45375834032893, 0.7040000334382057, 0.7040000334382057, 0.35200001671910286, 0.0, 0.0, 0.0, 0.0, 0.0, 1.7103952088233745E9, 0.0, 2024-03-13 22:46:48.823
99.0, -845.3894253838807, -452.3913882900961, -555.5116497683339, -515.8855397878215, 0.7040000334382057, 0.7040000334382057, 0.35200001671910286, 0.0, 0.0, 0.0, 0.0, 0.0, 1.7103952088233745E9, 0.0, 2024-03-13 22:46:48.823
100.0, -847.0088020646945, -446.10087656462565, -547.0183369689621, -510.8703339472413, 0.7040000334382057, 0.7040000334382057, 0.35200001671910286, 0.0, 0.0, 0.0, 0.0, 0.0, 1.7103952088240843E9, 0.0, 2024-03-13 22:46:48.824
100.0, -844.2188366977498, -449.7547588213347, -544.6846393966116, -516.1024539852515, 0.7040000334382057, 0.7040000334382057, 0.35200001671910286, 0.0, 0.0, 0.0, 0.0, 0.0, 1.7103952088240843E9, 0.0, 2024-03-13 22:46:48.824
0.0, -842.8088944144547, -454.75687501206994, -549.9578983341344, -518.6250165053643, 0.7040000334382057, 0.7040000334382057, 0.35200001671910286, 0.0, 0.0, 0.0, 0.0, 0.0, 1.7103952088248153E9, 0.0, 2024-03-13 22:46:48.824
1.0, -846.3655392723158, -449.19564377795905, -552.0746817090549, -514.8963362495415, 0.7040000334382057, 0.7040000334382057, 0.35200001671910286, 0.0, 0.0, 0.0, 0.0, 0.0, 1.7103952088255582E9, 0.0, 2024-03-13 22:46:48.825
1.0, -838.0405219709501, -448.3953051874414, -544.9726116931997, -517.1402762229554, 0.7040000334382057, 0.7040000334382057, 0.35200001671910286, 0.0, 0.0, 0.0, 0.0, 0.0, 1.7103952088255582E9, 0.0, 2024-03-13 22:46:48.825
2.0, -841.5485481293872, -459.79826015233994, -560.1192065137438, -526.4451473127119, 0.7040000334382057, 0.7040000334382057, 0.35200001671910286, 0.0, 0.0, 0.0, 0.0, 0.0, 1.710395208836278E9, 0.0, 2024-03-13 22:46:48.836
2.0, -846.0027689766139, -455.7367288004607, -560.0743277142756, -519.9040622902103, 0.7040000334382057, 0.7040000334382057, 0.35200001671910286, 0.0, 0.0, 0.0, 0.0, 0.0, 1.710395208836278E9, 0.0, 2024-03-13 22:46:48.836
3.0, -844.301114496775, -453.2571751298383, -553.9857705864124, -512.8842700733803, 0.7040000334382057, 0.7040000334382057, 0.35200001671910286, 0.0, 0.0, 0.0, 0.0, 0.0, 1.7103952088520632E9, 0.0, 2024-03-13 22:46:48.852
3.0, -824.46094523184, -427.5640624342486, -519.3842161963694, -495.01128818513826, 0.7040000334382057, 0.7040000334382057, 0.35200001671910286, 0.0, 0.0, 0.0, 0.0, 0.0, 1.7103952088520632E9, 0.0, 2024-03-13 22:46:48.852
4.0, -847.846539654769, -455.82648639939725, -556.3232080587186, -517.880776414182, 0.7040000334382057, 0.7040000334382057, 0.35200001671910286, 0.0, 0.0, 0.0, 0.0, 0.0, 1.7103952088529704E9, 0.0, 2024-03-13 22:46:48.852
4.0, -838.8520802613348, -441.4690104695037, -546.1618998791091, -504.98186146700755, 0.7040000334382057, 0.7040000334382057, 0.35200001671910286, 0.0, 0.0, 0.0, 0.0, 0.0, 1.7103952088529704E9, 0.0, 2024-03-13 22:46:48.852
5.0, -845.8606527782977, -449.401338275522, -540.1743200500496, -515.6330965408124, 0.7040000334382057, 0.7040000334382057, 0.35200001671910286, 0.0, 0.0, 0.0, 0.0, 0.0, 1.7103952088666015E9, 0.0, 2024-03-13 22:46:48.866
5.0, -843.5419148057699, -450.59810626134276, -551.820368512068, -519.8891026903875, 0.7040000334382057, 0.7040000334382057, 0.35200001671910286, 0.0, 0.0, 0.0, 0.0, 0.0, 1.7103952088666015E9, 0.0, 2024-03-13 22:46:48.866
6.0, -839.7047774512321, -443.85506664123386, -560.2688025119714, -512.2223077812232, 0.7040000334382057, 0.7040000334382057, 0.35200001671910286, 0.0, 0.0, 0.0, 0.0, 0.0, 1.71039520888199E9, 0.0, 2024-03-13 22:46:48.881
6.0, -840.9539040364325, -453.53766762651503, -547.1828925670125, -512.828171574045, 0.7040000334382057, 0.7040000334382057, 0.35200001671910286, 0.0, 0.0, 0.0, 0.0, 0.0, 1.71039520888199E9, 0.0, 2024-03-13 22:46:48.881
7.0, -832.2324573397636, -452.4306572396308, -546.9061399702914, -513.8155051623471, 0.7040000334382057, 0.7040000334382057, 0.35200001671910286, 0.0, 0.0, 0.0, 0.0, 0.0, 1.710395208882666E9, 0.0, 2024-03-13 22:46:48.882
7.0, -838.945577760227, -448.4065248873085, -550.589941426646, -512.1250703823753, 0.7040000334382057, 0.7040000334382057, 0.35200001671910286, 0.0, 0.0, 0.0, 0.0, 0.0, 1.710395208882666E9, 0.0, 2024-03-13 22:46:48.882
8.0, -835.1047005057335, -441.86169996485114, -544.4677251991816, -505.5204070606269, 0.7040000334382057, 0.7040000334382057, 0.35200001671910286, 0.0, 0.0, 0.0, 0.0, 0.0, 1.710395208896612E9, 0.0, 2024-03-13 22:46:48.896
8.0, -845.2884480850771, -456.7652012882754, -546.524670174811, -513.8229849622585, 0.7040000334382057, 0.7040000334382057, 0.35200001671910286, 0.0, 0.0, 0.0, 0.0, 0.0, 1.710395208896612E9, 0.0, 2024-03-13 22:46:48.896
9.0, -852.3045004019514, -455.68437020108104, -557.3591603464447, -515.4498414429836, 0.7040000334382057, 0.7040000334382057, 0.35200001671910286, 0.0, 0.0, 0.0, 0.0, 0.0, 1.7103952089122996E9, 0.0, 2024-03-13 22:46:48.912
9.0, -845.0191752882674, -455.8451858991757, -558.9635774274357, -515.6779753402807, 0.7040000334382057, 0.7040000334382057, 0.35200001671910286, 0.0, 0.0, 0.0, 0.0, 0.0, 1.7103952089122996E9, 0.0, 2024-03-13 22:46:48.912
10.0, -843.1716647101566, -461.12218473665416, -539.7891103546135, -514.2044547577389, 0.7040000334382057, 0.7040000334382057, 0.35200001671910286, 0.0, 0.0, 0.0, 0.0, 0.0, 1.7103952089129453E9, 0.0, 2024-03-13 22:46:48.912
10.0, -843.455897106789, -455.4412767039612, -546.4984908751212, -515.614397041034, 0.7040000334382057, 0.7040000334382057, 0.35200001671910286, 0.0, 0.0, 0.0, 0.0, 0.0, 1.7103952089129453E9, 0.0, 2024-03-13 22:46:48.912
11.0, -843.7887482028455, -455.09346600808203, -557.9276251397096, -512.4915805780329, 0.7040000334382057, 0.7040000334382057, 0.35200001671910286, 0.0, 0.0, 0.0, 0.0, 0.0, 1.7103952089267492E9, 0.0, 2024-03-13 22:46:48.926
11.0, -826.9591984022409, -443.2417230485007, -535.6565209035762, -501.71692880569026, 0.7040000334382057, 0.7040000334382057, 0.35200001671910286, 0.0, 0.0, 0.0, 0.0, 0.0, 1.7103952089267492E9, 0.0, 2024-03-13 22:46:48.926
12.0, -847.5585673581809, -459.4392297565937, -556.2184908599593, -524.5415382352658, 0.7040000334382057, 0.7040000334382057, 0.35200001671910286, 0.0, 0.0, 0.0, 0.0, 0.0, 1.7103952089419982E9, 0.0, 2024-03-13 22:46:48.941
12.0, -840.7108105393127, -445.82973381783813, -561.5291487970389, -519.6460091932677, 0.7040000334382057, 0.7040000334382057, 0.35200001671910286, 0.0, 0.0, 0.0, 0.0, 0.0, 1.7103952089419982E9, 0.0, 2024-03-13 22:46:48.941
13.0, -824.0233769370243, -428.1213075276464, -537.9004608769901, -499.35331203369424, 0.7040000334382057, 0.7040000334382057, 0.35200001671910286, 0.0, 0.0, 0.0, 0.0, 0.0, 1.7103952089429653E9, 0.0, 2024-03-13 22:46:48.942
13.0, -815.7432384351268, -424.25425097346306, -520.3341507851146, -493.67614390095696, 0.7040000334382057, 0.7040000334382057, 0.35200001671910286, 0.0, 0.0, 0.0, 0.0, 0.0, 1.7103952089429653E9, 0.0, 2024-03-13 22:46:48.942
14.0, -822.6919725527987, -440.5863940799609, -534.512111517135, -500.1798299239017, 0.7040000334382057, 0.7040000334382057, 0.35200001671910286, 0.0, 0.0, 0.0, 0.0, 0.0, 1.7103952089564302E9, 0.0, 2024-03-13 22:46:48.956
14.0, -830.0408759657294, -444.37865263503045, -550.0214766333811, -508.95363521995023, 0.7040000334382057, 0.7040000334382057, 0.35200001671910286, 0.0, 0.0, 0.0, 0.0, 0.0, 1.7103952089564302E9, 0.0, 2024-03-13 22:46:48.956
15.0, -837.7749890740961, -441.78316206578165, -543.5776290097274, -510.4196760025807, 0.7040000334382057, 0.7040000334382057, 0.35200001671910286, 0.0, 0.0, 0.0, 0.0, 0.0, 1.710395208971986E9, 0.0, 2024-03-13 22:46:48.971
15.0, -836.858713584952, -448.38782538753003, -549.3557744412683, -517.0953974234872, 0.7040000334382057, 0.7040000334382057, 0.35200001671910286, 0.0, 0.0, 0.0, 0.0, 0.0, 1.710395208971986E9, 0.0, 2024-03-13 22:46:48.971
16.0, -825.8185289157555, -428.7196915205568, -541.8871942297556, -499.4879484320991, 0.7040000334382057, 0.7040000334382057, 0.35200001671910286, 0.0, 0.0, 0.0, 0.0, 0.0, 1.7103952089726803E9, 0.0, 2024-03-13 22:46:48.972
16.0, -822.796689751558, -427.1713729389012, -534.669187315274, -499.4842085321434, 0.7040000334382057, 0.7040000334382057, 0.35200001671910286, 0.0, 0.0, 0.0, 0.0, 0.0, 1.7103952089726803E9, 0.0, 2024-03-13 22:46:48.972
17.0, -834.0201295185834, -440.0141893867403, -544.7369979959913, -509.87739050900564, 0.7040000334382057, 0.7040000334382057, 0.35200001671910286, 0.0, 0.0, 0.0, 0.0, 0.0, 1.7103952089863002E9, 0.0, 2024-03-13 22:46:48.986
17.0, -830.3064088625833, -426.5281101465225, -552.3028156063519, -506.10009155375883, 0.7040000334382057, 0.7040000334382057, 0.35200001671910286, 0.0, 0.0, 0.0, 0.0, 0.0, 1.7103952089863002E9, 0.0, 2024-03-13 22:46:48.986
18.0, -817.755304611288, -426.52063034661114, -542.6837929203175, -502.09839860117063, 0.7040000334382057, 0.7040000334382057, 0.35200001671910286, 0.0, 0.0, 0.0, 0.0, 0.0, 1.7103952090020587E9, 0.0, 2024-03-13 22:46:49.002
18.0, -834.386639714241, -450.34753296431154, -543.8095028069802, -515.240407045465, 0.7040000334382057, 0.7040000334382057, 0.35200001671910286, 0.0, 0.0, 0.0, 0.0, 0.0, 1.7103952090020587E9, 0.0, 2024-03-13 22:46:49.002
19.0, -835.4973900010809, -444.3225541356951, -544.4004069999792, -511.2686332925223, 0.7040000334382057, 0.7040000334382057, 0.35200001671910286, 0.0, 0.0, 0.0, 0.0, 0.0, 1.710395209002735E9, 0.0, 2024-03-13 22:46:49.002
19.0, -835.8115415973589, -442.53114205691963, -558.4063323340379, -514.4325886550359, 0.7040000334382057, 0.7040000334382057, 0.35200001671910286, 0.0, 0.0, 0.0, 0.0, 0.0, 1.710395209002735E9, 0.0, 2024-03-13 22:46:49.002
20.0, -831.0730883534998, -437.10828712116927, -547.0295566688292, -508.8563978211023, 0.7040000334382057, 0.7040000334382057, 0.35200001671910286, 0.0, 0.0, 0.0, 0.0, 0.0, 1.7103952090163374E9, 0.0, 2024-03-13 22:46:49.016
20.0, -838.511749365367, -448.70571688376367, -555.6649856665172, -516.2950588329695, 0.7040000334382057, 0.7040000334382057, 0.35200001671910286, 0.0, 0.0, 0.0, 0.0, 0.0, 1.7103952090163374E9, 0.0, 2024-03-13 22:46:49.016
21.0, -834.2594831157476, -436.96617092285305, -554.8459475762211, -512.2746663806029, 0.7040000334382057, 0.7040000334382057, 0.35200001671910286, 0.0, 0.0, 0.0, 0.0, 0.0, 1.7103952090322874E9, 0.0, 2024-03-13 22:46:49.032
21.0, -833.8256547208875, -437.19056492019445, -547.5456628627144, -511.4743277900852, 0.7040000334382057, 0.7040000334382057, 0.35200001671910286, 0.0, 0.0, 0.0, 0.0, 0.0, 1.7103952090322874E9, 0.0, 2024-03-13 22:46:49.032
22.0, -826.4692715080455, -437.545855415985, -541.4197067352943, -508.13085722969845, 0.7040000334382057, 0.7040000334382057, 0.35200001671910286, 0.0, 0.0, 0.0, 0.0, 0.0, 1.7103952090328104E9, 0.0, 2024-03-13 22:46:49.032
22.0, -832.9430383313447, -439.12035329733044, -553.3425077940337, -514.0286794598214, 0.7040000334382057, 0.7040000334382057, 0.35200001671910286, 0.0, 0.0, 0.0, 0.0, 0.0, 1.7103952090328104E9, 0.0, 2024-03-13 22:46:49.032
23.0, -821.6560202650726, -434.1275868564844, -541.374827935826, -508.6207841238938, 0.7040000334382057, 0.7040000334382057, 0.35200001671910286, 0.0, 0.0, 0.0, 0.0, 0.0, 1.710395209046606E9, 0.0, 2024-03-13 22:46:49.046
23.0, -841.8813992254436, -450.45225016307086, -560.5567748085596, -524.2947048381902, 0.7040000334382057, 0.7040000334382057, 0.35200001671910286, 0.0, 0.0, 0.0, 0.0, 0.0, 1.710395209046606E9, 0.0, 2024-03-13 22:46:49.046
24.0, -855.14308446832, -465.4043701859191, -566.0843469430692, -531.2583985556848, 0.7040000334382057, 0.7040000334382057, 0.35200001671910286, 0.0, 0.0, 0.0, 0.0, 0.0, 1.7103952090622797E9, 0.0, 2024-03-13 22:46:49.062
24.0, -844.9668166888878, -445.3585064234212, -541.8310957304202, -508.6955821230076, 0.7040000334382057, 0.7040000334382057, 0.35200001671910286, 0.0, 0.0, 0.0, 0.0, 0.0, 1.7103952090622797E9, 0.0, 2024-03-13 22:46:49.062
25.0, -835.1121803056449, -449.93614396918565, -546.0497028804384, -516.6802685284056, 0.7040000334382057, 0.7040000334382057, 0.35200001671910286, 0.0, 0.0, 0.0, 0.0, 0.0, 1.7103952090628395E9, 0.0, 2024-03-13 22:46:49.062
25.0, -834.7718494096771, -448.8852320816368, -556.8318344526924, -522.2676790622063, 0.7040000334382057, 0.7040000334382057, 0.35200001671910286, 0.0, 0.0, 0.0, 0.0, 0.0, 1.7103952090628395E9, 0.0, 2024-03-13 22:46:49.062
26.0, -839.7571360506117, -445.85591311752796, -563.9189448687248, -520.2256936863996, 0.7040000334382057, 0.7040000334382057, 0.35200001671910286, 0.0, 0.0, 0.0, 0.0, 0.0, 1.7103952090767012E9, 0.0, 2024-03-13 22:46:49.076
26.0, -830.684138758108, -434.88678654748946, -550.2458706307225, -514.649502852466, 0.7040000334382057, 0.7040000334382057, 0.35200001671910286, 0.0, 0.0, 0.0, 0.0, 0.0, 1.7103952090767012E9, 0.0, 2024-03-13 22:46:49.076
27.0, -834.592334211804, -442.41146525833756, -553.4060860932805, -512.5065401778556, 0.7040000334382057, 0.7040000334382057, 0.35200001671910286, 0.0, 0.0, 0.0, 0.0, 0.0, 1.7103952090919533E9, 0.0, 2024-03-13 22:46:49.091
27.0, -824.0009375372902, -431.04590929299593, -553.7725962889381, -507.02384684281424, 0.7040000334382057, 0.7040000334382057, 0.35200001671910286, 0.0, 0.0, 0.0, 0.0, 0.0, 1.7103952090919533E9, 0.0, 2024-03-13 22:46:49.091
28.0, -820.4592522792518, -427.92683272995055, -537.2123192851432, -495.79666717583314, 0.7040000334382057, 0.7040000334382057, 0.35200001671910286, 0.0, 0.0, 0.0, 0.0, 0.0, 1.7103952090927825E9, 0.0, 2024-03-13 22:46:49.092
28.0, -826.6600064057857, -437.40747911762446, -543.2223385139368, -506.17114965291694, 0.7040000334382057, 0.7040000334382057, 0.35200001671910286, 0.0, 0.0, 0.0, 0.0, 0.0, 1.7103952090927825E9, 0.0, 2024-03-13 22:46:49.092
29.0, -823.3165358453989, -430.37272730097175, -542.6576136206277, -501.34667871007696, 0.7040000334382057, 0.7040000334382057, 0.35200001671910286, 0.0, 0.0, 0.0, 0.0, 0.0, 1.7103952091064916E9, 0.0, 2024-03-13 22:46:49.106
29.0, -821.723338464275, -419.50831792969257, -535.5555436047725, -491.0993528314866, 0.7040000334382057, 0.7040000334382057, 0.35200001671910286, 0.0, 0.0, 0.0, 0.0, 0.0, 1.7103952091064916E9, 0.0, 2024-03-13 22:46:49.106
30.0, -825.0967282243073, -431.1281870920211, -538.7045393674634, -502.479868396651, 0.7040000334382057, 0.7040000334382057, 0.35200001671910286, 0.0, 0.0, 0.0, 0.0, 0.0, 1.710395209122115E9, 0.0, 2024-03-13 22:46:49.122
30.0, -820.866901374422, -424.7927965670824, -533.9286871240474, -498.97558213816956, 0.7040000334382057, 0.7040000334382057, 0.35200001671910286, 0.0, 0.0, 0.0, 0.0, 0.0, 1.710395209122115E9, 0.0, 2024-03-13 22:46:49.122
31.0, -832.2025381401181, -435.3093952424824, -555.7210841658525, -505.7784601575695, 0.7040000334382057, 0.7040000334382057, 0.35200001671910286, 0.0, 0.0, 0.0, 0.0, 0.0, 1.7103952091228719E9, 0.0, 2024-03-13 22:46:49.122
31.0, -821.6672399649397, -429.67336600925773, -539.336582459975, -498.16402384778485, 0.7040000334382057, 0.7040000334382057, 0.35200001671910286, 0.0, 0.0, 0.0, 0.0, 0.0, 1.7103952091228719E9, 0.0, 2024-03-13 22:46:49.122
32.0, -830.732757457532, -438.0320424102247, -544.7556974957697, -508.0074405311607, 0.7040000334382057, 0.7040000334382057, 0.35200001671910286, 0.0, 0.0, 0.0, 0.0, 0.0, 1.7103952091526735E9, 0.0, 2024-03-13 22:46:49.152
32.0, -834.6409529112279, -437.82634791266173, -546.5919883740135, -502.53222699603066, 0.7040000334382057, 0.7040000334382057, 0.35200001671910286, 0.0, 0.0, 0.0, 0.0, 0.0, 1.7103952091526735E9, 0.0, 2024-03-13 22:46:49.152
33.0, -824.5768821304664, -428.8805072186515, -527.7690718970262, -492.12408541934565, 0.7040000334382057, 0.7040000334382057, 0.35200001671910286, 0.0, 0.0, 0.0, 0.0, 0.0, 1.710395209153413E9, 0.0, 2024-03-13 22:46:49.153
33.0, -830.7402372574434, -432.9008996710181, -527.9710264946334, -497.59929895447567, 0.7040000334382057, 0.7040000334382057, 0.35200001671910286, 0.0, 0.0, 0.0, 0.0, 0.0, 1.710395209153413E9, 0.0, 2024-03-13 22:46:49.153
34.0, -838.2088174689561, -440.1637853849679, -540.4809918464161, -506.46660174941644, 0.7040000334382057, 0.7040000334382057, 0.35200001671910286, 0.0, 0.0, 0.0, 0.0, 0.0, 1.7103952091541245E9, 0.0, 2024-03-13 22:46:49.154
34.0, -826.0878017125651, -424.0597761757672, -535.151634409558, -493.2572751059197, 0.7040000334382057, 0.7040000334382057, 0.35200001671910286, 0.0, 0.0, 0.0, 0.0, 0.0, 1.7103952091541245E9, 0.0, 2024-03-13 22:46:49.154
35.0, -833.8219148209319, -437.5682948157191, -540.3837544475682, -505.4044701620005, 0.7040000334382057, 0.7040000334382057, 0.35200001671910286, 0.0, 0.0, 0.0, 0.0, 0.0, 1.7103952091666076E9, 0.0, 2024-03-13 22:46:49.166
35.0, -841.6270860284567, -444.7975214300677, -544.3330888007767, -509.69039551122114, 0.7040000334382057, 0.7040000334382057, 0.35200001671910286, 0.0, 0.0, 0.0, 0.0, 0.0, 1.7103952091666076E9, 0.0, 2024-03-13 22:46:49.166
36.0, -833.5638617239892, -433.203831567429, -544.860414694529, -501.0026079141535, 0.7040000334382057, 0.7040000334382057, 0.35200001671910286, 0.0, 0.0, 0.0, 0.0, 0.0, 1.7103952091822956E9, 0.0, 2024-03-13 22:46:49.182
36.0, -823.6942657409236, -437.15316592063755, -535.6079022041522, -499.60014543076977, 0.7040000334382057, 0.7040000334382057, 0.35200001671910286, 0.0, 0.0, 0.0, 0.0, 0.0, 1.7103952091822956E9, 0.0, 2024-03-13 22:46:49.182
37.0, -824.4908644314855, -427.9866711292416, -530.0952896694653, -494.38672489253804, 0.7040000334382057, 0.7040000334382057, 0.35200001671910286, 0.0, 0.0, 0.0, 0.0, 0.0, 1.7103952091828709E9, 0.0, 2024-03-13 22:46:49.182
37.0, -830.0857547651976, -427.88943373039365, -543.027863716241, -501.82538590440527, 0.7040000334382057, 0.7040000334382057, 0.35200001671910286, 0.0, 0.0, 0.0, 0.0, 0.0, 1.7103952091828709E9, 0.0, 2024-03-13 22:46:49.182
38.0, -822.6732730530202, -425.9446857534349, -545.8776674824767, -503.6953358822502, 0.7040000334382057, 0.7040000334382057, 0.35200001671910286, 0.0, 0.0, 0.0, 0.0, 0.0, 1.7103952091966686E9, 0.0, 2024-03-13 22:46:49.196
38.0, -829.3564742738381, -434.6960516497493, -535.996851799544, -501.1821231120266, 0.7040000334382057, 0.7040000334382057, 0.35200001671910286, 0.0, 0.0, 0.0, 0.0, 0.0, 1.7103952091966686E9, 0.0, 2024-03-13 22:46:49.196
39.0, -838.0704411705956, -443.5072559453547, -556.2521499595605, -514.9786140485667, 0.7040000334382057, 0.7040000334382057, 0.35200001671910286, 0.0, 0.0, 0.0, 0.0, 0.0, 1.710395209212414E9, 0.0, 2024-03-13 22:46:49.212
39.0, -832.6588059347123, -432.7251243731007, -550.1000145324506, -507.38287723856047, 0.7040000334382057, 0.7040000334382057, 0.35200001671910286, 0.0, 0.0, 0.0, 0.0, 0.0, 1.710395209212414E9, 0.0, 2024-03-13 22:46:49.212
40.0, -830.9721110546961, -443.021068951115, -540.0808225511573, -504.192742576357, 0.7040000334382057, 0.7040000334382057, 0.35200001671910286, 0.0, 0.0, 0.0, 0.0, 0.0, 1.7103952092129292E9, 0.0, 2024-03-13 22:46:49.212
40.0, -826.3645543092862, -440.34330058284104, -530.6712342626415, -501.61595150688663, 0.7040000334382057, 0.7040000334382057, 0.35200001671910286, 0.0, 0.0, 0.0, 0.0, 0.0, 1.7103952092129292E9, 0.0, 2024-03-13 22:46:49.212
41.0, -827.9988905899227, -432.3623540773988, -537.6498875799589, -502.05725970165804, 0.7040000334382057, 0.7040000334382057, 0.35200001671910286, 0.0, 0.0, 0.0, 0.0, 0.0, 1.7103952092263284E9, 0.0, 2024-03-13 22:46:49.226
41.0, -841.0960202347487, -443.8139277417213, -550.9863708219491, -512.6972750755958, 0.7040000334382057, 0.7040000334382057, 0.35200001671910286, 0.0, 0.0, 0.0, 0.0, 0.0, 1.7103952092263284E9, 0.0, 2024-03-13 22:46:49.226
42.0, -847.8315800549462, -450.9982755566016, -557.5349356443621, -517.8284178148024, 0.7040000334382057, 0.7040000334382057, 0.35200001671910286, 0.0, 0.0, 0.0, 0.0, 0.0, 1.7103952092420018E9, 0.0, 2024-03-13 22:46:49.242
42.0, -843.1754046101123, -441.07258107420057, -555.6687255664729, -507.12482414161786, 0.7040000334382057, 0.7040000334382057, 0.35200001671910286, 0.0, 0.0, 0.0, 0.0, 0.0, 1.7103952092420018E9, 0.0, 2024-03-13 22:46:49.242
43.0, -827.5837616948411, -427.8744741305709, -532.9600530355237, -491.60049942554906, 0.7040000334382057, 0.7040000334382057, 0.35200001671910286, 0.0, 0.0, 0.0, 0.0, 0.0, 1.710395209242997E9, 0.0, 2024-03-13 22:46:49.242
43.0, -824.4646851317957, -432.89715977106243, -536.5952357924543, -497.6628772537224, 0.7040000334382057, 0.7040000334382057, 0.35200001671910286, 0.0, 0.0, 0.0, 0.0, 0.0, 1.710395209242997E9, 0.0, 2024-03-13 22:46:49.242
44.0, -828.2980825863779, -431.2815229902044, -534.3849549186416, -490.64682493684813, 0.7040000334382057, 0.7040000334382057, 0.35200001671910286, 0.0, 0.0, 0.0, 0.0, 0.0, 1.7103952092562933E9, 0.0, 2024-03-13 22:46:49.256
44.0, -840.333080643788, -437.1606457205489, -536.3970210948028, -494.2820076937787, 0.7040000334382057, 0.7040000334382057, 0.35200001671910286, 0.0, 0.0, 0.0, 0.0, 0.0, 1.7103952092562933E9, 0.0, 2024-03-13 22:46:49.256
45.0, -834.2931422153488, -438.1404995089397, -527.2454859032296, -496.93359676236287, 0.7040000334382057, 0.7040000334382057, 0.35200001671910286, 0.0, 0.0, 0.0, 0.0, 0.0, 1.7103952092721028E9, 0.0, 2024-03-13 22:46:49.272
45.0, -839.1138732582331, -439.53174229245633, -528.434774089139, -491.806193923112, 0.7040000334382057, 0.7040000334382057, 0.35200001671910286, 0.0, 0.0, 0.0, 0.0, 0.0, 1.7103952092721028E9, 0.0, 2024-03-13 22:46:49.272
46.0, -842.8911722134799, -440.0590681862086, -545.548556286376, -495.94626317406073, 0.7040000334382057, 0.7040000334382057, 0.35200001671910286, 0.0, 0.0, 0.0, 0.0, 0.0, 1.7103952092728524E9, 0.0, 2024-03-13 22:46:49.272
46.0, -832.2025381401181, -431.0646087927744, -536.4045008947141, -498.04808694915846, 0.7040000334382057, 0.7040000334382057, 0.35200001671910286, 0.0, 0.0, 0.0, 0.0, 0.0, 1.7103952092728524E9, 0.0, 2024-03-13 22:46:49.272
47.0, -823.0510029485449, -432.1641393797472, -523.404608648736, -492.64393151318654, 0.7040000334382057, 0.7040000334382057, 0.35200001671910286, 0.0, 0.0, 0.0, 0.0, 0.0, 1.7103952092864203E9, 0.0, 2024-03-13 22:46:49.286
47.0, -835.0486020063981, -437.6206534150988, -554.4532580808736, -504.5816921717487, 0.7040000334382057, 0.7040000334382057, 0.35200001671910286, 0.0, 0.0, 0.0, 0.0, 0.0, 1.7103952092864203E9, 0.0, 2024-03-13 22:46:49.286
48.0, -825.3734808210284, -432.55682887509465, -544.7182984962128, -495.5947125782259, 0.7040000334382057, 0.7040000334382057, 0.35200001671910286, 0.0, 0.0, 0.0, 0.0, 0.0, 1.7103952093023183E9, 0.0, 2024-03-13 22:46:49.302
48.0, -839.4392445543781, -446.4318577107042, -536.2362053967081, -502.87629779195413, 0.7040000334382057, 0.7040000334382057, 0.35200001671910286, 0.0, 0.0, 0.0, 0.0, 0.0, 1.7103952093023183E9, 0.0, 2024-03-13 22:46:49.302
49.0, -830.0633153654635, -432.32869497779757, -531.5127117526717, -490.08583994349465, 0.7040000334382057, 0.7040000334382057, 0.35200001671910286, 0.0, 0.0, 0.0, 0.0, 0.0, 1.7103952093028784E9, 0.0, 2024-03-13 22:46:49.302
49.0, -826.1027613123879, -424.17571307439357, -525.2558591268025, -485.52316199755296, 0.7040000334382057, 0.7040000334382057, 0.35200001671910286, 0.0, 0.0, 0.0, 0.0, 0.0, 1.7103952093028784E9, 0.0, 2024-03-13 22:46:49.302
50.0, -833.8780133202672, -435.1635391442105, -532.7132196384482, -494.7794143878855, 0.7040000334382057, 0.7040000334382057, 0.35200001671910286, 0.0, 0.0, 0.0, 0.0, 0.0, 1.7103952093163087E9, 0.0, 2024-03-13 22:46:49.316
50.0, -823.7316647404805, -431.82380848377943, -535.7687179022469, -492.71498961234465, 0.7040000334382057, 0.7040000334382057, 0.35200001671910286, 0.0, 0.0, 0.0, 0.0, 0.0, 1.7103952093163087E9, 0.0, 2024-03-13 22:46:49.316
51.0, -830.3924265615642, -429.5686488104984, -532.7019999385811, -489.9512035450898, 0.7040000334382057, 0.7040000334382057, 0.35200001671910286, 0.0, 0.0, 0.0, 0.0, 0.0, 1.7103952093320272E9, 0.0, 2024-03-13 22:46:49.332
51.0, -820.3433153806254, -425.70907205622643, -521.7328733685426, -485.75129589485005, 0.7040000334382057, 0.7040000334382057, 0.35200001671910286, 0.0, 0.0, 0.0, 0.0, 0.0, 1.7103952093320272E9, 0.0, 2024-03-13 22:46:49.332
52.0, -818.4658856028691, -420.99305821210146, -516.6241700290702, -487.5165286739357, 0.7040000334382057, 0.7040000334382057, 0.35200001671910286, 0.0, 0.0, 0.0, 0.0, 0.0, 1.710395209332738E9, 0.0, 2024-03-13 22:46:49.332
52.0, -826.233657810837, -420.9706188123673, -527.5184985999949, -485.38104579923674, 0.7040000334382057, 0.7040000334382057, 0.35200001671910286, 0.0, 0.0, 0.0, 0.0, 0.0, 1.710395209332738E9, 0.0, 2024-03-13 22:46:49.332
53.0, -818.2751507051289, -406.489726183936, -509.35006461525336, -469.6211073859595, 0.7040000334382057, 0.7040000334382057, 0.35200001671910286, 0.0, 0.0, 0.0, 0.0, 0.0, 1.7103952093465984E9, 0.0, 2024-03-13 22:46:49.346
53.0, -819.3971206918359, -418.3826080430299, -527.3053243025206, -488.6534582604654, 0.7040000334382057, 0.7040000334382057, 0.35200001671910286, 0.0, 0.0, 0.0, 0.0, 0.0, 1.7103952093465984E9, 0.0, 2024-03-13 22:46:49.346
54.0, -822.1197678595781, -421.25111130904406, -540.1593604502268, -490.86747903423384, 0.7040000334382057, 0.7040000334382057, 0.35200001671910286, 0.0, 0.0, 0.0, 0.0, 0.0, 1.710395209362327E9, 0.0, 2024-03-13 22:46:49.362
54.0, -811.857482381165, -408.6700878581032, -523.9506340422668, -480.41445865808055, 0.7040000334382057, 0.7040000334382057, 0.35200001671910286, 0.0, 0.0, 0.0, 0.0, 0.0, 1.710395209362327E9, 0.0, 2024-03-13 22:46:49.362
55.0, -812.2090329769999, -417.92634024843574, -521.3252242733724, -488.0214151679538, 0.7040000334382057, 0.7040000334382057, 0.35200001671910286, 0.0, 0.0, 0.0, 0.0, 0.0, 1.71039520936298E9, 0.0, 2024-03-13 22:46:49.362
55.0, -829.1021610768512, -430.8738738950342, -522.0732042645104, -492.2063632183708, 0.7040000334382057, 0.7040000334382057, 0.35200001671910286, 0.0, 0.0, 0.0, 0.0, 0.0, 1.71039520936298E9, 0.0, 2024-03-13 22:46:49.362
56.0, -825.2388444226235, -424.55718286987394, -538.588602468837, -494.2633081940003, 0.7040000334382057, 0.7040000334382057, 0.35200001671910286, 0.0, 0.0, 0.0, 0.0, 0.0, 1.7103952093765745E9, 0.0, 2024-03-13 22:46:49.376
56.0, -827.4304257966578, -425.424839659594, -528.3113573906012, -487.49782917415723, 0.7040000334382057, 0.7040000334382057, 0.35200001671910286, 0.0, 0.0, 0.0, 0.0, 0.0, 1.7103952093765745E9, 0.0, 2024-03-13 22:46:49.376
57.0, -830.8486943561584, -431.8350281836465, -542.6613535205834, -502.46864869678393, 0.7040000334382057, 0.7040000334382057, 0.35200001671910286, 0.0, 0.0, 0.0, 0.0, 0.0, 1.7103952093919992E9, 0.0, 2024-03-13 22:46:49.391
57.0, -830.2390906633809, -434.8643471477553, -544.4153665998019, -502.20685569988564, 0.7040000334382057, 0.7040000334382057, 0.35200001671910286, 0.0, 0.0, 0.0, 0.0, 0.0, 1.7103952093919992E9, 0.0, 2024-03-13 22:46:49.391
58.0, -831.3685404499993, -435.3879331415519, -542.3621615241282, -502.4088102974929, 0.7040000334382057, 0.7040000334382057, 0.35200001671910286, 0.0, 0.0, 0.0, 0.0, 0.0, 1.7103952093926854E9, 0.0, 2024-03-13 22:46:49.392
58.0, -834.9326651077718, -445.78485501836985, -538.3342892718501, -505.31471256306395, 0.7040000334382057, 0.7040000334382057, 0.35200001671910286, 0.0, 0.0, 0.0, 0.0, 0.0, 1.7103952093926854E9, 0.0, 2024-03-13 22:46:49.392
59.0, -839.6224996522069, -441.0688411742449, -540.4697721465491, -502.41629009740427, 0.7040000334382057, 0.7040000334382057, 0.35200001671910286, 0.0, 0.0, 0.0, 0.0, 0.0, 1.7103952094063811E9, 0.0, 2024-03-13 22:46:49.406
59.0, -840.0862472467124, -438.0208227103576, -538.2669710726477, -494.6597375893034, 0.7040000334382057, 0.7040000334382057, 0.35200001671910286, 0.0, 0.0, 0.0, 0.0, 0.0, 1.7103952094063811E9, 0.0, 2024-03-13 22:46:49.406
60.0, -836.2229305924848, -438.3648935062811, -522.1480022636242, -492.60653251362965, 0.7040000334382057, 0.7040000334382057, 0.35200001671910286, 0.0, 0.0, 0.0, 0.0, 0.0, 1.7103952094219737E9, 0.0, 2024-03-13 22:46:49.421
60.0, -845.6736577805132, -450.41485116351396, -548.0131503571756, -512.5476790773682, 0.7040000334382057, 0.7040000334382057, 0.35200001671910286, 0.0, 0.0, 0.0, 0.0, 0.0, 1.7103952094219737E9, 0.0, 2024-03-13 22:46:49.421
61.0, -847.1434384630993, -446.82454720605165, -554.9731041747145, -506.12627085344866, 0.7040000334382057, 0.7040000334382057, 0.35200001671910286, 0.0, 0.0, 0.0, 0.0, 0.0, 1.7103952094226856E9, 0.0, 2024-03-13 22:46:49.422
61.0, -838.8558201612905, -440.22736368421465, -544.4078867998905, -502.3377521983348, 0.7040000334382057, 0.7040000334382057, 0.35200001671910286, 0.0, 0.0, 0.0, 0.0, 0.0, 1.7103952094226856E9, 0.0, 2024-03-13 22:46:49.422
62.0, -831.8921264437959, -442.3254475593567, -531.015305058565, -503.6579368826933, 0.6880000326782465, 0.7040000334382057, 0.35200001671910286, 0.0, 0.0, 0.0, 0.0, 0.0, 1.7103952094365761E9, 0.0, 2024-03-13 22:46:49.436
62.0, -831.0169898541644, -433.203831567429, -542.919406617526, -501.4738353085704, 0.6880000326782465, 0.7040000334382057, 0.35200001671910286, 0.0, 0.0, 0.0, 0.0, 0.0, 1.7103952094365761E9, 0.0, 2024-03-13 22:46:49.436
63.0, -828.3018224863335, -426.064362552017, -532.4102877420373, -490.08957984345034, 0.6880000326782465, 0.7040000334382057, 0.35200001671910286, 0.0, 0.0, 0.0, 0.0, 0.0, 1.7103952094519532E9, 0.0, 2024-03-13 22:46:49.451
63.0, -832.9617378311232, -432.9495183704421, -533.0423308345489, -500.02275412576273, 0.6880000326782465, 0.7040000334382057, 0.35200001671910286, 0.0, 0.0, 0.0, 0.0, 0.0, 1.7103952094519532E9, 0.0, 2024-03-13 22:46:49.451
64.0, -820.5078709786758, -418.2666711444035, -523.7561592445709, -485.1790912016295, 0.6880000326782465, 0.7040000334382057, 0.35200001671910286, 0.0, 0.0, 0.0, 0.0, 0.0, 1.710395209452671E9, 0.0, 2024-03-13 22:46:49.452
64.0, -823.2379979463294, -421.28851030860096, -541.1915728379972, -491.67529742466286, 0.6880000326782465, 0.7040000334382057, 0.35200001671910286, 0.0, 0.0, 0.0, 0.0, 0.0, 1.710395209452671E9, 0.0, 2024-03-13 22:46:49.452
65.0, -811.4386135861278, -418.6481409398839, -518.5352589064278, -484.509649109561, 0.6880000326782465, 0.7040000334382057, 0.35200001671910286, 0.0, 0.0, 0.0, 0.0, 0.0, 1.7103952094667032E9, 0.0, 2024-03-13 22:46:49.466
65.0, -804.4337809691206, -414.3023771913722, -520.5996836819686, -481.86553984088823, 0.6880000326782465, 0.7040000334382057, 0.35200001671910286, 0.0, 0.0, 0.0, 0.0, 0.0, 1.7103952094667032E9, 0.0, 2024-03-13 22:46:49.466
66.0, -819.468178790994, -422.0626695994288, -535.7051396030001, -488.9189911573194, 0.6880000326782465, 0.7040000334382057, 0.35200001671910286, 0.0, 0.0, 0.0, 0.0, 0.0, 1.710395209481949E9, 0.0, 2024-03-13 22:46:49.481
66.0, -841.9823765242472, -443.11830634996295, -538.2594912727363, -501.4139969092794, 0.6880000326782465, 0.7040000334382057, 0.35200001671910286, 0.0, 0.0, 0.0, 0.0, 0.0, 1.710395209481949E9, 0.0, 2024-03-13 22:46:49.481
67.0, -831.8135885447264, -438.353673806414, -537.9827386760153, -500.4004840212874, 0.6880000326782465, 0.7040000334382057, 0.35200001671910286, 0.0, 0.0, 0.0, 0.0, 0.0, 1.7103952094826689E9, 0.0, 2024-03-13 22:46:49.482
67.0, -836.8100948855281, -439.62897969130427, -549.6175674381666, -503.3624847861938, 0.6880000326782465, 0.7040000334382057, 0.35200001671910286, 0.0, 0.0, 0.0, 0.0, 0.0, 1.7103952094826689E9, 0.0, 2024-03-13 22:46:49.482
68.0, -838.6912645632401, -435.08126134518534, -545.4064400880598, -503.53078028419986, 0.6880000326782465, 0.7040000334382057, 0.35200001671910286, 0.0, 0.0, 0.0, 0.0, 0.0, 1.710395209496561E9, 0.0, 2024-03-13 22:46:49.496
68.0, -847.0649005640298, -444.07572073861957, -538.2295720730908, -507.9326425320469, 0.6880000326782465, 0.7040000334382057, 0.35200001671910286, 0.0, 0.0, 0.0, 0.0, 0.0, 1.710395209496561E9, 0.0, 2024-03-13 22:46:49.496
