%OpenBCI Raw EXG Data
%Number of channels = 4
%Sample Rate = 200 Hz
%Board = OpenBCI_GUI$BoardGanglionBLE
Sample Index, EXG Channel 0, EXG Channel 1, EXG Channel 2, EXG Channel 3, Accel Channel 0, Accel Channel 1, Accel Channel 2, Other, Other, Other, Other, Other, Timestamp, Other, Timestamp (Formatted)
2.0, 14.241539031267166, 5.538791834376752, 11.043924569152296, 9.402108488604426, 0.6720000319182873, 0.0, 0.0, 0.0, 0.0, 0.0, 0.0, 0.0, 1.7103956796995616E9, 0.0, 2024-03-13 22:54:39.699
2.0, 0.6357829924672842, 13.594536338932812, 19.28292417153716, 24.94139280449599, 0.6720000319182873, 0.0, 0.0, 0.0, 0.0, 0.0, 0.0, 0.0, 1.7103956796995616E9, 0.0, 2024-03-13 22:54:39.699
3.0, 10.83075027167797, 16.16758750844747, 23.28087722416967, 33.621700601652265, 0.6720000319182873, 0.0, 0.0, 0.0, 0.0, 0.0, 0.0, 0.0, 1.710395679714158E9, 0.0, 2024-03-13 22:54:39.714
3.0, 28.767310459166765, 20.86490185279399, 38.89869943913072, 34.840907987207174, 0.6720000319182873, 0.0, 0.0, 0.0, 0.0, 0.0, 0.0, 0.0, 1.710395679714158E9, 0.0, 2024-03-13 22:54:39.714
4.0, 27.39476717542857, 31.987364321015775, 32.66802611295134, 35.3869333807379, 0.6720000319182873, 0.0, 0.0, 0.0, 0.0, 0.0, 0.0, 0.0, 1.7103956797147193E9, 0.0, 2024-03-13 22:54:39.714
4.0, 22.88818772882223, 29.451712151058018, 26.59068868495524, 30.24083104170859, 0.6720000319182873, 0.0, 0.0, 0.0, 0.0, 0.0, 0.0, 0.0, 1.7103956797147193E9, 0.0, 2024-03-13 22:54:39.714
5.0, 24.283170412294567, 23.28087722416967, 24.96383220423013, 26.60190838482231, 0.6720000319182873, 0.0, 0.0, 0.0, 0.0, 0.0, 0.0, 0.0, 1.7103956797286296E9, 0.0, 2024-03-13 22:54:39.728
5.0, 22.89192762877792, 21.160353949293494, 31.172066130675375, 30.914013033732772, 0.6720000319182873, 0.0, 0.0, 0.0, 0.0, 0.0, 0.0, 0.0, 1.7103956797286296E9, 0.0, 2024-03-13 22:54:39.728
6.0, 29.907979945652187, 31.546056126244366, 29.653666748665273, 39.15301263611764, 0.6720000319182873, 0.0, 0.0, 0.0, 0.0, 0.0, 0.0, 0.0, 1.7103956797440856E9, 0.0, 2024-03-13 22:54:39.744
6.0, 27.536883373744786, 25.29668330028653, 29.997737544588745, 38.865040339529514, 0.6720000319182873, 0.0, 0.0, 0.0, 0.0, 0.0, 0.0, 0.0, 1.7103956797440856E9, 0.0, 2024-03-13 22:54:39.744
7.0, 23.883001117035747, 20.52083105687052, 29.111381255090237, 33.187872206792235, 0.6720000319182873, 0.0, 0.0, 0.0, 0.0, 0.0, 0.0, 0.0, 1.7103956797450135E9, 0.0, 2024-03-13 22:54:39.745
7.0, 23.37437472306192, 25.73051169514656, 31.531096526421607, 40.895806015469134, 0.6720000319182873, 0.0, 0.0, 0.0, 0.0, 0.0, 0.0, 0.0, 1.7103956797450135E9, 0.0, 2024-03-13 22:54:39.745
8.0, 12.786717948503792, 18.07493648584932, 30.674659436568618, 32.409973016008735, 0.6720000319182873, 0.0, 0.0, 0.0, 0.0, 0.0, 0.0, 0.0, 1.7103956797583327E9, 0.0, 2024-03-13 22:54:39.758
8.0, 15.169034220278263, 12.521185051649809, 39.220330835320055, 29.956598645076156, 0.6720000319182873, 0.0, 0.0, 0.0, 0.0, 0.0, 0.0, 0.0, 1.7103956797583327E9, 0.0, 2024-03-13 22:54:39.758
9.0, 11.64230856206268, 9.23381299059838, 16.586456303484738, 19.451219669543207, 0.6720000319182873, 0.0, 0.0, 0.0, 0.0, 0.0, 0.0, 0.0, 1.7103956797740097E9, 0.0, 2024-03-13 22:54:39.774
9.0, 4.8169911429286, 7.476060011424124, 18.11233548540622, 19.462439369410276, 0.6720000319182873, 0.0, 0.0, 0.0, 0.0, 0.0, 0.0, 0.0, 1.7103956797740097E9, 0.0, 2024-03-13 22:54:39.774
10.0, 5.7332666320726275, 6.122216227464378, 31.83776832278818, 26.474751786328852, 0.6720000319182873, 0.0, 0.35200001671910286, 0.0, 0.0, 0.0, 0.0, 0.0, 1.7103956797747061E9, 0.0, 2024-03-13 22:54:39.774
10.0, 13.463639840483665, 14.843662924133241, 30.22587144188583, 28.441939163021743, 0.6720000319182873, 0.0, 0.35200001671910286, 0.0, 0.0, 0.0, 0.0, 0.0, 1.7103956797747061E9, 0.0, 2024-03-13 22:54:39.774
11.0, 24.14479411393404, 24.11861481424421, 38.60324734263122, 41.18003841210157, 0.6720000319182873, 0.7360000349581242, 0.35200001671910286, 0.0, 0.0, 0.0, 0.0, 0.0, 1.710395679788351E9, 0.0, 2024-03-13 22:54:39.788
11.0, 26.029703691601753, 27.155413578264415, 36.385486668907106, 36.52386296726763, 0.6720000319182873, 0.7360000349581242, 0.35200001671910286, 0.0, 0.0, 0.0, 0.0, 0.0, 1.710395679788351E9, 0.0, 2024-03-13 22:54:39.788
12.0, 26.16807998996228, 24.18967291340232, 38.55836854316294, 29.41805305145681, 0.6720000319182873, 0.7360000349581242, 0.35200001671910286, 0.0, 0.0, 0.0, 0.0, 0.0, 1.7103956798042185E9, 0.0, 2024-03-13 22:54:39.804
12.0, 18.187133484520018, 23.127541325986385, 30.98133123293519, 27.959492068737745, 0.6720000319182873, 0.7360000349581242, 0.35200001671910286, 0.0, 0.0, 0.0, 0.0, 0.0, 1.7103956798042185E9, 0.0, 2024-03-13 22:54:39.804
13.0, 21.73255864251405, 19.024871074594557, 25.580915696918964, 25.550996497273445, 0.6720000319182873, 0.7360000349581242, 0.35200001671910286, 0.0, 0.0, 0.0, 0.0, 0.0, 1.710395679804813E9, 0.0, 2024-03-13 22:54:39.804
13.0, 4.940407841466367, 3.418268559500575, 26.59816848486662, 16.668734102509916, 0.6720000319182873, 0.7360000349581242, 0.35200001671910286, 0.0, 0.0, 0.0, 0.0, 0.0, 1.710395679804813E9, 0.0, 2024-03-13 22:54:39.804
14.0, 10.729772972874343, 4.169988450594246, 17.3419160945341, 17.196059996262193, 0.6720000319182873, 0.7360000349581242, 0.35200001671910286, 0.0, 0.0, 0.0, 0.0, 0.0, 1.7103956798186269E9, 0.0, 2024-03-13 22:54:39.818
14.0, 10.224886478856206, 7.528418610803783, 11.447833764366806, 19.25300497189164, 0.6720000319182873, 0.7360000349581242, 0.35200001671910286, 0.0, 0.0, 0.0, 0.0, 0.0, 1.7103956798186269E9, 0.0, 2024-03-13 22:54:39.818
15.0, 8.179161203093827, 6.724340120330453, 20.14684106130153, 15.430827217176557, 0.6720000319182873, 0.7360000349581242, 0.35200001671910286, 0.0, 0.0, 0.0, 0.0, 0.0, 1.710395679834504E9, 0.0, 2024-03-13 22:54:39.834
15.0, -0.13089649844914675, 0.8003385905176401, 11.922801058739424, 7.027272016741335, 0.6720000319182873, 0.7360000349581242, 0.35200001671910286, 0.0, 0.0, 0.0, 0.0, 0.0, 1.710395679834504E9, 0.0, 2024-03-13 22:54:39.834
16.0, 1.488480182364583, 1.1331896865740418, 4.091450551524758, 12.06491725705564, 0.6720000319182873, 0.7360000349581242, 0.35200001671910286, 0.0, 0.0, 0.0, 0.0, 0.0, 1.710395679834861E9, 0.0, 2024-03-13 22:54:39.834
16.0, 6.174574826844037, 1.6455559805035591, 12.928834146820009, 14.293897630646825, 0.6720000319182873, 0.7360000349581242, 0.35200001671910286, 0.0, 0.0, 0.0, 0.0, 0.0, 1.710395679834861E9, 0.0, 2024-03-13 22:54:39.834
17.0, 4.629996145144105, 0.1570757981389761, 20.07578296214342, 17.476552492938936, 0.6720000319182873, 0.7360000349581242, 0.35200001671910286, 0.0, 0.0, 0.0, 0.0, 0.0, 1.710395679848388E9, 0.0, 2024-03-13 22:54:39.848
17.0, 4.686094644479454, 13.209326643496752, 24.372928011231124, 29.934159245342016, 0.6720000319182873, 0.7360000349581242, 0.35200001671910286, 0.0, 0.0, 0.0, 0.0, 0.0, 1.710395679848388E9, 0.0, 2024-03-13 22:54:39.848
18.0, 7.678014609031379, 12.558584051206708, 26.411173487082124, 31.216944930143654, 0.6720000319182873, 0.7360000349581242, 0.35200001671910286, 0.0, 0.0, 0.0, 0.0, 0.0, 1.7103956798644063E9, 0.0, 2024-03-13 22:54:39.864
18.0, 17.33443629462272, 21.515644445084035, 45.85865325666964, 34.52675639092922, 0.6720000319182873, 0.7360000349581242, 0.35200001671910286, 0.0, 0.0, 0.0, 0.0, 0.0, 1.7103956798644063E9, 0.0, 2024-03-13 22:54:39.864
19.0, 22.256144636310637, 23.527710621245205, 30.19595224224031, 35.985317373648286, 0.6720000319182873, 0.7360000349581242, 0.35200001671910286, 0.0, 0.0, 0.0, 0.0, 0.0, 1.7103956798650615E9, 0.0, 2024-03-13 22:54:39.865
19.0, 23.31453632377088, 21.960692539811134, 28.92064635735005, 38.66308574192226, 0.6720000319182873, 0.7360000349581242, 0.35200001671910286, 0.0, 0.0, 0.0, 0.0, 0.0, 1.7103956798650615E9, 0.0, 2024-03-13 22:54:39.865
20.0, 10.770911872386932, 7.5882570100948215, 18.729418978095055, 17.910380887798965, 0.6720000319182873, 0.7360000349581242, 0.35200001671910286, 0.0, 0.0, 0.0, 0.0, 0.0, 1.7103956798786018E9, 0.0, 2024-03-13 22:54:39.878
20.0, 14.51829162798822, 16.212466307915747, 27.170373178087175, 20.737745254300535, 0.6720000319182873, 0.7360000349581242, 0.35200001671910286, 0.0, 0.0, 0.0, 0.0, 0.0, 1.7103956798786018E9, 0.0, 2024-03-13 22:54:39.878
21.0, 9.24503269046545, 9.67886108532548, 8.212820302695036, 14.196660231798887, 0.6720000319182873, 0.7360000349581242, 0.35200001671910286, 0.0, 0.0, 0.0, 0.0, 0.0, 1.7103956798940468E9, 0.0, 2024-03-13 22:54:39.894
21.0, 20.58814925607294, 11.821823759935796, 19.122108473442495, 21.38474794663489, 0.6720000319182873, 0.7360000349581242, 0.35200001671910286, 0.0, 0.0, 0.0, 0.0, 0.0, 1.7103956798940468E9, 0.0, 2024-03-13 22:54:39.894
22.0, 19.74667176604271, 15.72627931367606, 22.809649829752743, 24.99001150391996, 0.6720000319182873, 0.7360000349581242, 0.35200001671910286, 0.0, 0.0, 0.0, 0.0, 0.0, 1.7103956798947902E9, 0.0, 2024-03-13 22:54:39.894
22.0, 12.521185051649809, 17.225979195907712, 11.346856465563178, 21.68767984304577, 0.6720000319182873, 0.7360000349581242, 0.35200001671910286, 0.0, 0.0, 0.0, 0.0, 0.0, 1.7103956798947902E9, 0.0, 2024-03-13 22:54:39.894
23.0, 20.266517859883606, 20.10944206174463, 16.347102706320584, 30.023916844278574, 0.6720000319182873, 0.7360000349581242, 0.35200001671910286, 0.0, 0.0, 0.0, 0.0, 0.0, 1.7103956799085493E9, 0.0, 2024-03-13 22:54:39.908
23.0, 21.912073840387166, 20.96961905155331, 20.09074256196618, 28.056729467585683, 0.6720000319182873, 0.7360000349581242, 0.35200001671910286, 0.0, 0.0, 0.0, 0.0, 0.0, 1.7103956799085493E9, 0.0, 2024-03-13 22:54:39.908
24.0, 15.576683315448463, 16.287264307029545, 9.480646387673914, 16.86320890020579, 0.6720000319182873, 0.7360000349581242, 0.35200001671910286, 0.0, 0.0, 0.0, 0.0, 0.0, 1.7103956799238183E9, 0.0, 2024-03-13 22:54:39.923
24.0, 14.993258922360837, 9.64146208576858, 4.686094644479454, 19.32406307104975, 0.6720000319182873, 0.7360000349581242, 0.35200001671910286, 0.0, 0.0, 0.0, 0.0, 0.0, 1.7103956799238183E9, 0.0, 2024-03-13 22:54:39.923
25.0, 17.521431292407215, 16.238645607605577, 26.287756788544357, 22.53663713298738, 0.6720000319182873, 0.7360000349581242, 0.35200001671910286, 0.0, 0.0, 0.0, 0.0, 0.0, 1.7103956799390905E9, 0.0, 2024-03-13 22:54:39.939
25.0, 19.29414387140423, 18.362908782437444, 28.449418962933123, 26.59816848486662, 0.6720000319182873, 0.7360000349581242, 0.35200001671910286, 0.0, 0.0, 0.0, 0.0, 0.0, 1.7103956799390905E9, 0.0, 2024-03-13 22:54:39.939
26.0, 15.801077312789857, 19.72049246635288, 11.560030763037503, 25.36026159953326, 0.6720000319182873, 0.7360000349581242, 0.35200001671910286, 0.0, 0.0, 0.0, 0.0, 0.0, 1.7103956799398196E9, 0.0, 2024-03-13 22:54:39.939
26.0, 20.827502853237092, 16.264824907295406, 13.646894938312471, 17.599969191476703, 0.6720000319182873, 0.7360000349581242, 0.35200001671910286, 0.0, 0.0, 0.0, 0.0, 0.0, 1.7103956799398196E9, 0.0, 2024-03-13 22:54:39.939
27.0, 16.4518199050799, 13.463639840483665, 14.578130027279258, 17.431673693470657, 0.6720000319182873, 0.7360000349581242, 0.35200001671910286, 0.0, 0.0, 0.0, 0.0, 0.0, 1.7103956799540815E9, 0.0, 2024-03-13 22:54:39.954
27.0, 11.148641767911613, 11.171081167645752, 16.1563678085804, 25.072289302945137, 0.6720000319182873, 0.7360000349581242, 0.35200001671910286, 0.0, 0.0, 0.0, 0.0, 0.0, 1.7103956799540815E9, 0.0, 2024-03-13 22:54:39.954
28.0, 6.133435927331448, 9.731219684705138, 27.103054978884757, 26.011004191823304, 0.6720000319182873, 0.7360000349581242, 0.35200001671910286, 0.0, 0.0, 0.0, 0.0, 0.0, 1.7103956799548192E9, 0.0, 2024-03-13 22:54:39.954
28.0, 5.714567132294178, 4.323324348777533, 24.694559407420456, 20.18797996081412, 0.6720000319182873, 0.7360000349581242, 0.35200001671910286, 0.0, 0.0, 0.0, 0.0, 0.0, 1.7103956799548192E9, 0.0, 2024-03-13 22:54:39.954
29.0, 1.2416467852890491, 2.4645940707996488, 11.201000367291272, 14.810003824532032, 0.6720000319182873, 0.7360000349581242, 0.35200001671910286, 0.0, 0.0, 0.0, 0.0, 0.0, 1.7103956799683511E9, 0.0, 2024-03-13 22:54:39.968
29.0, 8.998199293389916, 7.330203913152218, 18.10111578553915, 22.738591730594635, 0.6720000319182873, 0.7360000349581242, 0.35200001671910286, 0.0, 0.0, 0.0, 0.0, 0.0, 1.7103956799683511E9, 0.0, 2024-03-13 22:54:39.968
30.0, 21.597922244109213, 10.07529048062861, 31.519876826554537, 26.456052286550403, 0.6720000319182873, 0.7360000349581242, 0.35200001671910286, 0.0, 0.0, 0.0, 0.0, 0.0, 1.7103956799843564E9, 0.0, 2024-03-13 22:54:39.984
30.0, 24.683339707553387, 15.767418213188648, 33.83487489912659, 33.02705650869757, 0.6720000319182873, 0.7360000349581242, 0.35200001671910286, 0.0, 0.0, 0.0, 0.0, 0.0, 1.7103956799843564E9, 0.0, 2024-03-13 22:54:39.984
31.0, 27.00955747999251, 19.825209665112197, 19.892527864314616, 36.3518275693059, 0.6720000319182873, 0.7360000349581242, 0.35200001671910286, 0.0, 0.0, 0.0, 0.0, 0.0, 1.7103956799850433E9, 0.0, 2024-03-13 22:54:39.985
31.0, 20.382454758509994, 18.92389377579093, 27.630380872637033, 29.100161555223167, 0.6720000319182873, 0.7360000349581242, 0.35200001671910286, 0.0, 0.0, 0.0, 0.0, 0.0, 1.7103956799850433E9, 0.0, 2024-03-13 22:54:39.985
32.0, 11.511412063613534, 11.070103868842125, 15.064317021518946, 18.08989608567208, 0.6720000319182873, 0.7360000349581242, 0.35200001671910286, 0.0, 0.0, 0.0, 0.0, 0.0, 1.7103956799985025E9, 0.0, 2024-03-13 22:54:39.998
32.0, 12.45760675240308, 13.71795303747058, 12.936313946731389, 25.468718698248267, 0.6720000319182873, 0.7360000349581242, 0.35200001671910286, 0.0, 0.0, 0.0, 0.0, 0.0, 1.7103956799985025E9, 0.0, 2024-03-13 22:54:39.998
33.0, 17.495251992717385, 16.07035010959953, 15.864655612036586, 23.086402426473796, 0.6720000319182873, 0.7360000349581242, 0.35200001671910286, 0.0, 0.0, 0.0, 0.0, 0.0, 1.710395680014381E9, 0.0, 2024-03-13 22:54:40.014
33.0, 18.53868408035487, 15.169034220278263, 18.16095418483019, 15.505625216290355, 0.6720000319182873, 0.7360000349581242, 0.35200001671910286, 0.0, 0.0, 0.0, 0.0, 0.0, 1.710395680014381E9, 0.0, 2024-03-13 22:54:40.014
34.0, 14.761385125108063, 20.655467455275357, 8.160461703315377, 19.847649064846337, 0.6720000319182873, 0.7360000349581242, 0.35200001671910286, 0.0, 0.0, 0.0, 0.0, 0.0, 1.7103956800151546E9, 0.0, 2024-03-13 22:54:40.015
34.0, 19.634474767372012, 23.905440516769886, 17.31199689488858, 33.161692907102406, 0.6720000319182873, 0.7360000349581242, 0.35200001671910286, 0.0, 0.0, 0.0, 0.0, 0.0, 1.7103956800151546E9, 0.0, 2024-03-13 22:54:40.015
35.0, 17.3419160945341, 15.887095011770725, 27.260130777023733, 31.34410152863711, 0.6720000319182873, 0.7360000349581242, 0.35200001671910286, 0.0, 0.0, 0.0, 0.0, 0.0, 1.7103956800284777E9, 0.0, 2024-03-13 22:54:40.028
35.0, 30.468964939005673, 27.084355479106307, 33.5356829026714, 36.89037316292524, 0.6720000319182873, 0.7360000349581242, 0.35200001671910286, 0.0, 0.0, 0.0, 0.0, 0.0, 1.7103956800284777E9, 0.0, 2024-03-13 22:54:40.028
36.0, 22.13272793777287, 23.576329320669174, 27.166633278131485, 37.653312753885984, 0.6720000319182873, 0.7360000349581242, 0.35200001671910286, 0.0, 0.0, 0.0, 0.0, 0.0, 1.710395680044039E9, 0.0, 2024-03-13 22:54:40.044
36.0, 18.187133484520018, 17.076383197680116, 33.35242780484259, 26.295236588455737, 0.6720000319182873, 0.7360000349581242, 0.35200001671910286, 0.0, 0.0, 0.0, 0.0, 0.0, 1.710395680044039E9, 0.0, 2024-03-13 22:54:40.044
37.0, 13.029811445623636, 4.555198146030307, 35.37197378091514, 22.749811430461705, 0.6720000319182873, 0.7360000349581242, 0.35200001671910286, 0.0, 0.0, 0.0, 0.0, 0.0, 1.710395680044839E9, 0.0, 2024-03-13 22:54:40.044
37.0, 9.439507488161325, 7.22922661434859, 10.83449017163366, 15.180253920145333, 0.6720000319182873, 0.7360000349581242, 0.35200001671910286, 0.0, 0.0, 0.0, 0.0, 0.0, 1.710395680044839E9, 0.0, 2024-03-13 22:54:40.044
38.0, 29.174959554336965, 25.984824892133474, 29.451712151058018, 35.84694107528776, 0.6720000319182873, 0.7360000349581242, 0.35200001671910286, 0.0, 0.0, 0.0, 0.0, 0.0, 1.7103956800583875E9, 0.0, 2024-03-13 22:54:40.058
38.0, 9.809757583774626, 8.87852249480784, 30.042616344057024, 26.16434009000659, 0.6720000319182873, 0.7360000349581242, 0.35200001671910286, 0.0, 0.0, 0.0, 0.0, 0.0, 1.7103956800583875E9, 0.0, 2024-03-13 22:54:40.058
39.0, 3.6912812562659383, 3.0704578636214137, 5.8940823301672935, 11.967679858207703, 0.6720000319182873, 0.7360000349581242, 0.35200001671910286, 0.0, 0.0, 0.0, 0.0, 0.0, 1.7103956800740664E9, 0.0, 2024-03-13 22:54:40.074
39.0, 4.603816845454276, 6.915075018070638, 1.002293188124895, 14.813743724487722, 0.6720000319182873, 0.7360000349581242, 0.35200001671910286, 0.0, 0.0, 0.0, 0.0, 0.0, 1.7103956800740664E9, 0.0, 2024-03-13 22:54:40.074
40.0, 15.419607517309487, 7.674274709075689, 16.896867999807, 13.388841841369867, 0.6720000319182873, 0.7360000349581242, 0.35200001671910286, 0.0, 0.0, 0.0, 0.0, 0.0, 1.7103956800747979E9, 0.0, 2024-03-13 22:54:40.074
40.0, -9.076737192459404, -12.09109655674547, -0.18325509782880545, -3.3098114607855678, 0.6720000319182873, 0.7360000349581242, 0.35200001671910286, 0.0, 0.0, 0.0, 0.0, 0.0, 1.7103956800747979E9, 0.0, 2024-03-13 22:54:40.074
41.0, -13.011111945845187, -17.095082697458565, 3.414528659544885, 3.107856863178313, 0.6720000319182873, 0.7360000349581242, 0.35200001671910286, 0.0, 0.0, 0.0, 0.0, 0.0, 1.710395680088348E9, 0.0, 2024-03-13 22:54:40.088
41.0, -15.348549418151379, -14.047064233571291, 6.529865322634578, 0.8414774900302291, 0.6720000319182873, 0.7360000349581242, 0.35200001671910286, 0.0, 0.0, 0.0, 0.0, 0.0, 1.710395680088348E9, 0.0, 2024-03-13 22:54:40.088
42.0, -16.017991510219872, -15.801077312789857, -2.5169526701793075, -4.457960747182369, 0.6880000326782465, 0.7360000349581242, 0.35200001671910286, 0.0, 0.0, 0.0, 0.0, 0.0, 1.710395680104042E9, 0.0, 2024-03-13 22:54:40.104
42.0, -21.448326245881617, -13.901208135299385, -1.484740282408893, 6.548564822413027, 0.6880000326782465, 0.7360000349581242, 0.35200001671910286, 0.0, 0.0, 0.0, 0.0, 0.0, 1.710395680104042E9, 0.0, 2024-03-13 22:54:40.104
43.0, -23.131281225942075, -17.446633293293417, 6.402708724141121, 3.6090034572407603, 0.6880000326782465, 0.7360000349581242, 0.35200001671910286, 0.0, 0.0, 0.0, 0.0, 0.0, 1.710395680104818E9, 0.0, 2024-03-13 22:54:40.104
43.0, -17.192320096306503, -24.56366290897131, 14.432273929007351, 1.4174220832064748, 0.6880000326782465, 0.7360000349581242, 0.35200001671910286, 0.0, 0.0, 0.0, 0.0, 0.0, 1.710395680104818E9, 0.0, 2024-03-13 22:54:40.104
44.0, -26.269057288765907, -29.481631350703537, -0.24683339707553387, -6.533605222590268, 0.6880000326782465, 0.7360000349581242, 0.35200001671910286, 0.0, 0.0, 0.0, 0.0, 0.0, 1.7103956801183841E9, 0.0, 2024-03-13 22:54:40.118
44.0, -16.620115403085947, -12.820377048105001, 23.70722581911832, 12.034998057410121, 0.6880000326782465, 0.7360000349581242, 0.35200001671910286, 0.0, 0.0, 0.0, 0.0, 0.0, 1.7103956801183841E9, 0.0, 2024-03-13 22:54:40.118
45.0, -21.182793349027634, -20.711565954610705, 10.942947270348668, 6.410188524052501, 0.6880000326782465, 0.7360000349581242, 0.35200001671910286, 0.0, 0.0, 0.0, 0.0, 0.0, 1.7103956801345992E9, 0.0, 2024-03-13 22:54:40.134
45.0, -26.680446283891797, -22.14768753759563, -2.053205075673759, 0.007479799911379814, 0.6880000326782465, 0.7360000349581242, 0.35200001671910286, 0.0, 0.0, 0.0, 0.0, 0.0, 1.7103956801345992E9, 0.0, 2024-03-13 22:54:40.134
46.0, -21.078076150268316, -9.147795291617513, 4.701054244302213, 13.68055403791368, 0.6880000326782465, 0.7360000349581242, 0.35200001671910286, 0.0, 0.0, 0.0, 0.0, 0.0, 1.7103956801348996E9, 0.0, 2024-03-13 22:54:40.134
46.0, -10.501639075577259, -1.3501038840040565, 27.076875679194927, 21.841015741229057, 0.6880000326782465, 0.7360000349581242, 0.35200001671910286, 0.0, 0.0, 0.0, 0.0, 0.0, 1.7103956801348996E9, 0.0, 2024-03-13 22:54:40.134
47.0, -20.599368955940008, -17.940300087444484, 3.4893266586586833, 0.06731819920241833, 0.6880000326782465, 0.7360000349581242, 0.35200001671910286, 0.0, 0.0, 0.0, 0.0, 0.0, 1.7103956801486602E9, 0.0, 2024-03-13 22:54:40.148
47.0, -16.92678719945252, -8.669088097289205, 10.419361276552081, 10.120169280096889, 0.6880000326782465, 0.7360000349581242, 0.35200001671910286, 0.0, 0.0, 0.0, 0.0, 0.0, 1.7103956801486602E9, 0.0, 2024-03-13 22:54:40.148
48.0, -17.491512092761695, -13.321523642167449, 9.525525187142193, 7.771512107923627, 0.6880000326782465, 0.7360000349581242, 0.35200001671910286, 0.0, 0.0, 0.0, 0.0, 0.0, 1.7103956801643095E9, 0.0, 2024-03-13 22:54:40.164
48.0, -20.54327045660466, -21.971912239678204, 4.2859253492206335, -1.7801923789083958, 0.6880000326782465, 0.7360000349581242, 0.35200001671910286, 0.0, 0.0, 0.0, 0.0, 0.0, 1.7103956801643095E9, 0.0, 2024-03-13 22:54:40.164
49.0, -25.31164290010929, -20.46099265757948, 0.2169141974300146, 0.11219699867069721, 0.6880000326782465, 0.7360000349581242, 0.35200001671910286, 0.0, 0.0, 0.0, 0.0, 0.0, 1.7103956801649864E9, 0.0, 2024-03-13 22:54:40.164
49.0, -16.95296649914235, -18.250711783766747, -0.14211619831621647, -0.3029318964108825, 0.6880000326782465, 0.7360000349581242, 0.35200001671910286, 0.0, 0.0, 0.0, 0.0, 0.0, 1.7103956801649864E9, 0.0, 2024-03-13 22:54:40.164
50.0, -11.526371663436294, -14.133081932552159, 10.87188917119056, 5.392935736104846, 0.6880000326782465, 0.7360000349581242, 0.33600001595914364, 0.0, 0.0, 0.0, 0.0, 0.0, 1.710395680178366E9, 0.0, 2024-03-13 22:54:40.178
50.0, -18.426487081684172, -24.032597115263343, -1.6044170809909701, -2.700207768008113, 0.6880000326782465, 0.7360000349581242, 0.33600001595914364, 0.0, 0.0, 0.0, 0.0, 0.0, 1.710395680178366E9, 0.0, 2024-03-13 22:54:40.178
51.0, -30.61108113732189, -27.555582873523235, -18.407787581905723, -12.124755656346679, 0.6880000326782465, 0.7360000349581242, 0.33600001595914364, 0.0, 0.0, 0.0, 0.0, 0.0, 1.71039568019404E9, 0.0, 2024-03-13 22:54:40.194
51.0, -17.080123097635806, -19.78033086564392, -0.5310657937079668, -2.6291496688500047, 0.6880000326782465, 0.7360000349581242, 0.33600001595914364, 0.0, 0.0, 0.0, 0.0, 0.0, 1.71039568019404E9, 0.0, 2024-03-13 22:54:40.194
52.0, -23.471612121909857, -20.05334356240928, -0.2543131969869137, -4.469180447049439, 0.6720000319182873, 0.7360000349581242, 0.33600001595914364, 0.0, 0.0, 0.0, 0.0, 0.0, 1.7103956801947792E9, 0.0, 2024-03-13 22:54:40.194
52.0, -18.243231983855367, -19.33902267087251, -0.8938360894098878, 3.8371373545378447, 0.6720000319182873, 0.7360000349581242, 0.33600001595914364, 0.0, 0.0, 0.0, 0.0, 0.0, 1.7103956801947792E9, 0.0, 2024-03-13 22:54:40.194
53.0, -9.518045387230814, -17.36435549426824, 7.23670641425997, 4.8506502425298095, 0.6720000319182873, 0.7360000349581242, 0.33600001595914364, 0.0, 0.0, 0.0, 0.0, 0.0, 1.710395680208363E9, 0.0, 2024-03-13 22:54:40.208
53.0, -27.540623273700476, -25.36400149948895, 3.575344357639551, -0.7105809915810823, 0.6720000319182873, 0.7360000349581242, 0.33600001595914364, 0.0, 0.0, 0.0, 0.0, 0.0, 1.710395680208363E9, 0.0, 2024-03-13 22:54:40.208
54.0, -26.17555978987366, -26.15312039013952, 14.46967292856425, 0.7853789906948805, 0.6720000319182873, 0.7360000349581242, 0.33600001595914364, 0.0, 0.0, 0.0, 0.0, 0.0, 1.7103956802240293E9, 0.0, 2024-03-13 22:54:40.224
54.0, -23.28461712412536, -21.141654449515045, 3.4369680592790246, 1.5520584816113114, 0.6720000319182873, 0.7360000349581242, 0.33600001595914364, 0.0, 0.0, 0.0, 0.0, 0.0, 1.7103956802240293E9, 0.0, 2024-03-13 22:54:40.224
55.0, -41.39321270957589, -38.21429774723947, -0.4787071943283081, -9.503085787408054, 0.6720000319182873, 0.7360000349581242, 0.33600001595914364, 0.0, 0.0, 0.0, 0.0, 0.0, 1.7103956802247467E9, 0.0, 2024-03-13 22:54:40.224
55.0, -34.17894569505006, -29.84440164640546, 7.146948815323412, 1.0583916874602437, 0.6720000319182873, 0.7360000349581242, 0.33600001595914364, 0.0, 0.0, 0.0, 0.0, 0.0, 1.7103956802247467E9, 0.0, 2024-03-13 22:54:40.224
56.0, -25.28920350037515, -20.315136559307575, -0.34407079592347145, 3.2387533616274595, 0.6720000319182873, 0.7360000349581242, 0.33600001595914364, 0.0, 0.0, 0.0, 0.0, 0.0, 1.7103956802383573E9, 0.0, 2024-03-13 22:54:40.238
56.0, -16.986625598743558, -20.15058096125722, 6.264332425780594, 7.139469015412033, 0.6720000319182873, 0.7360000349581242, 0.33600001595914364, 0.0, 0.0, 0.0, 0.0, 0.0, 1.7103956802383573E9, 0.0, 2024-03-13 22:54:40.238
57.0, -13.889988435432315, -20.711565954610705, 6.249372825957835, 3.4706271588802338, 0.6720000319182873, 0.7360000349581242, 0.33600001595914364, 0.0, 0.0, 0.0, 0.0, 0.0, 1.7103956802540612E9, 0.0, 2024-03-13 22:54:40.254
57.0, 0.7591996910050511, -1.451081182807684, 16.48547900468111, 17.27085799537599, 0.6720000319182873, 0.7360000349581242, 0.33600001595914364, 0.0, 0.0, 0.0, 0.0, 0.0, 1.7103956802540612E9, 0.0, 2024-03-13 22:54:40.254
58.0, -2.3075182726606727, 2.6291496688500047, 18.766817977651954, 18.018837986513972, 0.6720000319182873, 0.7360000349581242, 0.33600001595914364, 0.0, 0.0, 0.0, 0.0, 0.0, 1.7103956802549226E9, 0.0, 2024-03-13 22:54:40.254
58.0, -1.5632781814783812, -4.383162748068571, 20.004724862985313, 14.06202383339405, 0.6720000319182873, 0.7360000349581242, 0.33600001595914364, 0.0, 0.0, 0.0, 0.0, 0.0, 1.7103956802549226E9, 0.0, 2024-03-13 22:54:40.254
59.0, -6.324170825071633, -8.392335500568151, 6.215713726356626, 10.774651772342622, 0.6720000319182873, 0.7360000349581242, 0.33600001595914364, 0.0, 0.0, 0.0, 0.0, 0.0, 1.7103956802683663E9, 0.0, 2024-03-13 22:54:40.268
59.0, -2.1205232748761773, -0.9723739884793758, 3.294851860962808, 7.034751816652715, 0.6720000319182873, 0.7360000349581242, 0.33600001595914364, 0.0, 0.0, 0.0, 0.0, 0.0, 1.7103956802683663E9, 0.0, 2024-03-13 22:54:40.268
60.0, -6.82531741913408, -4.955367441289127, 5.744486331939697, 4.241046549752355, 0.6720000319182873, 0.7360000349581242, 0.33600001595914364, 0.0, 0.0, 0.0, 0.0, 0.0, 1.7103956802843604E9, 0.0, 2024-03-13 22:54:40.284
60.0, -6.312951125204563, -3.186394762247801, 3.1228164630010724, 4.633736045099795, 0.6720000319182873, 0.7360000349581242, 0.33600001595914364, 0.0, 0.0, 0.0, 0.0, 0.0, 1.7103956802843604E9, 0.0, 2024-03-13 22:54:40.284
61.0, 4.308364748954773, 9.301131189800799, 10.610096174292266, 20.8611619528383, 0.6720000319182873, 0.7200000341981649, 0.33600001595914364, 0.0, 0.0, 0.0, 0.0, 0.0, 1.7103956802847772E9, 0.0, 2024-03-13 22:54:40.284
61.0, 2.1878414740785956, -0.8639168897643685, 17.106302397325635, 19.78033086564392, 0.6720000319182873, 0.7200000341981649, 0.33600001595914364, 0.0, 0.0, 0.0, 0.0, 0.0, 1.7103956802847772E9, 0.0, 2024-03-13 22:54:40.284
62.0, -18.10485568549484, -19.066009974107146, 7.812651007436216, 2.460854170843959, 0.6720000319182873, 0.7200000341981649, 0.33600001595914364, 0.0, 0.0, 0.0, 0.0, 0.0, 1.7103956802984316E9, 0.0, 2024-03-13 22:54:40.298
62.0, -8.235259702429175, -9.820977283641696, 9.379669088870287, 9.536744887009263, 0.6720000319182873, 0.7200000341981649, 0.33600001595914364, 0.0, 0.0, 0.0, 0.0, 0.0, 1.7103956802984316E9, 0.0, 2024-03-13 22:54:40.298
63.0, -9.910734882578254, -12.367849153466523, 13.568357039242983, 11.567510562948883, 0.6720000319182873, 0.7200000341981649, 0.33600001595914364, 0.0, 0.0, 0.0, 0.0, 0.0, 1.7103956803140984E9, 0.0, 2024-03-13 22:54:40.314
63.0, -17.26337819546461, -18.018837986513972, 17.3419160945341, 4.989026540890336, 0.6720000319182873, 0.7200000341981649, 0.33600001595914364, 0.0, 0.0, 0.0, 0.0, 0.0, 1.7103956803140984E9, 0.0, 2024-03-13 22:54:40.314
64.0, -14.955859922803938, -21.35108884703368, -1.5109195820987225, -2.337437472306192, 0.6720000319182873, 0.7200000341981649, 0.33600001595914364, 0.0, 0.0, 0.0, 0.0, 0.0, 1.710395680329234E9, 0.0, 2024-03-13 22:54:40.329
64.0, -9.013158893212676, -9.742439384572208, 17.25215849559754, 14.436013828963041, 0.6720000319182873, 0.7200000341981649, 0.33600001595914364, 0.0, 0.0, 0.0, 0.0, 0.0, 1.710395680329234E9, 0.0, 2024-03-13 22:54:40.329
65.0, -12.984932646155357, -10.531558275222778, 15.842216212302446, 10.740992672741413, 0.6720000319182873, 0.7200000341981649, 0.33600001595914364, 0.0, 0.0, 0.0, 0.0, 0.0, 1.7103956803301558E9, 0.0, 2024-03-13 22:54:40.330
65.0, -10.711073473095894, -6.107256627641618, 12.940053846687078, 11.586210062727332, 0.6720000319182873, 0.7200000341981649, 0.33600001595914364, 0.0, 0.0, 0.0, 0.0, 0.0, 1.7103956803301558E9, 0.0, 2024-03-13 22:54:40.330
66.0, -0.9723739884793758, 0.19447479769587517, 11.350596365518868, 15.543024215847254, 0.6720000319182873, 0.7200000341981649, 0.33600001595914364, 0.0, 0.0, 0.0, 0.0, 0.0, 1.710395680344015E9, 0.0, 2024-03-13 22:54:40.344
66.0, -4.551458246074617, -3.2312735617160797, 21.78491724189371, 17.199799896217883, 0.6720000319182873, 0.7200000341981649, 0.33600001595914364, 0.0, 0.0, 0.0, 0.0, 0.0, 1.710395680344015E9, 0.0, 2024-03-13 22:54:40.344
67.0, -7.891188906505704, -6.795398219488561, 27.091835279017687, 14.694066925905645, 0.6720000319182873, 0.7200000341981649, 0.33600001595914364, 0.0, 0.0, 0.0, 0.0, 0.0, 1.7103956803447747E9, 0.0, 2024-03-13 22:54:40.344
67.0, 3.9343747533857822, 4.113889951258898, 23.490311621688306, 23.052743326872587, 0.6720000319182873, 0.7200000341981649, 0.33600001595914364, 0.0, 0.0, 0.0, 0.0, 0.0, 1.7103956803447747E9, 0.0, 2024-03-13 22:54:40.344
68.0, 1.3014851845800877, -3.508026158437133, 17.113782197237015, 20.53579065669328, 0.6720000319182873, 0.7200000341981649, 0.33600001595914364, 0.0, 0.0, 0.0, 0.0, 0.0, 1.7103956803583553E9, 0.0, 2024-03-13 22:54:40.358
68.0, 3.8483570544049144, -3.051758363842964, 25.30042320024222, 18.91267407592386, 0.6720000319182873, 0.7200000341981649, 0.33600001595914364, 0.0, 0.0, 0.0, 0.0, 0.0, 1.7103956803583553E9, 0.0, 2024-03-13 22:54:40.358
69.0, -8.541931498795748, -7.610696409828961, 3.3920892598107457, 8.003385905176401, 0.6720000319182873, 0.7200000341981649, 0.33600001595914364, 0.0, 0.0, 0.0, 0.0, 0.0, 1.710395680374014E9, 0.0, 2024-03-13 22:54:40.374
69.0, -1.6305963806807995, -2.8722431659698486, 3.3135513607412577, 10.692373973317444, 0.6720000319182873, 0.7200000341981649, 0.33600001595914364, 0.0, 0.0, 0.0, 0.0, 0.0, 1.710395680374014E9, 0.0, 2024-03-13 22:54:40.374
70.0, -6.518645622767508, -10.153828379698098, 16.713612901978195, 8.336237001232803, 0.6720000319182873, 0.7200000341981649, 0.33600001595914364, 0.0, 0.0, 0.0, 0.0, 0.0, 1.7103956803747993E9, 0.0, 2024-03-13 22:54:40.374
70.0, -14.368695629760623, -17.502731792628765, -3.4706271588802338, -0.482447094283998, 0.6720000319182873, 0.7200000341981649, 0.33600001595914364, 0.0, 0.0, 0.0, 0.0, 0.0, 1.7103956803747993E9, 0.0, 2024-03-13 22:54:40.374
71.0, -3.9231550535187125, -7.434921111911535, 2.0270257759839296, 10.580176974646747, 0.6720000319182873, 0.7200000341981649, 0.33600001595914364, 0.0, 0.0, 0.0, 0.0, 0.0, 1.7103956803883328E9, 0.0, 2024-03-13 22:54:40.388
71.0, -14.271458230912685, -11.567510562948883, 12.001338957808912, 7.535898410715163, 0.6720000319182873, 0.7200000341981649, 0.33600001595914364, 0.0, 0.0, 0.0, 0.0, 0.0, 1.7103956803883328E9, 0.0, 2024-03-13 22:54:40.388
72.0, -11.993859157897532, -16.14514810871333, 12.87273564748466, 7.4237014120444655, 0.6720000319182873, 0.7200000341981649, 0.33600001595914364, 0.0, 0.0, 0.0, 0.0, 0.0, 1.710395680404497E9, 0.0, 2024-03-13 22:54:40.404
72.0, -7.2254867143929005, -9.346009989269078, 10.307164277881384, 12.03873795736581, 0.6720000319182873, 0.7200000341981649, 0.33600001595914364, 0.0, 0.0, 0.0, 0.0, 0.0, 1.710395680404497E9, 0.0, 2024-03-13 22:54:40.404
73.0, -5.62480953335762, -6.3802693244069815, 18.47510578110814, 12.139715256169438, 0.6720000319182873, 0.7200000341981649, 0.33600001595914364, 0.0, 0.0, 0.0, 0.0, 0.0, 1.710395680404931E9, 0.0, 2024-03-13 22:54:40.404
73.0, -13.029811445623636, -14.207879931665957, 0.007479799911379814, 0.5123662939295173, 0.6720000319182873, 0.7200000341981649, 0.33600001595914364, 0.0, 0.0, 0.0, 0.0, 0.0, 1.710395680404931E9, 0.0, 2024-03-13 22:54:40.404
74.0, -16.377021905966103, -13.033551345579326, -2.5618314696475863, 0.23187379725277424, 0.6720000319182873, 0.7200000341981649, 0.33600001595914364, 0.0, 0.0, 0.0, 0.0, 0.0, 1.7103956804183345E9, 0.0, 2024-03-13 22:54:40.418
74.0, -2.206540973857045, -6.092297027818859, 6.956213917583227, 8.392335500568151, 0.6720000319182873, 0.7200000341981649, 0.33600001595914364, 0.0, 0.0, 0.0, 0.0, 0.0, 1.7103956804183345E9, 0.0, 2024-03-13 22:54:40.418
75.0, -2.258899573236704, -4.3270642487332225, 11.601169662550092, 7.356383212842047, 0.6720000319182873, 0.7200000341981649, 0.33600001595914364, 0.0, 0.0, 0.0, 0.0, 0.0, 1.7103956804343653E9, 0.0, 2024-03-13 22:54:40.434
75.0, -8.519492099061608, -6.671981520950794, 1.20424778573215, -2.584270869381726, 0.6720000319182873, 0.7200000341981649, 0.33600001595914364, 0.0, 0.0, 0.0, 0.0, 0.0, 1.7103956804343653E9, 0.0, 2024-03-13 22:54:40.434
76.0, 5.093743739649653, 7.8687495067715645, 14.86984222382307, 19.26422467175871, 0.6720000319182873, 0.7200000341981649, 0.33600001595914364, 0.0, 0.0, 0.0, 0.0, 0.0, 1.71039568043502E9, 0.0, 2024-03-13 22:54:40.435
76.0, 9.054297792725265, 11.081323568709195, 13.448680240660906, 22.682493231259286, 0.6720000319182873, 0.7200000341981649, 0.33600001595914364, 0.0, 0.0, 0.0, 0.0, 0.0, 1.71039568043502E9, 0.0, 2024-03-13 22:54:40.435
77.0, 5.366756436415017, 2.5954905692487955, 11.219699867069721, 11.485232763923705, 0.6720000319182873, 0.7200000341981649, 0.33600001595914364, 0.0, 0.0, 0.0, 0.0, 0.0, 1.710395680465194E9, 0.0, 2024-03-13 22:54:40.465
77.0, 0.2655328968539834, -4.671135044656694, -2.528172370046377, 2.535652169957757, 0.6720000319182873, 0.7200000341981649, 0.33600001595914364, 0.0, 0.0, 0.0, 0.0, 0.0, 1.710395680465194E9, 0.0, 2024-03-13 22:54:40.465
78.0, 12.04995765723288, 10.950427070260048, 4.263485949486494, 12.659561350010335, 0.6720000319182873, 0.7200000341981649, 0.33600001595914364, 0.0, 0.0, 0.0, 0.0, 0.0, 1.7103956804657216E9, 0.0, 2024-03-13 22:54:40.465
78.0, 10.221146578900516, 2.4271950712427497, 11.28701806627214, 8.770065396092832, 0.6720000319182873, 0.7200000341981649, 0.33600001595914364, 0.0, 0.0, 0.0, 0.0, 0.0, 1.7103956804657216E9, 0.0, 2024-03-13 22:54:40.465
79.0, 14.88854172360152, 9.072997292503715, 16.212466307915747, 20.763924553990364, 0.6720000319182873, 0.7200000341981649, 0.33600001595914364, 0.0, 0.0, 0.0, 0.0, 0.0, 1.7103956804664445E9, 0.0, 2024-03-13 22:54:40.466
79.0, 16.896867999807, 15.931973811239004, 22.742331630550325, 28.355921464040875, 0.6720000319182873, 0.7200000341981649, 0.33600001595914364, 0.0, 0.0, 0.0, 0.0, 0.0, 1.7103956804664445E9, 0.0, 2024-03-13 22:54:40.466
80.0, 28.1240476667881, 30.6447402369231, 41.56898800749332, 43.0948671894148, 0.6720000319182873, 0.7200000341981649, 0.33600001595914364, 0.0, 0.0, 0.0, 0.0, 0.0, 1.7103956804783218E9, 0.0, 2024-03-13 22:54:40.478
80.0, 24.51504420954734, 28.13152746669948, 34.2013850947842, 38.68926504161209, 0.6720000319182873, 0.7200000341981649, 0.33600001595914364, 0.0, 0.0, 0.0, 0.0, 0.0, 1.7103956804783218E9, 0.0, 2024-03-13 22:54:40.478
81.0, 30.401646739803255, 33.07567520812154, 32.12948051933199, 40.3535205218941, 0.6720000319182873, 0.7360000349581242, 0.33600001595914364, 0.0, 0.0, 0.0, 0.0, 0.0, 1.7103956804942732E9, 0.0, 2024-03-13 22:54:40.494
81.0, 24.48512500990182, 25.39018079917878, 29.470411650836468, 28.93560595717281, 0.6720000319182873, 0.7360000349581242, 0.33600001595914364, 0.0, 0.0, 0.0, 0.0, 0.0, 1.7103956804942732E9, 0.0, 2024-03-13 22:54:40.494
82.0, 15.337329718284309, 14.937160423025489, 17.072643297724426, 15.7113197138533, 0.6720000319182873, 0.7360000349581242, 0.33600001595914364, 0.0, 0.0, 0.0, 0.0, 0.0, 1.7103956804949129E9, 0.0, 2024-03-13 22:54:40.494
82.0, 28.292343164794147, 28.314782564528286, 23.35193532332778, 35.12140048388392, 0.6720000319182873, 0.7360000349581242, 0.33600001595914364, 0.0, 0.0, 0.0, 0.0, 0.0, 1.7103956804949129E9, 0.0, 2024-03-13 22:54:40.494
83.0, 24.066256214864552, 22.465579033829272, 13.27664484269917, 24.679599807597697, 0.6720000319182873, 0.7360000349581242, 0.33600001595914364, 0.0, 0.0, 0.0, 0.0, 0.0, 1.7103956805083206E9, 0.0, 2024-03-13 22:54:40.508
83.0, 13.216806443408132, 8.88974219467491, 24.89651400502771, 18.84535587672144, 0.6720000319182873, 0.7360000349581242, 0.33600001595914364, 0.0, 0.0, 0.0, 0.0, 0.0, 1.7103956805083206E9, 0.0, 2024-03-13 22:54:40.508
84.0, 11.619869162328541, 9.121615991927683, 9.394628688693047, 21.897114240564406, 0.6720000319182873, 0.7360000349581242, 0.33600001595914364, 0.0, 0.0, 0.0, 0.0, 0.0, 1.7103956805240371E9, 0.0, 2024-03-13 22:54:40.524
84.0, 24.032597115263343, 27.74631777126342, 22.06540973857045, 31.531096526421607, 0.6720000319182873, 0.7360000349581242, 0.33600001595914364, 0.0, 0.0, 0.0, 0.0, 0.0, 1.7103956805240371E9, 0.0, 2024-03-13 22:54:40.524
85.0, 22.20378603693098, 23.149980725720525, 30.046356244012713, 28.490557862445712, 0.6720000319182873, 0.7360000349581242, 0.33600001595914364, 0.0, 0.0, 0.0, 0.0, 0.0, 1.7103956805247672E9, 0.0, 2024-03-13 22:54:40.524
85.0, 20.352535558864474, 25.098468602634966, 16.03295111004263, 25.910026893019676, 0.6720000319182873, 0.7360000349581242, 0.33600001595914364, 0.0, 0.0, 0.0, 0.0, 0.0, 1.7103956805247672E9, 0.0, 2024-03-13 22:54:40.524
86.0, 30.54376293811947, 38.6855251416564, 19.518537868745625, 37.72811075299978, 0.6720000319182873, 0.7360000349581242, 0.33600001595914364, 0.0, 0.0, 0.0, 0.0, 0.0, 1.71039568053832E9, 0.0, 2024-03-13 22:54:40.538
86.0, 25.69685259554535, 35.88434007484466, 21.73629854246974, 34.792289287783206, 0.6720000319182873, 0.7360000349581242, 0.33600001595914364, 0.0, 0.0, 0.0, 0.0, 0.0, 1.71039568053832E9, 0.0, 2024-03-13 22:54:40.538
87.0, 19.3053635712713, 26.467271986417472, 22.0841092383489, 24.084955714643, 0.6720000319182873, 0.7360000349581242, 0.33600001595914364, 0.0, 0.0, 0.0, 0.0, 0.0, 1.7103956805540318E9, 0.0, 2024-03-13 22:54:40.554
87.0, 17.27085799537599, 23.250958024524152, 12.195813755504787, 25.70807229541242, 0.6720000319182873, 0.7360000349581242, 0.33600001595914364, 0.0, 0.0, 0.0, 0.0, 0.0, 1.7103956805540318E9, 0.0, 2024-03-13 22:54:40.554
88.0, 22.256144636310637, 29.474151550792158, 24.002677915617824, 32.855021110735834, 0.6720000319182873, 0.7360000349581242, 0.33600001595914364, 0.0, 0.0, 0.0, 0.0, 0.0, 1.710395680554784E9, 0.0, 2024-03-13 22:54:40.554
88.0, 23.482831821776927, 26.5682492852211, 32.361354316584766, 31.568495525978506, 0.6720000319182873, 0.7360000349581242, 0.33600001595914364, 0.0, 0.0, 0.0, 0.0, 0.0, 1.710395680554784E9, 0.0, 2024-03-13 22:54:40.554
89.0, 13.471119640395045, 17.925340487621725, 15.935713711194694, 23.37063482310623, 0.6720000319182873, 0.7360000349581242, 0.33600001595914364, 0.0, 0.0, 0.0, 0.0, 0.0, 1.710395680584702E9, 0.0, 2024-03-13 22:54:40.584
89.0, 14.90350132342428, 18.830396276898682, 17.577529791742563, 23.527710621245205, 0.6720000319182873, 0.7360000349581242, 0.33600001595914364, 0.0, 0.0, 0.0, 0.0, 0.0, 1.710395680584702E9, 0.0, 2024-03-13 22:54:40.584
90.0, 21.631581343710423, 21.841015741229057, 30.805555935017765, 29.223578253760934, 0.6720000319182873, 0.7360000349581242, 0.33600001595914364, 0.0, 0.0, 0.0, 0.0, 0.0, 1.710395680585396E9, 0.0, 2024-03-13 22:54:40.585
90.0, 6.488726423121989, 4.289665249176323, 8.504532499238849, 13.65063483826816, 0.6720000319182873, 0.7360000349581242, 0.33600001595914364, 0.0, 0.0, 0.0, 0.0, 0.0, 1.710395680585396E9, 0.0, 2024-03-13 22:54:40.585
91.0, 8.45217389985919, 8.740146196447313, 4.671135044656694, 17.854282388463616, 0.6720000319182873, 0.7360000349581242, 0.33600001595914364, 0.0, 0.0, 0.0, 0.0, 0.0, 1.7103956805861537E9, 0.0, 2024-03-13 22:54:40.586
91.0, 6.612143121659756, 7.711673708632588, 18.781777577474713, 23.819422817789018, 0.6720000319182873, 0.7360000349581242, 0.33600001595914364, 0.0, 0.0, 0.0, 0.0, 0.0, 1.7103956805861537E9, 0.0, 2024-03-13 22:54:40.586
92.0, 20.16928046103567, 14.802524024620652, 32.11826081946492, 30.409126539714634, 0.6880000326782465, 0.7360000349581242, 0.33600001595914364, 0.0, 0.0, 0.0, 0.0, 0.0, 1.7103956805986323E9, 0.0, 2024-03-13 22:54:40.598
92.0, 26.5308502856642, 24.16723351366818, 21.508164645172656, 30.727018035948277, 0.6880000326782465, 0.7360000349581242, 0.33600001595914364, 0.0, 0.0, 0.0, 0.0, 0.0, 1.7103956805986323E9, 0.0, 2024-03-13 22:54:40.598
93.0, 24.687079607509077, 24.99375140387565, 15.629041914828122, 29.911719845607877, 0.6880000326782465, 0.7360000349581242, 0.33600001595914364, 0.0, 0.0, 0.0, 0.0, 0.0, 1.710395680614019E9, 0.0, 2024-03-13 22:54:40.614
93.0, 30.379207340069115, 28.830888758413494, 25.846448593772948, 29.878060746006668, 0.6880000326782465, 0.7360000349581242, 0.33600001595914364, 0.0, 0.0, 0.0, 0.0, 0.0, 1.710395680614019E9, 0.0, 2024-03-13 22:54:40.614
94.0, 30.1248941430822, 32.93729890976101, 25.831488993950188, 35.641246577724814, 0.6880000326782465, 0.7360000349581242, 0.33600001595914364, 0.0, 0.0, 0.0, 0.0, 0.0, 1.7103956806147573E9, 0.0, 2024-03-13 22:54:40.614
94.0, 29.294636352919042, 31.41515962779522, 25.73799149505794, 34.33228159323335, 0.6880000326782465, 0.7360000349581242, 0.33600001595914364, 0.0, 0.0, 0.0, 0.0, 0.0, 1.7103956806147573E9, 0.0, 2024-03-13 22:54:40.614
95.0, 25.663193495944142, 25.573435897007585, 32.86998071055859, 32.039722920395434, 0.6880000326782465, 0.7360000349581242, 0.33600001595914364, 0.0, 0.0, 0.0, 0.0, 0.0, 1.7103956806283972E9, 0.0, 2024-03-13 22:54:40.628
95.0, 20.412373958155513, 19.095929173752666, 14.596829527057707, 21.003278151154518, 0.6880000326782465, 0.7360000349581242, 0.33600001595914364, 0.0, 0.0, 0.0, 0.0, 0.0, 1.7103956806283972E9, 0.0, 2024-03-13 22:54:40.628
96.0, 23.213559024967253, 22.330942635424435, 15.71879951376468, 25.977345092222095, 0.6880000326782465, 0.7360000349581242, 0.33600001595914364, 0.0, 0.0, 0.0, 0.0, 0.0, 1.7103956806440086E9, 0.0, 2024-03-13 22:54:40.644
96.0, 28.389580563642085, 22.360861835069954, 28.277383564971387, 30.94767213333398, 0.6880000326782465, 0.7360000349581242, 0.33600001595914364, 0.0, 0.0, 0.0, 0.0, 0.0, 1.7103956806440086E9, 0.0, 2024-03-13 22:54:40.644
97.0, 25.936206192709506, 21.650280843488872, 34.91944588627666, 31.587195025756955, 0.6880000326782465, 0.7360000349581242, 0.33600001595914364, 0.0, 0.0, 0.0, 0.0, 0.0, 1.7103956806447623E9, 0.0, 2024-03-13 22:54:40.644
97.0, 31.112227731384337, 22.633874531835318, 30.446525539271533, 32.17435931880027, 0.6880000326782465, 0.7360000349581242, 0.33600001595914364, 0.0, 0.0, 0.0, 0.0, 0.0, 1.7103956806447623E9, 0.0, 2024-03-13 22:54:40.644
98.0, 32.64184681326151, 20.371235058642924, 28.58779526129365, 32.73534431215376, 0.6880000326782465, 0.7360000349581242, 0.33600001595914364, 0.0, 0.0, 0.0, 0.0, 0.0, 1.7103956806583247E9, 0.0, 2024-03-13 22:54:40.658
98.0, 28.819669058546424, 22.20378603693098, 37.76176985260099, 32.769003411754966, 0.6880000326782465, 0.7360000349581242, 0.33600001595914364, 0.0, 0.0, 0.0, 0.0, 0.0, 1.7103956806583247E9, 0.0, 2024-03-13 22:54:40.658
99.0, 30.483924538828433, 20.404894158244133, 23.74836471863091, 29.04780295584351, 0.6880000326782465, 0.7360000349581242, 0.33600001595914364, 0.0, 0.0, 0.0, 0.0, 0.0, 1.7103956806744032E9, 0.0, 2024-03-13 22:54:40.674
99.0, 41.37825310975313, 31.961185021325946, 23.161200425587595, 32.780223111622036, 0.6880000326782465, 0.7360000349581242, 0.33600001595914364, 0.0, 0.0, 0.0, 0.0, 0.0, 1.7103956806744032E9, 0.0, 2024-03-13 22:54:40.674
100.0, 46.32614075113088, 37.174605559557676, 38.97349743824452, 36.59866096638143, 0.6880000326782465, 0.7360000349581242, 0.33600001595914364, 0.0, 0.0, 0.0, 0.0, 0.0, 1.7103956806749446E9, 0.0, 2024-03-13 22:54:40.674
100.0, 20.13936126139015, 19.544717168435454, 25.80904959421605, 29.156260054558516, 0.6880000326782465, 0.7360000349581242, 0.33600001595914364, 0.0, 0.0, 0.0, 0.0, 0.0, 1.7103956806749446E9, 0.0, 2024-03-13 22:54:40.674
0.0, -894.7299254992977, -576.1596374236979, -582.3042930508964, -579.1646470380947, 0.6880000326782465, 0.7360000349581242, 0.33600001595914364, 0.0, 0.0, 0.0, 0.0, 0.0, 1.7103956806890535E9, 0.0, 2024-03-13 22:54:40.689
1.0, -897.1459008706734, -580.5988986711018, -575.699629729148, -582.332342300564, 0.6880000326782465, 0.7360000349581242, 0.33600001595914364, 0.0, 0.0, 0.0, 0.0, 0.0, 1.7103956806897683E9, 0.0, 2024-03-13 22:54:40.689
1.0, -892.1007758304477, -582.6895027463324, -574.1887101470493, -587.482184539549, 0.6880000326782465, 0.7360000349581242, 0.33600001595914364, 0.0, 0.0, 0.0, 0.0, 0.0, 1.7103956806897683E9, 0.0, 2024-03-13 22:54:40.689
2.0, -885.4138347096741, -572.5356743666343, -578.9271633909084, -576.1689871735871, 0.6720000319182873, 0.7360000349581242, 0.33600001595914364, 0.0, 0.0, 0.0, 0.0, 0.0, 1.7103956807037504E9, 0.0, 2024-03-13 22:54:40.703
2.0, -881.049371461384, -565.7365362471901, -556.2671095593832, -564.5715574109927, 0.6720000319182873, 0.7360000349581242, 0.33600001595914364, 0.0, 0.0, 0.0, 0.0, 0.0, 1.7103956807037504E9, 0.0, 2024-03-13 22:54:40.703
3.0, -889.0116184670478, -578.8187062921934, -562.5800606845878, -574.1905800970271, 0.6720000319182873, 0.7360000349581242, 0.33600001595914364, 0.0, 0.0, 0.0, 0.0, 0.0, 1.7103956807190337E9, 0.0, 2024-03-13 22:54:40.719
3.0, -887.5717569841072, -577.1581907118671, -574.7983138398267, -580.0809225272387, 0.6720000319182873, 0.7360000349581242, 0.33600001595914364, 0.0, 0.0, 0.0, 0.0, 0.0, 1.7103956807190337E9, 0.0, 2024-03-13 22:54:40.719
4.0, -880.4472475685179, -568.7508956114762, -570.1982368943281, -569.7961976490915, 0.6720000319182873, 0.7360000349581242, 0.33600001595914364, 0.0, 0.0, 0.0, 0.0, 0.0, 1.7103956807198176E9, 0.0, 2024-03-13 22:54:40.719
4.0, -875.3796831285581, -566.5967132369988, -554.5804146793671, -567.1333888806403, 0.6720000319182873, 0.7360000349581242, 0.33600001595914364, 0.0, 0.0, 0.0, 0.0, 0.0, 1.7103956807198176E9, 0.0, 2024-03-13 22:54:40.719
5.0, -874.2876323414966, -563.2008840772323, -566.5742738372646, -573.0312111107633, 0.6720000319182873, 0.7360000349581242, 0.33600001595914364, 0.0, 0.0, 0.0, 0.0, 0.0, 1.7103956807333984E9, 0.0, 2024-03-13 22:54:40.733
5.0, -866.2019686372951, -557.3255012468435, -575.8941045268439, -568.0795835694298, 0.6720000319182873, 0.7360000349581242, 0.33600001595914364, 0.0, 0.0, 0.0, 0.0, 0.0, 1.7103956807333984E9, 0.0, 2024-03-13 22:54:40.733
6.0, -866.8227920299396, -563.301861376036, -563.036328479182, -566.29191139061, 0.6720000319182873, 0.7360000349581242, 0.33600001595914364, 0.0, 0.0, 0.0, 0.0, 0.0, 1.710395680749036E9, 0.0, 2024-03-13 22:54:40.749
6.0, -866.8676708294079, -563.6160129723139, -566.2152434415184, -574.6244084918872, 0.6720000319182873, 0.7360000349581242, 0.33600001595914364, 0.0, 0.0, 0.0, 0.0, 0.0, 1.710395680749036E9, 0.0, 2024-03-13 22:54:40.749
7.0, -860.6519571030512, -556.0464554619975, -557.2806224473752, -559.2459398740903, 0.6720000319182873, 0.7360000349581242, 0.33600001595914364, 0.0, 0.0, 0.0, 0.0, 0.0, 1.7103956807499552E9, 0.0, 2024-03-13 22:54:40.749
7.0, -852.4017378007993, -553.9969902862795, -561.4693103977479, -561.2654858501628, 0.6720000319182873, 0.7360000349581242, 0.33600001595914364, 0.0, 0.0, 0.0, 0.0, 0.0, 1.7103956807499552E9, 0.0, 2024-03-13 22:54:40.749
8.0, -873.6742887487635, -565.1044931546785, -575.0077482373454, -578.0239775516093, 0.6720000319182873, 0.7360000349581242, 0.33600001595914364, 0.0, 0.0, 0.0, 0.0, 0.0, 1.7103956807633266E9, 0.0, 2024-03-13 22:54:40.763
8.0, -877.6161433020607, -562.2546893884428, -572.5955127659254, -568.5059321643785, 0.6720000319182873, 0.7360000349581242, 0.33600001595914364, 0.0, 0.0, 0.0, 0.0, 0.0, 1.7103956807633266E9, 0.0, 2024-03-13 22:54:40.763
9.0, -875.574157926254, -564.0461014672183, -574.9965285374783, -562.9372211303562, 0.6720000319182873, 0.7360000349581242, 0.33600001595914364, 0.0, 0.0, 0.0, 0.0, 0.0, 1.7103956807790427E9, 0.0, 2024-03-13 22:54:40.779
9.0, -881.9282479509711, -573.8932580505498, -570.8601991864853, -568.2553588673472, 0.6720000319182873, 0.7360000349581242, 0.33600001595914364, 0.0, 0.0, 0.0, 0.0, 0.0, 1.7103956807790427E9, 0.0, 2024-03-13 22:54:40.779
10.0, -876.8719032108784, -568.8406532104127, -565.2017305535264, -568.2067401679233, 0.6720000319182873, 0.7360000349581242, 0.33600001595914364, 0.0, 0.0, 0.0, 0.0, 0.0, 1.71039568077977E9, 0.0, 2024-03-13 22:54:40.779
10.0, -868.3262318121269, -559.61058011977, -562.6398990838788, -560.008879465051, 0.6720000319182873, 0.7360000349581242, 0.33600001595914364, 0.0, 0.0, 0.0, 0.0, 0.0, 1.71039568077977E9, 0.0, 2024-03-13 22:54:40.779
11.0, -874.2614530418068, -567.1389987305738, -571.032234584447, -572.2682715198025, 0.6720000319182873, 0.7360000349581242, 0.33600001595914364, 0.0, 0.0, 0.0, 0.0, 0.0, 1.710395680793367E9, 0.0, 2024-03-13 22:54:40.793
11.0, -880.735219865106, -568.1412919186987, -572.5693334662355, -576.9356666645035, 0.6720000319182873, 0.7360000349581242, 0.33600001595914364, 0.0, 0.0, 0.0, 0.0, 0.0, 1.710395680793367E9, 0.0, 2024-03-13 22:54:40.793
12.0, -871.1087173791602, -565.3251472520642, -583.2355281398632, -580.1220614267513, 0.6720000319182873, 0.7360000349581242, 0.33600001595914364, 0.0, 0.0, 0.0, 0.0, 0.0, 1.710395680809059E9, 0.0, 2024-03-13 22:54:40.809
12.0, -880.4322879686952, -570.3740121922456, -579.9107570792548, -580.2903569247574, 0.6720000319182873, 0.7360000349581242, 0.33600001595914364, 0.0, 0.0, 0.0, 0.0, 0.0, 1.710395680809059E9, 0.0, 2024-03-13 22:54:40.809
13.0, -881.8534499518573, -571.4024846800603, -571.5707801780663, -579.269364236854, 0.6720000319182873, 0.7360000349581242, 0.33600001595914364, 0.0, 0.0, 0.0, 0.0, 0.0, 1.710395680809733E9, 0.0, 2024-03-13 22:54:40.809
13.0, -876.3782364167273, -568.197390418034, -564.8501799576916, -567.4176212772727, 0.6720000319182873, 0.7360000349581242, 0.33600001595914364, 0.0, 0.0, 0.0, 0.0, 0.0, 1.710395680809733E9, 0.0, 2024-03-13 22:54:40.809
14.0, -877.0588982086629, -561.2897951998748, -567.3596528279595, -567.6345354747027, 0.6720000319182873, 0.7360000349581242, 0.33600001595914364, 0.0, 0.0, 0.0, 0.0, 0.0, 1.7103956808233297E9, 0.0, 2024-03-13 22:54:40.823
14.0, -878.1247696960345, -565.9459706447087, -567.7673019231297, -572.7469787141308, 0.6720000319182873, 0.7360000349581242, 0.33600001595914364, 0.0, 0.0, 0.0, 0.0, 0.0, 1.7103956808233297E9, 0.0, 2024-03-13 22:54:40.823
15.0, -882.3209374463186, -572.311280369293, -584.4696951252408, -584.0377366803586, 0.6720000319182873, 0.7360000349581242, 0.33600001595914364, 0.0, 0.0, 0.0, 0.0, 0.0, 1.7103956808390536E9, 0.0, 2024-03-13 22:54:40.839
15.0, -884.908948215656, -574.4430233440362, -591.3997297431342, -578.78691714257, 0.6720000319182873, 0.7360000349581242, 0.33600001595914364, 0.0, 0.0, 0.0, 0.0, 0.0, 1.7103956808390536E9, 0.0, 2024-03-13 22:54:40.839
16.0, -881.255065958947, -572.3561591687612, -570.7704415875487, -575.3686485830694, 0.6720000319182873, 0.7360000349581242, 0.33600001595914364, 0.0, 0.0, 0.0, 0.0, 0.0, 1.710395680839812E9, 0.0, 2024-03-13 22:54:40.839
16.0, -892.84501592163, -580.8457320681773, -572.1916035707109, -581.5656628096476, 0.6720000319182873, 0.7360000349581242, 0.33600001595914364, 0.0, 0.0, 0.0, 0.0, 0.0, 1.710395680839812E9, 0.0, 2024-03-13 22:54:40.839
17.0, -882.1302025485784, -570.7816612874158, -563.7207301710732, -568.4086947655305, 0.6720000319182873, 0.7360000349581242, 0.33600001595914364, 0.0, 0.0, 0.0, 0.0, 0.0, 1.7103956808689494E9, 0.0, 2024-03-13 22:54:40.868
17.0, -870.1026842910796, -563.3205608758144, -556.3680868581869, -564.2349664149806, 0.6720000319182873, 0.7360000349581242, 0.33600001595914364, 0.0, 0.0, 0.0, 0.0, 0.0, 1.7103956808689494E9, 0.0, 2024-03-13 22:54:40.868
18.0, -894.883261397481, -577.6555974059738, -561.9442776921205, -573.5099183050916, 0.6720000319182873, 0.7360000349581242, 0.33600001595914364, 0.0, 0.0, 0.0, 0.0, 0.0, 1.7103956808850017E9, 0.0, 2024-03-13 22:54:40.885
18.0, -897.777943963185, -577.7790141045116, -567.2624154291116, -575.8959744768217, 0.6720000319182873, 0.7360000349581242, 0.33600001595914364, 0.0, 0.0, 0.0, 0.0, 0.0, 1.7103956808850017E9, 0.0, 2024-03-13 22:54:40.885
19.0, -891.349055939354, -580.4044238734059, -571.5333811785094, -578.3343892479315, 0.6720000319182873, 0.7360000349581242, 0.33600001595914364, 0.0, 0.0, 0.0, 0.0, 0.0, 1.7103956808854587E9, 0.0, 2024-03-13 22:54:40.885
19.0, -885.5821302076802, -579.293673586566, -560.3660399108194, -573.0910495100543, 0.6720000319182873, 0.7360000349581242, 0.33600001595914364, 0.0, 0.0, 0.0, 0.0, 0.0, 1.7103956808854587E9, 0.0, 2024-03-13 22:54:40.885
20.0, -893.7575515108183, -587.6673095873557, -582.0238005542196, -590.8892333991826, 0.6720000319182873, 0.7360000349581242, 0.33600001595914364, 0.0, 0.0, 0.0, 0.0, 0.0, 1.710395680886218E9, 0.0, 2024-03-13 22:54:40.886
20.0, -883.3007912347093, -571.8063938752748, -577.0759129128419, -578.6934196436778, 0.6720000319182873, 0.7360000349581242, 0.33600001595914364, 0.0, 0.0, 0.0, 0.0, 0.0, 1.710395680886218E9, 0.0, 2024-03-13 22:54:40.886
21.0, -878.6707950895652, -568.0440545198508, -577.4910418079235, -579.8228694302961, 0.6720000319182873, 0.7360000349581242, 0.33600001595914364, 0.0, 0.0, 0.0, 0.0, 0.0, 1.7103956808995695E9, 0.0, 2024-03-13 22:54:40.899
21.0, -871.5014068745077, -563.2382830767892, -572.0195681727491, -580.2566978251562, 0.6720000319182873, 0.7360000349581242, 0.33600001595914364, 0.0, 0.0, 0.0, 0.0, 0.0, 1.7103956808995695E9, 0.0, 2024-03-13 22:54:40.899
22.0, -878.2444464946166, -561.9218382923864, -577.7827540044673, -575.6491410797462, 0.6720000319182873, 0.7360000349581242, 0.33600001595914364, 0.0, 0.0, 0.0, 0.0, 0.0, 1.7103956808999493E9, 0.0, 2024-03-13 22:54:40.899
22.0, -854.3988443771377, -541.483285034541, -554.5355358798988, -554.642123028636, 0.6720000319182873, 0.7360000349581242, 0.33600001595914364, 0.0, 0.0, 0.0, 0.0, 0.0, 1.7103956808999493E9, 0.0, 2024-03-13 22:54:40.899
23.0, -861.3961971942335, -555.4218921693973, -548.7648702482693, -557.6153434934095, 0.6720000319182873, 0.7360000349581242, 0.33600001595914364, 0.0, 0.0, 0.0, 0.0, 0.0, 1.7103956809136555E9, 0.0, 2024-03-13 22:54:40.913
23.0, -871.0974976792932, -564.5883869607933, -567.7860014229082, -569.7737582493573, 0.6720000319182873, 0.7360000349581242, 0.33600001595914364, 0.0, 0.0, 0.0, 0.0, 0.0, 1.7103956809136555E9, 0.0, 2024-03-13 22:54:40.913
24.0, -877.7171206008643, -566.1180060426705, -566.3349202401005, -568.210480067879, 0.6720000319182873, 0.7360000349581242, 0.33600001595914364, 0.0, 0.0, 0.0, 0.0, 0.0, 1.71039568092907E9, 0.0, 2024-03-13 22:54:40.929
24.0, -883.0950967371464, -569.1361053069122, -554.0792680853046, -562.7315266327932, 0.6720000319182873, 0.7360000349581242, 0.33600001595914364, 0.0, 0.0, 0.0, 0.0, 0.0, 1.71039568092907E9, 0.0, 2024-03-13 22:54:40.929
25.0, -880.2864318704233, -570.2057166942395, -557.5199760445394, -568.5994296632707, 0.6720000319182873, 0.7360000349581242, 0.33600001595914364, 0.0, 0.0, 0.0, 0.0, 0.0, 1.7103956809297552E9, 0.0, 2024-03-13 22:54:40.929
25.0, -877.3992291046306, -561.2374366004951, -558.0248625385575, -559.6124500697479, 0.6720000319182873, 0.7360000349581242, 0.33600001595914364, 0.0, 0.0, 0.0, 0.0, 0.0, 1.7103956809297552E9, 0.0, 2024-03-13 22:54:40.929
26.0, -880.2939116703346, -560.3697798107751, -545.7804300836287, -552.1401299582794, 0.6720000319182873, 0.7360000349581242, 0.33600001595914364, 0.0, 0.0, 0.0, 0.0, 0.0, 1.710395680943375E9, 0.0, 2024-03-13 22:54:40.943
26.0, -888.2075399765745, -573.2312957583927, -557.4601376452483, -564.5341584114358, 0.6720000319182873, 0.7360000349581242, 0.33600001595914364, 0.0, 0.0, 0.0, 0.0, 0.0, 1.710395680943375E9, 0.0, 2024-03-13 22:54:40.943
27.0, -883.7832383289933, -569.5998529014178, -568.9229310094379, -570.8284100368619, 0.6720000319182873, 0.7360000349581242, 0.33600001595914364, 0.0, 0.0, 0.0, 0.0, 0.0, 1.71039568095905E9, 0.0, 2024-03-13 22:54:40.959
27.0, -870.4056161874905, -560.7475097062998, -560.7699491060339, -562.589410434477, 0.6720000319182873, 0.7360000349581242, 0.33600001595914364, 0.0, 0.0, 0.0, 0.0, 0.0, 1.71039568095905E9, 0.0, 2024-03-13 22:54:40.959
28.0, -873.3863164521754, -557.4563977452926, -556.1773519604467, -563.7039006212726, 0.6720000319182873, 0.7360000349581242, 0.33600001595914364, 0.0, 0.0, 0.0, 0.0, 0.0, 1.7103956809597528E9, 0.0, 2024-03-13 22:54:40.959
28.0, -877.9190751984715, -561.9517574920319, -567.4456705269404, -571.9915189230815, 0.6720000319182873, 0.7360000349581242, 0.33600001595914364, 0.0, 0.0, 0.0, 0.0, 0.0, 1.7103956809597528E9, 0.0, 2024-03-13 22:54:40.959
29.0, -869.2013684017584, -555.5565285678022, -568.4143046154641, -563.6141430223361, 0.6720000319182873, 0.7360000349581242, 0.33600001595914364, 0.0, 0.0, 0.0, 0.0, 0.0, 1.7103956809733574E9, 0.0, 2024-03-13 22:54:40.973
29.0, -871.291972476989, -554.9244854752906, -552.9797374983318, -558.5652780821547, 0.6720000319182873, 0.7360000349581242, 0.33600001595914364, 0.0, 0.0, 0.0, 0.0, 0.0, 1.7103956809733574E9, 0.0, 2024-03-13 22:54:40.973
30.0, -872.354104064405, -558.7391834300943, -557.5685947439633, -558.83829077892, 0.6720000319182873, 0.7360000349581242, 0.33600001595914364, 0.0, 0.0, 0.0, 0.0, 0.0, 1.7103956809890637E9, 0.0, 2024-03-13 22:54:40.989
30.0, -853.5237077875063, -543.9964978047647, -548.8097490477376, -540.8381522921845, 0.6720000319182873, 0.7360000349581242, 0.33600001595914364, 0.0, 0.0, 0.0, 0.0, 0.0, 1.7103956809890637E9, 0.0, 2024-03-13 22:54:40.989
31.0, -874.5045465389267, -558.3165747351013, -555.3096951707266, -552.6113573526964, 0.6720000319182873, 0.7200000341981649, 0.33600001595914364, 0.0, 0.0, 0.0, 0.0, 0.0, 1.7103956809899418E9, 0.0, 2024-03-13 22:54:40.989
31.0, -879.7478862768039, -563.903985268902, -545.8103492832743, -557.7836389914155, 0.6720000319182873, 0.7200000341981649, 0.33600001595914364, 0.0, 0.0, 0.0, 0.0, 0.0, 1.7103956809899418E9, 0.0, 2024-03-13 22:54:40.989
32.0, -883.7121802298352, -567.3933119275607, -564.5809071608819, -562.3089179378003, 0.6720000319182873, 0.7200000341981649, 0.33600001595914364, 0.0, 0.0, 0.0, 0.0, 0.0, 1.7103956810034416E9, 0.0, 2024-03-13 22:54:41.003
32.0, -883.4765665326267, -561.5104492972605, -547.5232234629802, -552.3271249560639, 0.6720000319182873, 0.7200000341981649, 0.33600001595914364, 0.0, 0.0, 0.0, 0.0, 0.0, 1.7103956810034416E9, 0.0, 2024-03-13 22:54:41.003
33.0, -886.5432844962925, -568.8518729102798, -558.9523577275686, -566.7967978846282, 0.6720000319182873, 0.7200000341981649, 0.33600001595914364, 0.0, 0.0, 0.0, 0.0, 0.0, 1.7103956810190787E9, 0.0, 2024-03-13 22:54:41.019
33.0, -886.0683172019199, -573.1041391598992, -570.0112418965437, -569.7139198500663, 0.6720000319182873, 0.7200000341981649, 0.33600001595914364, 0.0, 0.0, 0.0, 0.0, 0.0, 1.7103956810190787E9, 0.0, 2024-03-13 22:54:41.019
34.0, -881.8160509523004, -570.9013380859978, -559.9172519161366, -561.0111726531759, 0.6720000319182873, 0.7200000341981649, 0.33600001595914364, 0.0, 0.0, 0.0, 0.0, 0.0, 1.7103956810197737E9, 0.0, 2024-03-13 22:54:41.019
34.0, -890.2682248521596, -577.4947817078792, -559.3188679232262, -565.7271864973009, 0.6720000319182873, 0.7200000341981649, 0.33600001595914364, 0.0, 0.0, 0.0, 0.0, 0.0, 1.7103956810197737E9, 0.0, 2024-03-13 22:54:41.019
35.0, -890.5786365484819, -574.3831849447452, -559.2739891237579, -568.7004069620743, 0.6720000319182873, 0.7200000341981649, 0.33600001595914364, 0.0, 0.0, 0.0, 0.0, 0.0, 1.7103956810501647E9, 0.0, 2024-03-13 22:54:41.050
35.0, -888.1701409770176, -566.9183446331881, -561.7273634946905, -563.180314627476, 0.6720000319182873, 0.7200000341981649, 0.33600001595914364, 0.0, 0.0, 0.0, 0.0, 0.0, 1.7103956810501647E9, 0.0, 2024-03-13 22:54:41.050
36.0, -893.4209605148062, -577.4312034086324, -569.4016382037662, -574.8151433896273, 0.6720000319182873, 0.7200000341981649, 0.33600001595914364, 0.0, 0.0, 0.0, 0.0, 0.0, 1.7103956810507221E9, 0.0, 2024-03-13 22:54:41.050
36.0, -899.9695253372192, -584.9671018193476, -578.6952895936556, -589.7223846130073, 0.6720000319182873, 0.7200000341981649, 0.33600001595914364, 0.0, 0.0, 0.0, 0.0, 0.0, 1.7103956810507221E9, 0.0, 2024-03-13 22:54:41.050
37.0, -894.7523648990318, -575.0301876370795, -575.1049856361933, -572.4515266176313, 0.6720000319182873, 0.7200000341981649, 0.33600001595914364, 0.0, 0.0, 0.0, 0.0, 0.0, 1.7103956810513055E9, 0.0, 2024-03-13 22:54:41.051
37.0, -883.5850236313418, -566.3424000400119, -567.546647825744, -573.9848855994642, 0.6720000319182873, 0.7200000341981649, 0.33600001595914364, 0.0, 0.0, 0.0, 0.0, 0.0, 1.7103956810513055E9, 0.0, 2024-03-13 22:54:41.051
38.0, -872.3167050648481, -564.1769979656674, -553.1816920959391, -565.3382369019091, 0.6720000319182873, 0.7200000341981649, 0.33600001595914364, 0.0, 0.0, 0.0, 0.0, 0.0, 1.710395681063528E9, 0.0, 2024-03-13 22:54:41.063
38.0, -878.8577900873497, -559.3226078231819, -561.7946816938929, -565.1774212038144, 0.6720000319182873, 0.7200000341981649, 0.33600001595914364, 0.0, 0.0, 0.0, 0.0, 0.0, 1.710395681063528E9, 0.0, 2024-03-13 22:54:41.063
39.0, -872.7467935597524, -553.0470556975342, -561.9367978922091, -555.6481561167166, 0.6720000319182873, 0.7200000341981649, 0.33600001595914364, 0.0, 0.0, 0.0, 0.0, 0.0, 1.710395681079049E9, 0.0, 2024-03-13 22:54:41.079
39.0, -874.4222687399015, -553.7838159888051, -553.447224992793, -561.4936197474599, 0.6720000319182873, 0.7200000341981649, 0.33600001595914364, 0.0, 0.0, 0.0, 0.0, 0.0, 1.710395681079049E9, 0.0, 2024-03-13 22:54:41.079
40.0, -877.9826534977183, -561.7385831945576, -564.7716420586221, -566.7257397854701, 0.6720000319182873, 0.7200000341981649, 0.33600001595914364, 0.0, 0.0, 0.0, 0.0, 0.0, 1.7103956810797682E9, 0.0, 2024-03-13 22:54:41.079
40.0, -887.4595599854365, -562.9428309802897, -567.7411226234399, -563.3448702255264, 0.6720000319182873, 0.7200000341981649, 0.33600001595914364, 0.0, 0.0, 0.0, 0.0, 0.0, 1.7103956810797682E9, 0.0, 2024-03-13 22:54:41.079
41.0, -882.4293945450336, -565.4111649510451, -560.1379060135223, -562.952180730179, 0.6720000319182873, 0.7200000341981649, 0.33600001595914364, 0.0, 0.0, 0.0, 0.0, 0.0, 1.7103956810935383E9, 0.0, 2024-03-13 22:54:41.093
41.0, -882.9567204387859, -563.8254473698325, -559.4011457222514, -566.9089948832989, 0.6720000319182873, 0.7200000341981649, 0.33600001595914364, 0.0, 0.0, 0.0, 0.0, 0.0, 1.7103956810935383E9, 0.0, 2024-03-13 22:54:41.093
42.0, -882.3097177464515, -564.1545585659333, -568.0403146198951, -567.993565870449, 0.6720000319182873, 0.7200000341981649, 0.33600001595914364, 0.0, 0.0, 0.0, 0.0, 0.0, 1.7103956811091125E9, 0.0, 2024-03-13 22:54:41.109
42.0, -879.7665857765824, -567.71494332375, -552.9685177984647, -569.3249702546746, 0.6720000319182873, 0.7200000341981649, 0.33600001595914364, 0.0, 0.0, 0.0, 0.0, 0.0, 1.7103956811091125E9, 0.0, 2024-03-13 22:54:41.109
43.0, -892.9684326201677, -577.1095720124431, -565.9010918452404, -581.3001299127936, 0.6720000319182873, 0.7200000341981649, 0.33600001595914364, 0.0, 0.0, 0.0, 0.0, 0.0, 1.710395681109952E9, 0.0, 2024-03-13 22:54:41.109
43.0, -896.704592675902, -581.1449240646325, -580.7597143691964, -583.0279636923224, 0.6720000319182873, 0.7200000341981649, 0.33600001595914364, 0.0, 0.0, 0.0, 0.0, 0.0, 1.710395681109952E9, 0.0, 2024-03-13 22:54:41.109
44.0, -895.7135191876441, -580.5540198716335, -580.9766285666265, -580.4661322226748, 0.6720000319182873, 0.7200000341981649, 0.33600001595914364, 0.0, 0.0, 0.0, 0.0, 0.0, 1.7103956811235209E9, 0.0, 2024-03-13 22:54:41.123
44.0, -890.9040078446269, -579.5853857831098, -578.4035773971118, -587.0932349441573, 0.6720000319182873, 0.7200000341981649, 0.33600001595914364, 0.0, 0.0, 0.0, 0.0, 0.0, 1.7103956811235209E9, 0.0, 2024-03-13 22:54:41.123
45.0, -889.7109797587618, -572.588032966014, -571.200530082453, -580.8027232186869, 0.6720000319182873, 0.7200000341981649, 0.33600001595914364, 0.0, 0.0, 0.0, 0.0, 0.0, 1.7103956811390648E9, 0.0, 2024-03-13 22:54:41.139
45.0, -880.5669243671, -567.0791603312828, -574.2298490465619, -575.8286562776193, 0.6720000319182873, 0.7200000341981649, 0.33600001595914364, 0.0, 0.0, 0.0, 0.0, 0.0, 1.7103956811390648E9, 0.0, 2024-03-13 22:54:41.139
46.0, -887.4371205857024, -577.0347740133293, -573.6277251536958, -585.3541814647615, 0.6720000319182873, 0.7200000341981649, 0.33600001595914364, 0.0, 0.0, 0.0, 0.0, 0.0, 1.710395681139822E9, 0.0, 2024-03-13 22:54:41.139
46.0, -891.3901948388666, -584.0583061301149, -566.8435466340743, -585.9787447573617, 0.6720000319182873, 0.7200000341981649, 0.33600001595914364, 0.0, 0.0, 0.0, 0.0, 0.0, 1.710395681139822E9, 0.0, 2024-03-13 22:54:41.139
47.0, -890.8105103457347, -580.1538505763747, -570.6657243887894, -578.1436543501914, 0.6720000319182873, 0.7200000341981649, 0.33600001595914364, 0.0, 0.0, 0.0, 0.0, 0.0, 1.7103956811533396E9, 0.0, 2024-03-13 22:54:41.153
47.0, -895.6835999879986, -576.0885793245398, -571.7876943754964, -581.681599708274, 0.6720000319182873, 0.7200000341981649, 0.33600001595914364, 0.0, 0.0, 0.0, 0.0, 0.0, 1.7103956811533396E9, 0.0, 2024-03-13 22:54:41.153
48.0, -903.0512029007077, -589.1483099698089, -582.7156820460223, -592.4487716807052, 0.6720000319182873, 0.7200000341981649, 0.33600001595914364, 0.0, 0.0, 0.0, 0.0, 0.0, 1.7103956811695976E9, 0.0, 2024-03-13 22:54:41.169
48.0, -900.4108335319906, -580.1388909765519, -588.0263399831019, -588.5817151265219, 0.6720000319182873, 0.7200000341981649, 0.33600001595914364, 0.0, 0.0, 0.0, 0.0, 0.0, 1.7103956811695976E9, 0.0, 2024-03-13 22:54:41.169
49.0, -888.6301486715674, -562.120052990038, -573.7586216521449, -572.2794912196696, 0.6720000319182873, 0.7200000341981649, 0.33600001595914364, 0.0, 0.0, 0.0, 0.0, 0.0, 1.710395681169906E9, 0.0, 2024-03-13 22:54:41.169
49.0, -894.8608219977468, -580.4680021726526, -574.0391141488217, -582.4594988990575, 0.6720000319182873, 0.7200000341981649, 0.33600001595914364, 0.0, 0.0, 0.0, 0.0, 0.0, 1.710395681169906E9, 0.0, 2024-03-13 22:54:41.169
50.0, -895.0627765953541, -579.1141583886929, -576.8253396158107, -582.3921806998551, 0.6720000319182873, 0.7200000341981649, 0.33600001595914364, 0.0, 0.0, 0.0, 0.0, 0.0, 1.7103956811836462E9, 0.0, 2024-03-13 22:54:41.183
50.0, -890.6833537472412, -572.382338468451, -577.146971012, -579.5685562333092, 0.6720000319182873, 0.7200000341981649, 0.33600001595914364, 0.0, 0.0, 0.0, 0.0, 0.0, 1.7103956811836462E9, 0.0, 2024-03-13 22:54:41.183
51.0, -883.521445332095, -570.3141737929545, -564.8389602578245, -575.0806762864813, 0.6720000319182873, 0.7200000341981649, 0.33600001595914364, 0.0, 0.0, 0.0, 0.0, 0.0, 1.710395681199298E9, 0.0, 2024-03-13 22:54:41.199
51.0, -890.6833537472412, -575.9202838265337, -570.1458782949485, -581.9433927051723, 0.6720000319182873, 0.7200000341981649, 0.33600001595914364, 0.0, 0.0, 0.0, 0.0, 0.0, 1.710395681199298E9, 0.0, 2024-03-13 22:54:41.199
52.0, -888.6825072709471, -570.067340395879, -576.772981016431, -583.768463883549, 0.6720000319182873, 0.7200000341981649, 0.33600001595914364, 0.0, 0.0, 0.0, 0.0, 0.0, 1.7103956812000456E9, 0.0, 2024-03-13 22:54:41.200
52.0, -884.6995138181373, -566.0544277434237, -557.8640468404628, -566.6771210860461, 0.6720000319182873, 0.7200000341981649, 0.33600001595914364, 0.0, 0.0, 0.0, 0.0, 0.0, 1.7103956812000456E9, 0.0, 2024-03-13 22:54:41.200
53.0, -894.520491101779, -577.3115266100504, -575.4976751315407, -585.9675250574946, 0.6720000319182873, 0.7200000341981649, 0.33600001595914364, 0.0, 0.0, 0.0, 0.0, 0.0, 1.7103956812133367E9, 0.0, 2024-03-13 22:54:41.213
53.0, -895.5714029893279, -576.7916805162095, -587.7458474864252, -588.6191141260788, 0.6720000319182873, 0.7200000341981649, 0.33600001595914364, 0.0, 0.0, 0.0, 0.0, 0.0, 1.7103956812133367E9, 0.0, 2024-03-13 22:54:41.213
54.0, -886.5844233958051, -564.5173288616352, -574.2448086463846, -577.2610379606485, 0.6720000319182873, 0.7200000341981649, 0.33600001595914364, 0.0, 0.0, 0.0, 0.0, 0.0, 1.710395681229094E9, 0.0, 2024-03-13 22:54:41.229
54.0, -887.2875245874748, -569.2483023055829, -568.4853627146222, -577.5602299571037, 0.6720000319182873, 0.7200000341981649, 0.33600001595914364, 0.0, 0.0, 0.0, 0.0, 0.0, 1.710395681229094E9, 0.0, 2024-03-13 22:54:41.229
55.0, -884.4489405211061, -570.9200375857763, -572.5020152670331, -578.184793249704, 0.6720000319182873, 0.7200000341981649, 0.33600001595914364, 0.0, 0.0, 0.0, 0.0, 0.0, 1.7103956812299385E9, 0.0, 2024-03-13 22:54:41.229
55.0, -884.2245465237647, -563.4140583747067, -574.9254704383202, -575.2340121846646, 0.6720000319182873, 0.7200000341981649, 0.33600001595914364, 0.0, 0.0, 0.0, 0.0, 0.0, 1.7103956812299385E9, 0.0, 2024-03-13 22:54:41.229
56.0, -875.8097716234624, -560.7475097062998, -557.4788371450268, -562.2229002388194, 0.6720000319182873, 0.7200000341981649, 0.33600001595914364, 0.0, 0.0, 0.0, 0.0, 0.0, 1.7103956812434423E9, 0.0, 2024-03-13 22:54:41.243
56.0, -879.8376438757405, -561.3047547996975, -563.7917882702313, -574.8001837898046, 0.6720000319182873, 0.7200000341981649, 0.33600001595914364, 0.0, 0.0, 0.0, 0.0, 0.0, 1.7103956812434423E9, 0.0, 2024-03-13 22:54:41.243
57.0, -882.5303718438372, -551.3267017179169, -569.8354665986262, -567.2755050789565, 0.6720000319182873, 0.7200000341981649, 0.33600001595914364, 0.0, 0.0, 0.0, 0.0, 0.0, 1.7103956812593527E9, 0.0, 2024-03-13 22:54:41.259
57.0, -888.1925803767517, -569.0463477079757, -575.1872634352185, -572.7731580138206, 0.6720000319182873, 0.7200000341981649, 0.33600001595914364, 0.0, 0.0, 0.0, 0.0, 0.0, 1.7103956812593527E9, 0.0, 2024-03-13 22:54:41.259
58.0, -882.0030459500849, -567.4194912272505, -563.6534119718708, -571.3445162307471, 0.6720000319182873, 0.7200000341981649, 0.33600001595914364, 0.0, 0.0, 0.0, 0.0, 0.0, 1.7103956812598479E9, 0.0, 2024-03-13 22:54:41.259
58.0, -891.7641848344356, -573.0929194600321, -573.0480406605639, -575.8398759774864, 0.6720000319182873, 0.7200000341981649, 0.33600001595914364, 0.0, 0.0, 0.0, 0.0, 0.0, 1.7103956812598479E9, 0.0, 2024-03-13 22:54:41.259
59.0, -879.6319493781775, -562.6249394840561, -554.5729348794557, -565.9366208948195, 0.6720000319182873, 0.7200000341981649, 0.33600001595914364, 0.0, 0.0, 0.0, 0.0, 0.0, 1.710395681273454E9, 0.0, 2024-03-13 22:54:41.273
59.0, -898.6343810530379, -578.2726808986627, -571.1593911829405, -584.6136812735349, 0.6720000319182873, 0.7200000341981649, 0.33600001595914364, 0.0, 0.0, 0.0, 0.0, 0.0, 1.710395681273454E9, 0.0, 2024-03-13 22:54:41.273
60.0, -895.90799398534, -579.5928655830212, -566.3386601400562, -579.3105031363666, 0.6720000319182873, 0.7200000341981649, 0.33600001595914364, 0.0, 0.0, 0.0, 0.0, 0.0, 1.7103956812890756E9, 0.0, 2024-03-13 22:54:41.289
60.0, -897.9574591610581, -575.3405993334018, -581.5750125595368, -579.4002607353032, 0.6720000319182873, 0.7200000341981649, 0.33600001595914364, 0.0, 0.0, 0.0, 0.0, 0.0, 1.7103956812890756E9, 0.0, 2024-03-13 22:54:41.289
61.0, -897.2393983695656, -579.8883176795207, -576.5224077193998, -581.4534658109769, 0.6720000319182873, 0.7200000341981649, 0.33600001595914364, 0.0, 0.0, 0.0, 0.0, 0.0, 1.7103956812897992E9, 0.0, 2024-03-13 22:54:41.289
61.0, -898.645600752905, -582.8129194448702, -576.724362317007, -589.6887255134061, 0.6720000319182873, 0.7200000341981649, 0.33600001595914364, 0.0, 0.0, 0.0, 0.0, 0.0, 1.7103956812897992E9, 0.0, 2024-03-13 22:54:41.289
62.0, -899.7264318400994, -580.2847470748238, -571.2416689819656, -578.0538967512548, 0.6720000319182873, 0.7200000341981649, 0.33600001595914364, 0.0, 0.0, 0.0, 0.0, 0.0, 1.710395681319859E9, 0.0, 2024-03-13 22:54:41.319
62.0, -894.9019608972594, -580.9167901673354, -569.4016382037662, -574.7515650903806, 0.6720000319182873, 0.7200000341981649, 0.33600001595914364, 0.0, 0.0, 0.0, 0.0, 0.0, 1.710395681319859E9, 0.0, 2024-03-13 22:54:41.319
63.0, -895.90799398534, -578.2128424993716, -571.7540352758951, -577.6499875560403, 0.6720000319182873, 0.7200000341981649, 0.33600001595914364, 0.0, 0.0, 0.0, 0.0, 0.0, 1.7103956813206878E9, 0.0, 2024-03-13 22:54:41.320
63.0, -888.7722648698837, -562.1424923897721, -563.9600837682374, -563.9843931179494, 0.6720000319182873, 0.7200000341981649, 0.33600001595914364, 0.0, 0.0, 0.0, 0.0, 0.0, 1.7103956813206878E9, 0.0, 2024-03-13 22:54:41.320
64.0, -894.4643926024437, -569.3904185038991, -573.818460051436, -570.7797913374379, 0.6720000319182873, 0.7200000341981649, 0.33600001595914364, 0.0, 0.0, 0.0, 0.0, 0.0, 1.7103956813212385E9, 0.0, 2024-03-13 22:54:41.321
64.0, -904.1731728874147, -582.0125808543526, -572.0644469722174, -583.1999990902841, 0.6720000319182873, 0.7200000341981649, 0.33600001595914364, 0.0, 0.0, 0.0, 0.0, 0.0, 1.7103956813212385E9, 0.0, 2024-03-13 22:54:41.321
65.0, -904.3564279852435, -584.492134524975, -581.3206993625499, -586.4013534523547, 0.6720000319182873, 0.7200000341981649, 0.33600001595914364, 0.0, 0.0, 0.0, 0.0, 0.0, 1.710395681333371E9, 0.0, 2024-03-13 22:54:41.333
65.0, -889.250972064212, -573.4781291554682, -573.7661014520563, -578.5064246458933, 0.6720000319182873, 0.7200000341981649, 0.33600001595914364, 0.0, 0.0, 0.0, 0.0, 0.0, 1.710395681333371E9, 0.0, 2024-03-13 22:54:41.333
66.0, -886.7227996941656, -572.32250006916, -567.8570595220663, -575.4359667822719, 0.6720000319182873, 0.7200000341981649, 0.33600001595914364, 0.0, 0.0, 0.0, 0.0, 0.0, 1.7103956813493762E9, 0.0, 2024-03-13 22:54:41.349
66.0, -896.6372744766995, -578.7663476928137, -571.3015073812567, -586.6369671495631, 0.6720000319182873, 0.7200000341981649, 0.33600001595914364, 0.0, 0.0, 0.0, 0.0, 0.0, 1.7103956813493762E9, 0.0, 2024-03-13 22:54:41.349
67.0, -881.363523057662, -568.728456211742, -570.0112418965437, -572.9264939120039, 0.6720000319182873, 0.7200000341981649, 0.33600001595914364, 0.0, 0.0, 0.0, 0.0, 0.0, 1.7103956813499408E9, 0.0, 2024-03-13 22:54:41.349
67.0, -879.4860932799056, -560.9120653043501, -565.8412534459494, -571.0191449346021, 0.6720000319182873, 0.7200000341981649, 0.33600001595914364, 0.0, 0.0, 0.0, 0.0, 0.0, 1.7103956813499408E9, 0.0, 2024-03-13 22:54:41.349
68.0, -895.7247388875112, -579.2039159876294, -564.9848163560964, -579.4488794347271, 0.6720000319182873, 0.7200000341981649, 0.33600001595914364, 0.0, 0.0, 0.0, 0.0, 0.0, 1.71039568136358E9, 0.0, 2024-03-13 22:54:41.363
68.0, -901.6300409175456, -582.0088409543969, -572.6403915653937, -576.9169671647251, 0.6720000319182873, 0.7200000341981649, 0.33600001595914364, 0.0, 0.0, 0.0, 0.0, 0.0, 1.71039568136358E9, 0.0, 2024-03-13 22:54:41.363
69.0, -896.4689789786935, -578.4147970969789, -574.73473554058, -577.3732349593192, 0.6720000319182873, 0.7200000341981649, 0.33600001595914364, 0.0, 0.0, 0.0, 0.0, 0.0, 1.7103956813954244E9, 0.0, 2024-03-13 22:54:41.395
69.0, -889.9353737561032, -581.3506185621955, -562.2584292883985, -576.8010302660987, 0.6720000319182873, 0.7200000341981649, 0.33600001595914364, 0.0, 0.0, 0.0, 0.0, 0.0, 1.7103956813954244E9, 0.0, 2024-03-13 22:54:41.395
70.0, -899.1205680472776, -585.3560514147393, -583.3963438379578, -592.632026778534, 0.6720000319182873, 0.7200000341981649, 0.33600001595914364, 0.0, 0.0, 0.0, 0.0, 0.0, 1.710395681396147E9, 0.0, 2024-03-13 22:54:41.396
70.0, -891.7043464351445, -578.0707263010554, -582.1098182532005, -587.2390910424292, 0.6720000319182873, 0.7200000341981649, 0.33600001595914364, 0.0, 0.0, 0.0, 0.0, 0.0, 1.710395681396147E9, 0.0, 2024-03-13 22:54:41.396
71.0, -893.0207912195474, -580.9728886666708, -574.8992911386304, -582.2463246015832, 0.6720000319182873, 0.7200000341981649, 0.33600001595914364, 0.0, 0.0, 0.0, 0.0, 0.0, 1.7103956813970375E9, 0.0, 2024-03-13 22:54:41.397
71.0, -905.77385006845, -589.1296104700305, -583.6394373350777, -595.8969594398513, 0.6720000319182873, 0.7200000341981649, 0.33600001595914364, 0.0, 0.0, 0.0, 0.0, 0.0, 1.7103956813970375E9, 0.0, 2024-03-13 22:54:41.397
72.0, -896.7083325758576, -577.5957590066828, -573.7511418522336, -582.5642160978168, 0.6720000319182873, 0.7200000341981649, 0.33600001595914364, 0.0, 0.0, 0.0, 0.0, 0.0, 1.7103956813982904E9, 0.0, 2024-03-13 22:54:41.398
72.0, -893.4770590141416, -578.0707263010554, -567.1053396309726, -581.4684254107997, 0.6720000319182873, 0.7200000341981649, 0.33600001595914364, 0.0, 0.0, 0.0, 0.0, 0.0, 1.7103956813982904E9, 0.0, 2024-03-13 22:54:41.398
73.0, -905.4260393725708, -584.7427078220062, -572.7002299646847, -584.1574134789407, 0.6720000319182873, 0.7200000341981649, 0.33600001595914364, 0.0, 0.0, 0.0, 0.0, 0.0, 1.7103956814083314E9, 0.0, 2024-03-13 22:54:41.408
73.0, -900.6053083296865, -592.2262476333417, -584.4135966259055, -589.1875789193437, 0.6720000319182873, 0.7200000341981649, 0.33600001595914364, 0.0, 0.0, 0.0, 0.0, 0.0, 1.7103956814083314E9, 0.0, 2024-03-13 22:54:41.408
74.0, -900.6576669290662, -584.5744123240001, -576.7916805162095, -583.8619613824412, 0.6720000319182873, 0.7200000341981649, 0.33600001595914364, 0.0, 0.0, 0.0, 0.0, 0.0, 1.7103956814233472E9, 0.0, 2024-03-13 22:54:41.423
74.0, -901.4056469202042, -595.6108570932411, -573.2537351581268, -592.6881252778694, 0.6720000319182873, 0.7200000341981649, 0.33600001595914364, 0.0, 0.0, 0.0, 0.0, 0.0, 1.7103956814233472E9, 0.0, 2024-03-13 22:54:41.423
75.0, -901.0802756240591, -592.3085254323669, -579.7948201806284, -593.0621152734384, 0.6720000319182873, 0.7200000341981649, 0.33600001595914364, 0.0, 0.0, 0.0, 0.0, 0.0, 1.7103956814390855E9, 0.0, 2024-03-13 22:54:41.439
75.0, -906.9818377541378, -594.0475789117627, -585.4046701141633, -592.5347893796861, 0.6720000319182873, 0.7200000341981649, 0.33600001595914364, 0.0, 0.0, 0.0, 0.0, 0.0, 1.7103956814390855E9, 0.0, 2024-03-13 22:54:41.439
76.0, -909.3005757266656, -598.3260244610719, -585.1279175174423, -602.8793526571244, 0.6720000319182873, 0.7200000341981649, 0.33600001595914364, 0.0, 0.0, 0.0, 0.0, 0.0, 1.710395681439792E9, 0.0, 2024-03-13 22:54:41.439
76.0, -905.0034306775779, -599.5302722468041, -578.3399990978651, -595.623946743086, 0.6720000319182873, 0.7200000341981649, 0.33600001595914364, 0.0, 0.0, 0.0, 0.0, 0.0, 1.710395681439792E9, 0.0, 2024-03-13 22:54:41.439
77.0, -893.8996677091345, -580.3782445737161, -578.1156051005237, -583.7348047839478, 0.6720000319182873, 0.7200000341981649, 0.33600001595914364, 0.0, 0.0, 0.0, 0.0, 0.0, 1.7103956814697556E9, 0.0, 2024-03-13 22:54:41.469
77.0, -889.5576438605785, -576.4064708207734, -565.6916574477218, -573.4837390054017, 0.6720000319182873, 0.7200000341981649, 0.33600001595914364, 0.0, 0.0, 0.0, 0.0, 0.0, 1.7103956814697556E9, 0.0, 2024-03-13 22:54:41.469
78.0, -898.0509566599503, -585.9469556077383, -561.4693103977479, -580.4212534232065, 0.6720000319182873, 0.7200000341981649, 0.33600001595914364, 0.0, 0.0, 0.0, 0.0, 0.0, 1.7103956814704788E9, 0.0, 2024-03-13 22:54:41.470
78.0, -909.9887173185125, -597.1367362751625, -580.4493026728742, -591.1024076966569, 0.6720000319182873, 0.7200000341981649, 0.33600001595914364, 0.0, 0.0, 0.0, 0.0, 0.0, 1.7103956814704788E9, 0.0, 2024-03-13 22:54:41.470
79.0, -901.1214145235717, -586.1713496050797, -579.5741660832427, -583.0429232921451, 0.6720000319182873, 0.7200000341981649, 0.33600001595914364, 0.0, 0.0, 0.0, 0.0, 0.0, 1.7103956814711745E9, 0.0, 2024-03-13 22:54:41.471
79.0, -904.7191982809454, -587.4690948897041, -566.8398067341186, -582.115428103134, 0.6720000319182873, 0.7200000341981649, 0.33600001595914364, 0.0, 0.0, 0.0, 0.0, 0.0, 1.7103956814711745E9, 0.0, 2024-03-13 22:54:41.471
80.0, -902.1947658108547, -590.8911033491604, -574.1887101470493, -584.8679944705218, 0.6720000319182873, 0.7200000341981649, 0.33600001595914364, 0.0, 0.0, 0.0, 0.0, 0.0, 1.710395681498872E9, 0.0, 2024-03-13 22:54:41.498
80.0, -896.439059779048, -580.5689794714563, -581.9976212545298, -574.553350392729, 0.6720000319182873, 0.7200000341981649, 0.33600001595914364, 0.0, 0.0, 0.0, 0.0, 0.0, 1.710395681498872E9, 0.0, 2024-03-13 22:54:41.498
81.0, -892.8786750212312, -575.8043469279073, -572.8573057628237, -579.8527886299416, 0.6720000319182873, 0.7200000341981649, 0.33600001595914364, 0.0, 0.0, 0.0, 0.0, 0.0, 1.71039568151578E9, 0.0, 2024-03-13 22:54:41.515
81.0, -901.7235384164378, -584.6192911234684, -570.8901183861308, -581.404847111553, 0.6720000319182873, 0.7200000341981649, 0.33600001595914364, 0.0, 0.0, 0.0, 0.0, 0.0, 1.71039568151578E9, 0.0, 2024-03-13 22:54:41.515
82.0, -894.303576904349, -577.195589711424, -574.08399294829, -576.4120806707069, 0.6720000319182873, 0.7200000341981649, 0.33600001595914364, 0.0, 0.0, 0.0, 0.0, 0.0, 1.7103956815164492E9, 0.0, 2024-03-13 22:54:41.516
82.0, -903.0624226005748, -581.5525731598027, -568.4853627146222, -574.807663589716, 0.6720000319182873, 0.7200000341981649, 0.33600001595914364, 0.0, 0.0, 0.0, 0.0, 0.0, 1.7103956815164492E9, 0.0, 2024-03-13 22:54:41.516
83.0, -902.3705411087722, -584.7875866214745, -572.8834850625135, -582.1565670026466, 0.6720000319182873, 0.7200000341981649, 0.33600001595914364, 0.0, 0.0, 0.0, 0.0, 0.0, 1.710395681517305E9, 0.0, 2024-03-13 22:54:41.517
83.0, -900.3659547325224, -584.7950664213859, -578.2427616990171, -578.8317959420383, 0.6720000319182873, 0.7200000341981649, 0.33600001595914364, 0.0, 0.0, 0.0, 0.0, 0.0, 1.710395681517305E9, 0.0, 2024-03-13 22:54:41.517
84.0, -900.3472552327439, -583.6656166347675, -581.5450933598913, -583.1439005909488, 0.6720000319182873, 0.7200000341981649, 0.33600001595914364, 0.0, 0.0, 0.0, 0.0, 0.0, 1.7103956815177064E9, 0.0, 2024-03-13 22:54:41.517
84.0, -908.5750351352617, -594.4365285071544, -587.6112110880204, -598.6083869077265, 0.6720000319182873, 0.7200000341981649, 0.33600001595914364, 0.0, 0.0, 0.0, 0.0, 0.0, 1.7103956815177064E9, 0.0, 2024-03-13 22:54:41.517
85.0, -895.6387211885303, -583.4262630376033, -579.4470094847493, -585.7842699596658, 0.6720000319182873, 0.7200000341981649, 0.33600001595914364, 0.0, 0.0, 0.0, 0.0, 0.0, 1.710395681528422E9, 0.0, 2024-03-13 22:54:41.528
85.0, -895.7247388875112, -584.3874173262157, -575.9988217256032, -586.1358205555007, 0.6720000319182873, 0.7200000341981649, 0.33600001595914364, 0.0, 0.0, 0.0, 0.0, 0.0, 1.710395681528422E9, 0.0, 2024-03-13 22:54:41.528
86.0, -901.7197985164821, -581.0327270659618, -573.3659321567975, -585.9937043571845, 0.6720000319182873, 0.7200000341981649, 0.33600001595914364, 0.0, 0.0, 0.0, 0.0, 0.0, 1.7103956815438983E9, 0.0, 2024-03-13 22:54:41.543
86.0, -902.2209451105446, -592.4955204301514, -579.6040852828883, -592.3814534815028, 0.6720000319182873, 0.7200000341981649, 0.33600001595914364, 0.0, 0.0, 0.0, 0.0, 0.0, 1.7103956815438983E9, 0.0, 2024-03-13 22:54:41.543
87.0, -902.1648466112092, -591.9607147364877, -585.3822307144292, -593.8437543641776, 0.6720000319182873, 0.7200000341981649, 0.33600001595914364, 0.0, 0.0, 0.0, 0.0, 0.0, 1.7103956815592587E9, 0.0, 2024-03-13 22:54:41.559
87.0, -899.6217146413401, -586.3583446028642, -580.1388909765519, -589.9991372097284, 0.6720000319182873, 0.7200000341981649, 0.33600001595914364, 0.0, 0.0, 0.0, 0.0, 0.0, 1.7103956815592587E9, 0.0, 2024-03-13 22:54:41.559
88.0, -899.6516338409856, -582.3304723505862, -573.9979752493091, -590.6237005023286, 0.6720000319182873, 0.7200000341981649, 0.33600001595914364, 0.0, 0.0, 0.0, 0.0, 0.0, 1.7103956815599527E9, 0.0, 2024-03-13 22:54:41.559
88.0, -901.6150813177228, -581.0925654652528, -578.485855196137, -584.8605146706104, 0.6720000319182873, 0.7200000341981649, 0.33600001595914364, 0.0, 0.0, 0.0, 0.0, 0.0, 1.7103956815599527E9, 0.0, 2024-03-13 22:54:41.559
89.0, -893.92958690878, -573.5304877548479, -568.9977290085517, -580.873781317845, 0.6720000319182873, 0.7200000341981649, 0.33600001595914364, 0.0, 0.0, 0.0, 0.0, 0.0, 1.710395681573559E9, 0.0, 2024-03-13 22:54:41.573
89.0, -900.6127881295979, -579.2487947870977, -574.5813996423967, -586.4050933523104, 0.6720000319182873, 0.7200000341981649, 0.33600001595914364, 0.0, 0.0, 0.0, 0.0, 0.0, 1.710395681573559E9, 0.0, 2024-03-13 22:54:41.573
90.0, -897.306716568768, -574.6150587419979, -589.8401914616115, -588.0581291327253, 0.6720000319182873, 0.7200000341981649, 0.33600001595914364, 0.0, 0.0, 0.0, 0.0, 0.0, 1.7103956815892358E9, 0.0, 2024-03-13 22:54:41.589
90.0, -886.8574360925704, -563.9750433680601, -588.2170748808421, -576.5467170691118, 0.6720000319182873, 0.7200000341981649, 0.33600001595914364, 0.0, 0.0, 0.0, 0.0, 0.0, 1.7103956815892358E9, 0.0, 2024-03-13 22:54:41.589
91.0, -882.9978593382984, -568.6873173122294, -579.1515573882498, -578.8579752417281, 0.6720000319182873, 0.7360000349581242, 0.33600001595914364, 0.0, 0.0, 0.0, 0.0, 0.0, 1.7103956815897791E9, 0.0, 2024-03-13 22:54:41.589
91.0, -874.5344657385722, -559.9172519161366, -559.6330195195042, -572.4365670178086, 0.6720000319182873, 0.7360000349581242, 0.33600001595914364, 0.0, 0.0, 0.0, 0.0, 0.0, 1.7103956815897791E9, 0.0, 2024-03-13 22:54:41.589
92.0, -871.5949043733999, -562.9091718806885, -565.2877482525073, -567.6681945743039, 0.6720000319182873, 0.7360000349581242, 0.33600001595914364, 0.0, 0.0, 0.0, 0.0, 0.0, 1.7103956816033528E9, 0.0, 2024-03-13 22:54:41.603
92.0, -874.3811298403889, -564.9885562560521, -564.0835004667751, -569.669041050598, 0.6720000319182873, 0.7360000349581242, 0.33600001595914364, 0.0, 0.0, 0.0, 0.0, 0.0, 1.7103956816033528E9, 0.0, 2024-03-13 22:54:41.603
93.0, -887.1491482891142, -575.9090641266666, -571.5296412785538, -581.0271172160283, 0.6720000319182873, 0.7360000349581242, 0.33600001595914364, 0.0, 0.0, 0.0, 0.0, 0.0, 1.7103956816193871E9, 0.0, 2024-03-13 22:54:41.619
93.0, -887.5081786848605, -571.308987181168, -574.8581522391178, -580.5184908220544, 0.6720000319182873, 0.7360000349581242, 0.33600001595914364, 0.0, 0.0, 0.0, 0.0, 0.0, 1.7103956816193871E9, 0.0, 2024-03-13 22:54:41.619
94.0, -882.0367050496861, -563.7057705712505, -565.9871095442213, -567.2493257792667, 0.6720000319182873, 0.7360000349581242, 0.33600001595914364, 0.0, 0.0, 0.0, 0.0, 0.0, 1.7103956816197443E9, 0.0, 2024-03-13 22:54:41.619
94.0, -880.0919570727274, -566.2900414406322, -562.0377751910128, -572.6946201147512, 0.6720000319182873, 0.7360000349581242, 0.33600001595914364, 0.0, 0.0, 0.0, 0.0, 0.0, 1.7103956816197443E9, 0.0, 2024-03-13 22:54:41.619
95.0, -872.3615838643163, -560.0257090148516, -564.86887945747, -569.983192646876, 0.6720000319182873, 0.7360000349581242, 0.33600001595914364, 0.0, 0.0, 0.0, 0.0, 0.0, 1.7103956816499968E9, 0.0, 2024-03-13 22:54:41.649
95.0, -888.3309566751122, -571.9784292732365, -568.728456211742, -572.4403069177642, 0.6720000319182873, 0.7360000349581242, 0.33600001595914364, 0.0, 0.0, 0.0, 0.0, 0.0, 1.7103956816499968E9, 0.0, 2024-03-13 22:54:41.649
96.0, -895.6349812885746, -581.3169594625942, -572.5057551669888, -580.3763746237382, 0.6720000319182873, 0.7360000349581242, 0.33600001595914364, 0.0, 0.0, 0.0, 0.0, 0.0, 1.7103956816505203E9, 0.0, 2024-03-13 22:54:41.650
96.0, -901.9479324137792, -580.4380829730071, -582.0163207543083, -586.4798913514242, 0.6720000319182873, 0.7360000349581242, 0.33600001595914364, 0.0, 0.0, 0.0, 0.0, 0.0, 1.7103956816505203E9, 0.0, 2024-03-13 22:54:41.650
97.0, -888.0392444785684, -573.6239852537401, -580.1762899761088, -579.9500260287896, 0.6720000319182873, 0.7360000349581242, 0.33600001595914364, 0.0, 0.0, 0.0, 0.0, 0.0, 1.710395681651386E9, 0.0, 2024-03-13 22:54:41.651
97.0, -889.3631690628827, -576.8702184152789, -582.8615381442942, -586.4761514514685, 0.6720000319182873, 0.7360000349581242, 0.33600001595914364, 0.0, 0.0, 0.0, 0.0, 0.0, 1.710395681651386E9, 0.0, 2024-03-13 22:54:41.651
98.0, -889.3220301633701, -579.7387216812931, -578.3175596981309, -583.5590294860303, 0.6720000319182873, 0.7360000349581242, 0.33600001595914364, 0.0, 0.0, 0.0, 0.0, 0.0, 1.7103956816639328E9, 0.0, 2024-03-13 22:54:41.663
98.0, -892.0596369309351, -573.0630002603866, -580.0042545781471, -576.5392372692004, 0.6720000319182873, 0.7360000349581242, 0.33600001595914364, 0.0, 0.0, 0.0, 0.0, 0.0, 1.7103956816639328E9, 0.0, 2024-03-13 22:54:41.663
99.0, -888.7086865706369, -571.080853283871, -577.8650318034925, -572.406647818163, 0.6720000319182873, 0.7360000349581242, 0.33600001595914364, 0.0, 0.0, 0.0, 0.0, 0.0, 1.7103956816790576E9, 0.0, 2024-03-13 22:54:41.679
99.0, -885.6980671063066, -569.6148125012405, -564.4761899621226, -570.24872554373, 0.6720000319182873, 0.7360000349581242, 0.33600001595914364, 0.0, 0.0, 0.0, 0.0, 0.0, 1.7103956816790576E9, 0.0, 2024-03-13 22:54:41.679
100.0, -889.6960201589391, -574.5140814431943, -571.9185908739455, -576.8795681651682, 0.6720000319182873, 0.7360000349581242, 0.35200001671910286, 0.0, 0.0, 0.0, 0.0, 0.0, 1.7103956816797752E9, 0.0, 2024-03-13 22:54:41.679
100.0, -884.4676400208846, -565.2989679523744, -563.5075558735989, -568.3638159660622, 0.6720000319182873, 0.7360000349581242, 0.35200001671910286, 0.0, 0.0, 0.0, 0.0, 0.0, 1.7103956816797752E9, 0.0, 2024-03-13 22:54:41.679
0.0, -884.2395061235875, -572.2252626703121, -571.4941122289747, -581.4777751606889, 0.6720000319182873, 0.7360000349581242, 0.35200001671910286, 0.0, 0.0, 0.0, 0.0, 0.0, 1.710395681694054E9, 0.0, 2024-03-13 22:54:41.694
1.0, -883.4466473329812, -578.8448855918832, -574.6281483918428, -583.8451318326406, 0.6720000319182873, 0.7200000341981649, 0.35200001671910286, 0.0, 0.0, 0.0, 0.0, 0.0, 1.7103956816947904E9, 0.0, 2024-03-13 22:54:41.694
1.0, -886.6741809947416, -573.8857782506384, -584.6959590725601, -580.6250779707916, 0.6720000319182873, 0.7200000341981649, 0.35200001671910286, 0.0, 0.0, 0.0, 0.0, 0.0, 1.7103956816947904E9, 0.0, 2024-03-13 22:54:41.694
2.0, -891.0124649433419, -580.535320371855, -586.7790833478794, -588.146016781684, 0.6720000319182873, 0.7200000341981649, 0.35200001671910286, 0.0, 0.0, 0.0, 0.0, 0.0, 1.7103956817083533E9, 0.0, 2024-03-13 22:54:41.708
2.0, -892.9983518198133, -583.9648086312227, -575.409787482582, -587.5625923885964, 0.6720000319182873, 0.7200000341981649, 0.35200001671910286, 0.0, 0.0, 0.0, 0.0, 0.0, 1.7103956817083533E9, 0.0, 2024-03-13 22:54:41.708
3.0, -886.9771128911525, -573.010641661007, -572.612342315726, -580.9392295670696, 0.6720000319182873, 0.7200000341981649, 0.35200001671910286, 0.0, 0.0, 0.0, 0.0, 0.0, 1.7103956817241063E9, 0.0, 2024-03-13 22:54:41.724
3.0, -881.6140963546932, -565.7178367474116, -560.5436851587147, -566.6827309359796, 0.6720000319182873, 0.7200000341981649, 0.35200001671910286, 0.0, 0.0, 0.0, 0.0, 0.0, 1.7103956817241063E9, 0.0, 2024-03-13 22:54:41.724
4.0, -885.0323649141937, -570.9761360851116, -564.4817998120561, -570.2580752936192, 0.6720000319182873, 0.7200000341981649, 0.35200001671910286, 0.0, 0.0, 0.0, 0.0, 0.0, 1.7103956817249663E9, 0.0, 2024-03-13 22:54:41.724
4.0, -887.0780901899561, -576.1371980239637, -572.7731580138206, -579.1291179885156, 0.6720000319182873, 0.7200000341981649, 0.35200001671910286, 0.0, 0.0, 0.0, 0.0, 0.0, 1.7103956817249663E9, 0.0, 2024-03-13 22:54:41.724
5.0, -889.6735807592049, -571.3501260806806, -576.6663938676938, -574.8170133396052, 0.6720000319182873, 0.7200000341981649, 0.35200001671910286, 0.0, 0.0, 0.0, 0.0, 0.0, 1.710395681738368E9, 0.0, 2024-03-13 22:54:41.738
5.0, -877.8031382998452, -563.2345431768335, -561.1570287514478, -564.5809071608819, 0.6720000319182873, 0.7200000341981649, 0.35200001671910286, 0.0, 0.0, 0.0, 0.0, 0.0, 1.710395681738368E9, 0.0, 2024-03-13 22:54:41.738
6.0, -884.3965819217265, -573.2499952581711, -562.2303800387308, -568.9565901090391, 0.6720000319182873, 0.7200000341981649, 0.35200001671910286, 0.0, 0.0, 0.0, 0.0, 0.0, 1.7103956817541566E9, 0.0, 2024-03-13 22:54:41.754
6.0, -899.3113029450178, -582.9625154430978, -586.506070651114, -583.3252857387997, 0.6720000319182873, 0.7200000341981649, 0.35200001671910286, 0.0, 0.0, 0.0, 0.0, 0.0, 1.7103956817541566E9, 0.0, 2024-03-13 22:54:41.754
7.0, -903.2494175983593, -584.4023769260384, -587.1717728432268, -589.8364515616558, 0.6720000319182873, 0.7200000341981649, 0.35200001671910286, 0.0, 0.0, 0.0, 0.0, 0.0, 1.7103956817547739E9, 0.0, 2024-03-13 22:54:41.754
7.0, -906.2488173628226, -588.9052164726891, -579.258144536987, -593.1687024221756, 0.6720000319182873, 0.7200000341981649, 0.35200001671910286, 0.0, 0.0, 0.0, 0.0, 0.0, 1.7103956817547739E9, 0.0, 2024-03-13 22:54:41.754
8.0, -905.5157969715074, -590.1132041583769, -585.2719036657363, -588.4227693784051, 0.6720000319182873, 0.7200000341981649, 0.35200001671910286, 0.0, 0.0, 0.0, 0.0, 0.0, 1.7103956817689428E9, 0.0, 2024-03-13 22:54:41.768
8.0, -901.5814222181216, -580.5390602718107, -572.1710341209546, -577.520961007569, 0.6720000319182873, 0.7200000341981649, 0.35200001671910286, 0.0, 0.0, 0.0, 0.0, 0.0, 1.7103956817689428E9, 0.0, 2024-03-13 22:54:41.768
9.0, -903.1895791990682, -583.8787909322418, -569.5680637517944, -584.8623846205883, 0.6720000319182873, 0.7200000341981649, 0.35200001671910286, 0.0, 0.0, 0.0, 0.0, 0.0, 1.710395681784432E9, 0.0, 2024-03-13 22:54:41.784
9.0, -898.2342117577791, -588.3891102788039, -574.7964438898489, -586.216228404548, 0.6720000319182873, 0.7200000341981649, 0.35200001671910286, 0.0, 0.0, 0.0, 0.0, 0.0, 1.710395681784432E9, 0.0, 2024-03-13 22:54:41.784
10.0, -895.8032767865807, -580.9541891668923, -574.0260244989768, -575.0114881373011, 0.6720000319182873, 0.7200000341981649, 0.35200001671910286, 0.0, 0.0, 0.0, 0.0, 0.0, 1.710395681784949E9, 0.0, 2024-03-13 22:54:41.784
10.0, -891.4462933382019, -570.8714188863523, -562.106963340193, -572.5506339664571, 0.6720000319182873, 0.7200000341981649, 0.35200001671910286, 0.0, 0.0, 0.0, 0.0, 0.0, 1.710395681784949E9, 0.0, 2024-03-13 22:54:41.784
11.0, -897.5572898657992, -586.7285946984775, -574.8413226893172, -584.8810841203667, 0.6720000319182873, 0.7200000341981649, 0.35200001671910286, 0.0, 0.0, 0.0, 0.0, 0.0, 1.7103956817987025E9, 0.0, 2024-03-13 22:54:41.798
11.0, -891.7529651345685, -578.8374057919718, -574.2803376959637, -576.025001025293, 0.6720000319182873, 0.7200000341981649, 0.35200001671910286, 0.0, 0.0, 0.0, 0.0, 0.0, 1.7103956817987025E9, 0.0, 2024-03-13 22:54:41.798
12.0, -896.3343425802886, -580.5465400717221, -573.902607800439, -581.1337043647654, 0.6720000319182873, 0.7200000341981649, 0.35200001671910286, 0.0, 0.0, 0.0, 0.0, 0.0, 1.7103956818142278E9, 0.0, 2024-03-13 22:54:41.814
12.0, -896.6597138764337, -586.1489102053456, -571.3370364308357, -587.7196681867354, 0.6720000319182873, 0.7200000341981649, 0.35200001671910286, 0.0, 0.0, 0.0, 0.0, 0.0, 1.7103956818142278E9, 0.0, 2024-03-13 22:54:41.814
13.0, -906.0618223650381, -587.9627616838552, -587.9347124341875, -591.740060639102, 0.6720000319182873, 0.7200000341981649, 0.35200001671910286, 0.0, 0.0, 0.0, 0.0, 0.0, 1.7103956818151236E9, 0.0, 2024-03-13 22:54:41.815
13.0, -893.544377213344, -576.9150972147472, -577.7995835542679, -582.1546970526688, 0.6720000319182873, 0.7200000341981649, 0.35200001671910286, 0.0, 0.0, 0.0, 0.0, 0.0, 1.7103956818151236E9, 0.0, 2024-03-13 22:54:41.815
14.0, -905.459698472172, -588.7406608746387, -585.4514188636094, -590.3375981557183, 0.6720000319182873, 0.7200000341981649, 0.35200001671910286, 0.0, 0.0, 0.0, 0.0, 0.0, 1.7103956818283808E9, 0.0, 2024-03-13 22:54:41.828
14.0, -905.9683248661458, -592.6226770286448, -586.9959975453094, -586.8258320973255, 0.6720000319182873, 0.7200000341981649, 0.35200001671910286, 0.0, 0.0, 0.0, 0.0, 0.0, 1.7103956818283808E9, 0.0, 2024-03-13 22:54:41.828
15.0, -902.239644610323, -581.5151741602458, -571.7521653259173, -574.794573939871, 0.6720000319182873, 0.7200000341981649, 0.35200001671910286, 0.0, 0.0, 0.0, 0.0, 0.0, 1.7103956818440735E9, 0.0, 2024-03-13 22:54:41.844
15.0, -897.6096484651789, -581.2085023638792, -560.1397759635001, -571.466062979307, 0.6720000319182873, 0.7200000341981649, 0.35200001671910286, 0.0, 0.0, 0.0, 0.0, 0.0, 1.7103956818440735E9, 0.0, 2024-03-13 22:54:41.844
16.0, -900.0405834363773, -583.8675712323748, -563.8497567195445, -577.038513913285, 0.6720000319182873, 0.7200000341981649, 0.35200001671910286, 0.0, 0.0, 0.0, 0.0, 0.0, 1.7103956818448253E9, 0.0, 2024-03-13 22:54:41.844
16.0, -893.2975438162684, -569.7831079992466, -560.6521422574297, -566.424677839037, 0.6720000319182873, 0.7200000341981649, 0.35200001671910286, 0.0, 0.0, 0.0, 0.0, 0.0, 1.7103956818448253E9, 0.0, 2024-03-13 22:54:41.844
17.0, -891.2069397410378, -573.2836543577723, -558.778452379629, -569.5474943020381, 0.6720000319182873, 0.7200000341981649, 0.35200001671910286, 0.0, 0.0, 0.0, 0.0, 0.0, 1.710395681858396E9, 0.0, 2024-03-13 22:54:41.858
17.0, -892.9721725201234, -574.3719652448781, -562.2565593384206, -571.3950048801489, 0.6720000319182873, 0.7200000341981649, 0.35200001671910286, 0.0, 0.0, 0.0, 0.0, 0.0, 1.710395681858396E9, 0.0, 2024-03-13 22:54:41.858
18.0, -892.0596369309351, -573.9418767499737, -576.580376168713, -579.3086331863888, 0.6720000319182873, 0.7200000341981649, 0.35200001671910286, 0.0, 0.0, 0.0, 0.0, 0.0, 1.7103956818740516E9, 0.0, 2024-03-13 22:54:41.874
18.0, -898.5109643545002, -585.3635312146507, -590.3058090060949, -586.6014380999841, 0.6720000319182873, 0.7200000341981649, 0.35200001671910286, 0.0, 0.0, 0.0, 0.0, 0.0, 1.7103956818740516E9, 0.0, 2024-03-13 22:54:41.874
19.0, -895.5564433895051, -577.9323500026949, -572.5487640164793, -583.2542276396416, 0.6720000319182873, 0.7200000341981649, 0.35200001671910286, 0.0, 0.0, 0.0, 0.0, 0.0, 1.7103956818747876E9, 0.0, 2024-03-13 22:54:41.874
19.0, -894.075443007052, -576.6009456184693, -582.8708878941834, -584.9521422195248, 0.6720000319182873, 0.7200000341981649, 0.35200001671910286, 0.0, 0.0, 0.0, 0.0, 0.0, 1.7103956818747876E9, 0.0, 2024-03-13 22:54:41.874
20.0, -891.0835230425, -567.8944585216232, -573.5809764042497, -571.0584138841368, 0.6720000319182873, 0.7200000341981649, 0.35200001671910286, 0.0, 0.0, 0.0, 0.0, 0.0, 1.7103956818883824E9, 0.0, 2024-03-13 22:54:41.888
20.0, -891.9212606325746, -570.5460475902073, -563.4009687248617, -566.147925242316, 0.6720000319182873, 0.7200000341981649, 0.35200001671910286, 0.0, 0.0, 0.0, 0.0, 0.0, 1.7103956818883824E9, 0.0, 2024-03-13 22:54:41.888
21.0, -892.7402987228706, -573.384631656576, -566.4826462883502, -568.4180445154198, 0.6720000319182873, 0.7200000341981649, 0.35200001671910286, 0.0, 0.0, 0.0, 0.0, 0.0, 1.7103956819040992E9, 0.0, 2024-03-13 22:54:41.904
21.0, -898.0659162597731, -575.9090641266666, -579.4114804351702, -572.3561591687612, 0.6720000319182873, 0.7200000341981649, 0.35200001671910286, 0.0, 0.0, 0.0, 0.0, 0.0, 1.7103956819040992E9, 0.0, 2024-03-13 22:54:41.904
22.0, -891.0162048432976, -570.0336812962778, -566.8790756836534, -568.8556128102355, 0.6720000319182873, 0.7200000341981649, 0.35200001671910286, 0.0, 0.0, 0.0, 0.0, 0.0, 1.7103956819049506E9, 0.0, 2024-03-13 22:54:41.904
22.0, -893.6902333116159, -573.444470055867, -563.0381984291598, -572.8012072634883, 0.6720000319182873, 0.7200000341981649, 0.35200001671910286, 0.0, 0.0, 0.0, 0.0, 0.0, 1.7103956819049506E9, 0.0, 2024-03-13 22:54:41.904
23.0, -891.6706873355433, -572.0831464719959, -572.1523346211761, -571.9447701736353, 0.6720000319182873, 0.7200000341981649, 0.35200001671910286, 0.0, 0.0, 0.0, 0.0, 0.0, 1.7103956819183736E9, 0.0, 2024-03-13 22:54:41.918
23.0, -887.8672090806067, -566.9894027323462, -570.8658090364188, -569.0313881081529, 0.6720000319182873, 0.7200000341981649, 0.35200001671910286, 0.0, 0.0, 0.0, 0.0, 0.0, 1.7103956819183736E9, 0.0, 2024-03-13 22:54:41.918
24.0, -891.4799524378031, -572.1953434706666, -569.8074173489586, -571.2379290820099, 0.6720000319182873, 0.7200000341981649, 0.35200001671910286, 0.0, 0.0, 0.0, 0.0, 0.0, 1.7103956819343755E9, 0.0, 2024-03-13 22:54:41.934
24.0, -887.2912644874305, -565.3176674521528, -569.3399298544973, -568.5227617141791, 0.6720000319182873, 0.7200000341981649, 0.35200001671910286, 0.0, 0.0, 0.0, 0.0, 0.0, 1.7103956819343755E9, 0.0, 2024-03-13 22:54:41.934
25.0, -874.9682941334322, -551.083608220797, -552.1625693580136, -551.5884947148152, 0.6720000319182873, 0.7200000341981649, 0.35200001671910286, 0.0, 0.0, 0.0, 0.0, 0.0, 1.710395681934919E9, 0.0, 2024-03-13 22:54:41.934
25.0, -887.007032090798, -559.9509110157378, -564.6912342095748, -566.4658167385496, 0.6720000319182873, 0.7200000341981649, 0.35200001671910286, 0.0, 0.0, 0.0, 0.0, 0.0, 1.710395681934919E9, 0.0, 2024-03-13 22:54:41.934
26.0, -889.1649543652311, -571.5483407783322, -571.5202915286645, -576.1259783240966, 0.6720000319182873, 0.7200000341981649, 0.35200001671910286, 0.0, 0.0, 0.0, 0.0, 0.0, 1.7103956819486263E9, 0.0, 2024-03-13 22:54:41.948
26.0, -883.2259932355955, -561.4468709980138, -567.4064015774056, -564.3826924632303, 0.6720000319182873, 0.7200000341981649, 0.35200001671910286, 0.0, 0.0, 0.0, 0.0, 0.0, 1.7103956819486263E9, 0.0, 2024-03-13 22:54:41.948
27.0, -886.4198677977547, -570.718082988169, -573.4014612063766, -574.6337582417764, 0.6720000319182873, 0.7200000341981649, 0.35200001671910286, 0.0, 0.0, 0.0, 0.0, 0.0, 1.7103956819643273E9, 0.0, 2024-03-13 22:54:41.964
27.0, -889.587563060224, -576.8552588154562, -570.9780060350895, -582.2294950517826, 0.6720000319182873, 0.7200000341981649, 0.35200001671910286, 0.0, 0.0, 0.0, 0.0, 0.0, 1.7103956819643273E9, 0.0, 2024-03-13 22:54:41.964
28.0, -898.8325957506895, -577.629418106284, -584.153673578985, -581.9527424550615, 0.6720000319182873, 0.7200000341981649, 0.35200001671910286, 0.0, 0.0, 0.0, 0.0, 0.0, 1.710395681964963E9, 0.0, 2024-03-13 22:54:41.964
28.0, -888.1626611771062, -567.389572027605, -575.0731964865699, -569.1398452068679, 0.6720000319182873, 0.7200000341981649, 0.35200001671910286, 0.0, 0.0, 0.0, 0.0, 0.0, 1.710395681964963E9, 0.0, 2024-03-13 22:54:41.964
29.0, -889.0602371664718, -566.0319883436896, -559.6573288692161, -565.0334350555204, 0.6720000319182873, 0.7200000341981649, 0.35200001671910286, 0.0, 0.0, 0.0, 0.0, 0.0, 1.7103956819784396E9, 0.0, 2024-03-13 22:54:41.978
29.0, -892.8749351212755, -567.4606301267631, -574.807663589716, -571.9073711740784, 0.6720000319182873, 0.7200000341981649, 0.35200001671910286, 0.0, 0.0, 0.0, 0.0, 0.0, 1.7103956819784396E9, 0.0, 2024-03-13 22:54:41.978
30.0, -886.524584996514, -561.3870325987227, -573.5323577048257, -565.9085716451518, 0.6720000319182873, 0.7200000341981649, 0.35200001671910286, 0.0, 0.0, 0.0, 0.0, 0.0, 1.7103956819942114E9, 0.0, 2024-03-13 22:54:41.994
30.0, -884.1048697251827, -560.407178810332, -560.6446624575183, -561.6413457957096, 0.6720000319182873, 0.7200000341981649, 0.35200001671910286, 0.0, 0.0, 0.0, 0.0, 0.0, 1.7103956819942114E9, 0.0, 2024-03-13 22:54:41.994
31.0, -886.7751582935452, -563.3878790750168, -561.4337813481688, -561.9816766916774, 0.6720000319182873, 0.7200000341981649, 0.35200001671910286, 0.0, 0.0, 0.0, 0.0, 0.0, 1.7103956819947577E9, 0.0, 2024-03-13 22:54:41.994
31.0, -889.1574745653197, -565.8973519452848, -581.4534658109769, -568.9528502090834, 0.6720000319182873, 0.7200000341981649, 0.35200001671910286, 0.0, 0.0, 0.0, 0.0, 0.0, 1.7103956819947577E9, 0.0, 2024-03-13 22:54:41.994
32.0, -887.6016761837527, -566.050687843468, -567.4886793764308, -564.809041058179, 0.6720000319182873, 0.7200000341981649, 0.35200001671910286, 0.0, 0.0, 0.0, 0.0, 0.0, 1.7103956820083625E9, 0.0, 2024-03-13 22:54:42.008
32.0, -894.3634153036401, -577.4349433085881, -557.2039544982836, -568.7471557115205, 0.6720000319182873, 0.7200000341981649, 0.35200001671910286, 0.0, 0.0, 0.0, 0.0, 0.0, 1.7103956820083625E9, 0.0, 2024-03-13 22:54:42.008
33.0, -894.7561047989875, -578.4521960965358, -568.6779675623402, -569.0912265074439, 0.6720000319182873, 0.7200000341981649, 0.35200001671910286, 0.0, 0.0, 0.0, 0.0, 0.0, 1.7103956820241468E9, 0.0, 2024-03-13 22:54:42.024
33.0, -900.5679093301296, -577.4573827083223, -577.2423384608701, -582.573565847706, 0.6720000319182873, 0.7200000341981649, 0.35200001671910286, 0.0, 0.0, 0.0, 0.0, 0.0, 1.7103956820241468E9, 0.0, 2024-03-13 22:54:42.024
34.0, -901.2784903217107, -580.6437774705701, -569.3324500545859, -582.2930733510293, 0.6720000319182873, 0.7200000341981649, 0.35200001671910286, 0.0, 0.0, 0.0, 0.0, 0.0, 1.7103956820247543E9, 0.0, 2024-03-13 22:54:42.024
34.0, -909.9513183189556, -583.6917959344573, -575.7650779783726, -590.5956512526609, 0.6720000319182873, 0.7200000341981649, 0.35200001671910286, 0.0, 0.0, 0.0, 0.0, 0.0, 1.7103956820247543E9, 0.0, 2024-03-13 22:54:42.024
35.0, -910.2654699152336, -585.0979983177967, -586.6594065492973, -590.4273557546549, 0.6720000319182873, 0.7200000341981649, 0.35200001671910286, 0.0, 0.0, 0.0, 0.0, 0.0, 1.7103956820383525E9, 0.0, 2024-03-13 22:54:42.038
35.0, -898.5633229538798, -583.2467478397302, -578.2296720491722, -587.2372210924514, 0.6720000319182873, 0.7200000341981649, 0.35200001671910286, 0.0, 0.0, 0.0, 0.0, 0.0, 1.7103956820383525E9, 0.0, 2024-03-13 22:54:42.038
36.0, -901.0952352238819, -584.1405839291401, -581.7563977073878, -584.757667421829, 0.6720000319182873, 0.7200000341981649, 0.35200001671910286, 0.0, 0.0, 0.0, 0.0, 0.0, 1.7103956820543296E9, 0.0, 2024-03-13 22:54:42.054
36.0, -899.5768358418718, -581.7133888578974, -584.684739372693, -582.4763284488581, 0.6720000319182873, 0.7200000341981649, 0.35200001671910286, 0.0, 0.0, 0.0, 0.0, 0.0, 1.7103956820543296E9, 0.0, 2024-03-13 22:54:42.054
37.0, -901.7310182163492, -576.4326501204632, -576.4793988699093, -581.2533811633475, 0.6720000319182873, 0.7200000341981649, 0.35200001671910286, 0.0, 0.0, 0.0, 0.0, 0.0, 1.710395682054852E9, 0.0, 2024-03-13 22:54:42.054
37.0, -893.2040463173762, -574.4766824436374, -577.7322653550655, -583.9423692314886, 0.6720000319182873, 0.7200000341981649, 0.35200001671910286, 0.0, 0.0, 0.0, 0.0, 0.0, 1.710395682054852E9, 0.0, 2024-03-13 22:54:42.054
38.0, -904.6294406820089, -585.9731349074282, -597.2657628236338, -595.4724807948805, 0.6720000319182873, 0.7200000341981649, 0.35200001671910286, 0.0, 0.0, 0.0, 0.0, 0.0, 1.7103956820683537E9, 0.0, 2024-03-13 22:54:42.068
38.0, -902.0040309131145, -584.7314881221391, -590.0440160091966, -594.9451549011283, 0.6720000319182873, 0.7200000341981649, 0.35200001671910286, 0.0, 0.0, 0.0, 0.0, 0.0, 1.7103956820683537E9, 0.0, 2024-03-13 22:54:42.068
39.0, -902.9165665023029, -586.2723269038834, -578.775697442703, -588.4265092783608, 0.6720000319182873, 0.7200000341981649, 0.35200001671910286, 0.0, 0.0, 0.0, 0.0, 0.0, 1.7103956820843687E9, 0.0, 2024-03-13 22:54:42.084
39.0, -899.935866237618, -576.4812688198872, -580.294096824713, -582.9886947427876, 0.6720000319182873, 0.7200000341981649, 0.35200001671910286, 0.0, 0.0, 0.0, 0.0, 0.0, 1.7103956820843687E9, 0.0, 2024-03-13 22:54:42.084
40.0, -887.7512721819803, -569.9401837973855, -573.4014612063766, -568.7733350112103, 0.6720000319182873, 0.7200000341981649, 0.35200001671910286, 0.0, 0.0, 0.0, 0.0, 0.0, 1.7103956820847654E9, 0.0, 2024-03-13 22:54:42.084
40.0, -892.5233845254406, -580.8793911677785, -564.4668402122334, -573.7848009518348, 0.6720000319182873, 0.7200000341981649, 0.35200001671910286, 0.0, 0.0, 0.0, 0.0, 0.0, 1.7103956820847654E9, 0.0, 2024-03-13 22:54:42.084
41.0, -915.2956353556365, -595.0386524000205, -580.3614150239155, -591.3511110437103, 0.6720000319182873, 0.7200000341981649, 0.35200001671910286, 0.0, 0.0, 0.0, 0.0, 0.0, 1.71039568209884E9, 0.0, 2024-03-13 22:54:42.098
41.0, -905.7551505686715, -589.701815163251, -583.8058628831059, -591.0556589472108, 0.6720000319182873, 0.7200000341981649, 0.35200001671910286, 0.0, 0.0, 0.0, 0.0, 0.0, 1.71039568209884E9, 0.0, 2024-03-13 22:54:42.098
42.0, -909.4127727253363, -595.8876096899621, -591.9177058869973, -598.7336735562421, 0.6720000319182873, 0.7200000341981649, 0.35200001671910286, 0.0, 0.0, 0.0, 0.0, 0.0, 1.7103956821141174E9, 0.0, 2024-03-13 22:54:42.114
42.0, -910.5571821117774, -599.302138349507, -581.4422461111099, -597.1479559750296, 0.6720000319182873, 0.7200000341981649, 0.35200001671910286, 0.0, 0.0, 0.0, 0.0, 0.0, 1.7103956821141174E9, 0.0, 2024-03-13 22:54:42.114
43.0, -908.0963279409334, -591.5530656413175, -583.5328501863405, -584.1144046294503, 0.6720000319182873, 0.7200000341981649, 0.35200001671910286, 0.0, 0.0, 0.0, 0.0, 0.0, 1.7103956821148827E9, 0.0, 2024-03-13 22:54:42.114
43.0, -905.7514106687158, -586.205008704681, -580.6718267202377, -583.2430079397745, 0.6720000319182873, 0.7200000341981649, 0.35200001671910286, 0.0, 0.0, 0.0, 0.0, 0.0, 1.7103956821148827E9, 0.0, 2024-03-13 22:54:42.114
44.0, -902.9988443013281, -584.1144046294503, -582.5754357976839, -584.1031849295832, 0.6720000319182873, 0.7200000341981649, 0.35200001671910286, 0.0, 0.0, 0.0, 0.0, 0.0, 1.710395682128363E9, 0.0, 2024-03-13 22:54:42.128
44.0, -898.4249466555193, -579.7349817813374, -576.363461971283, -579.0468401894905, 0.6720000319182873, 0.7200000341981649, 0.35200001671910286, 0.0, 0.0, 0.0, 0.0, 0.0, 1.710395682128363E9, 0.0, 2024-03-13 22:54:42.128
45.0, -873.54713215027, -554.2064246837981, -553.3855166435242, -553.4173057931475, 0.6720000319182873, 0.7200000341981649, 0.35200001671910286, 0.0, 0.0, 0.0, 0.0, 0.0, 1.7103956821439984E9, 0.0, 2024-03-13 22:54:42.143
45.0, -892.0783364307135, -574.7983138398267, -572.4141276180744, -575.1536043356173, 0.6720000319182873, 0.7200000341981649, 0.35200001671910286, 0.0, 0.0, 0.0, 0.0, 0.0, 1.7103956821439984E9, 0.0, 2024-03-13 22:54:42.143
46.0, -899.3113029450178, -583.4711418370716, -577.9865785520524, -583.4150433377363, 0.6720000319182873, 0.7200000341981649, 0.35200001671910286, 0.0, 0.0, 0.0, 0.0, 0.0, 1.71039568215903E9, 0.0, 2024-03-13 22:54:42.159
46.0, -899.5207373425364, -579.8546585799195, -581.1206147149205, -578.052026801277, 0.6720000319182873, 0.7200000341981649, 0.35200001671910286, 0.0, 0.0, 0.0, 0.0, 0.0, 1.71039568215903E9, 0.0, 2024-03-13 22:54:42.159
47.0, -900.6614068290219, -580.4530425728299, -577.6013688566163, -580.2548278751783, 0.6720000319182873, 0.7200000341981649, 0.35200001671910286, 0.0, 0.0, 0.0, 0.0, 0.0, 1.7103956821597528E9, 0.0, 2024-03-13 22:54:42.159
47.0, -896.607355277054, -583.0260937423445, -572.3206301191822, -579.2226154874079, 0.6720000319182873, 0.7200000341981649, 0.35200001671910286, 0.0, 0.0, 0.0, 0.0, 0.0, 1.7103956821597528E9, 0.0, 2024-03-13 22:54:42.159
48.0, -892.2316723288968, -576.3915112209506, -584.2322114780545, -582.6034850473516, 0.6720000319182873, 0.7200000341981649, 0.35200001671910286, 0.0, 0.0, 0.0, 0.0, 0.0, 1.710395682174108E9, 0.0, 2024-03-13 22:54:42.174
48.0, -888.4169743740931, -571.0621537840925, -582.7848701952025, -578.2053626994602, 0.6720000319182873, 0.7200000341981649, 0.35200001671910286, 0.0, 0.0, 0.0, 0.0, 0.0, 1.710395682174108E9, 0.0, 2024-03-13 22:54:42.174
49.0, -885.9187212036923, -570.8377597867511, -571.8868017243221, -573.5342276548035, 0.6720000319182873, 0.7200000341981649, 0.35200001671910286, 0.0, 0.0, 0.0, 0.0, 0.0, 1.710395682174816E9, 0.0, 2024-03-13 22:54:42.174
49.0, -899.6778131406754, -585.3523115147837, -584.1349740792066, -584.275220327545, 0.6720000319182873, 0.7200000341981649, 0.35200001671910286, 0.0, 0.0, 0.0, 0.0, 0.0, 1.710395682174816E9, 0.0, 2024-03-13 22:54:42.174
50.0, -902.3630613088608, -587.3681175909005, -585.9413457578048, -581.5899721593596, 0.6720000319182873, 0.7200000341981649, 0.35200001671910286, 0.0, 0.0, 0.0, 0.0, 0.0, 1.7103956821883197E9, 0.0, 2024-03-13 22:54:42.188
50.0, -900.3696946324781, -586.9529886958189, -572.2645316198468, -581.6647701584734, 0.6720000319182873, 0.7200000341981649, 0.35200001671910286, 0.0, 0.0, 0.0, 0.0, 0.0, 1.7103956821883197E9, 0.0, 2024-03-13 22:54:42.188
51.0, -903.2120185988024, -589.8663707613014, -576.3784215711057, -586.2685870039277, 0.6720000319182873, 0.7360000349581242, 0.35200001671910286, 0.0, 0.0, 0.0, 0.0, 0.0, 1.71039568220438E9, 0.0, 2024-03-13 22:54:42.204
51.0, -891.2106796409935, -574.9105108384974, -578.9327732408419, -581.1187447649427, 0.6720000319182873, 0.7360000349581242, 0.35200001671910286, 0.0, 0.0, 0.0, 0.0, 0.0, 1.71039568220438E9, 0.0, 2024-03-13 22:54:42.204
52.0, -895.4629458906129, -578.4821152961813, -580.3950741235167, -584.1443238290958, 0.6720000319182873, 0.7360000349581242, 0.35200001671910286, 0.0, 0.0, 0.0, 0.0, 0.0, 1.710395682204805E9, 0.0, 2024-03-13 22:54:42.204
52.0, -904.6331805819646, -589.8962899609469, -580.7017459198833, -587.4803145895712, 0.6720000319182873, 0.7360000349581242, 0.35200001671910286, 0.0, 0.0, 0.0, 0.0, 0.0, 1.710395682204805E9, 0.0, 2024-03-13 22:54:42.204
53.0, -910.8488943083212, -590.8275250499137, -594.3187216585502, -591.9981137360446, 0.6720000319182873, 0.7360000349581242, 0.35200001671910286, 0.0, 0.0, 0.0, 0.0, 0.0, 1.710395682218448E9, 0.0, 2024-03-13 22:54:42.218
53.0, -894.7112259995192, -578.968302290421, -576.6065554684028, -573.0966593599878, 0.6720000319182873, 0.7360000349581242, 0.35200001671910286, 0.0, 0.0, 0.0, 0.0, 0.0, 1.710395682218448E9, 0.0, 2024-03-13 22:54:42.218
54.0, -894.3671552035958, -581.2795604630373, -571.3183369310573, -580.7372749694623, 0.6720000319182873, 0.7360000349581242, 0.35200001671910286, 0.0, 0.0, 0.0, 0.0, 0.0, 1.7103956822343733E9, 0.0, 2024-03-13 22:54:42.234
54.0, -910.2617300152779, -598.9954665531404, -593.5632618675008, -595.165808998514, 0.6720000319182873, 0.7360000349581242, 0.35200001671910286, 0.0, 0.0, 0.0, 0.0, 0.0, 1.7103956822343733E9, 0.0, 2024-03-13 22:54:42.234
55.0, -902.6248543057591, -588.1198374819942, -591.5549355912954, -588.1983753810637, 0.6720000319182873, 0.7360000349581242, 0.35200001671910286, 0.0, 0.0, 0.0, 0.0, 0.0, 1.7103956822348423E9, 0.0, 2024-03-13 22:54:42.234
55.0, -896.7345118755475, -586.2012688047253, -577.8856012532488, -577.2292488110252, 0.6720000319182873, 0.7360000349581242, 0.35200001671910286, 0.0, 0.0, 0.0, 0.0, 0.0, 1.7103956822348423E9, 0.0, 2024-03-13 22:54:42.234
56.0, -891.7978439340368, -582.5660860477947, -574.9310802882537, -574.4953819434159, 0.6720000319182873, 0.7360000349581242, 0.35200001671910286, 0.0, 0.0, 0.0, 0.0, 0.0, 1.7103956822486892E9, 0.0, 2024-03-13 22:54:42.248
56.0, -895.1338346945122, -578.9533426905982, -587.8225154355168, -578.979521990288, 0.6720000319182873, 0.7360000349581242, 0.35200001671910286, 0.0, 0.0, 0.0, 0.0, 0.0, 1.7103956822486892E9, 0.0, 2024-03-13 22:54:42.248
57.0, -896.8392290743068, -580.6736966702156, -583.4879713868722, -583.0373134422116, 0.6720000319182873, 0.7360000349581242, 0.35200001671910286, 0.0, 0.0, 0.0, 0.0, 0.0, 1.7103956822644434E9, 0.0, 2024-03-13 22:54:42.264
57.0, -896.6110951770097, -584.6791295227595, -580.6269479207695, -586.6762360990979, 0.6720000319182873, 0.7360000349581242, 0.35200001671910286, 0.0, 0.0, 0.0, 0.0, 0.0, 1.7103956822644434E9, 0.0, 2024-03-13 22:54:42.264
58.0, -895.8369358861819, -580.8756512678228, -581.9508725050837, -585.4719883133657, 0.6720000319182873, 0.7360000349581242, 0.35200001671910286, 0.0, 0.0, 0.0, 0.0, 0.0, 1.7103956822650812E9, 0.0, 2024-03-13 22:54:42.265
58.0, -890.8254699455574, -575.7931272280402, -571.4342738296837, -574.9927886375226, 0.6720000319182873, 0.7360000349581242, 0.35200001671910286, 0.0, 0.0, 0.0, 0.0, 0.0, 1.7103956822650812E9, 0.0, 2024-03-13 22:54:42.265
59.0, -904.9548119781539, -586.7211148985662, -571.6549279270694, -586.0217536068521, 0.6720000319182873, 0.7360000349581242, 0.35200001671910286, 0.0, 0.0, 0.0, 0.0, 0.0, 1.7103956822784748E9, 0.0, 2024-03-13 22:54:42.278
59.0, -914.1138269696385, -591.5418459414504, -589.3820537170395, -598.5653780582361, 0.6720000319182873, 0.7360000349581242, 0.35200001671910286, 0.0, 0.0, 0.0, 0.0, 0.0, 1.7103956822784748E9, 0.0, 2024-03-13 22:54:42.278
60.0, -905.291402974166, -589.0772518706508, -577.0478636631742, -582.3603915502317, 0.6720000319182873, 0.7360000349581242, 0.35200001671910286, 0.0, 0.0, 0.0, 0.0, 0.0, 1.7103956822940977E9, 0.0, 2024-03-13 22:54:42.294
60.0, -906.473211360164, -594.5412457059138, -576.8496489655226, -585.68516261084, 0.6720000319182873, 0.7360000349581242, 0.35200001671910286, 0.0, 0.0, 0.0, 0.0, 0.0, 1.7103956822940977E9, 0.0, 2024-03-13 22:54:42.294
61.0, -909.5997677231207, -597.8323576669209, -586.0872018560767, -596.2840390852652, 0.6720000319182873, 0.7360000349581242, 0.35200001671910286, 0.0, 0.0, 0.0, 0.0, 0.0, 1.7103956822948031E9, 0.0, 2024-03-13 22:54:42.294
61.0, -902.5350967068225, -588.1235773819499, -591.8616073876619, -590.3824769551866, 0.6720000319182873, 0.7360000349581242, 0.35200001671910286, 0.0, 0.0, 0.0, 0.0, 0.0, 1.7103956822948031E9, 0.0, 2024-03-13 22:54:42.294
62.0, -893.4583595143631, -582.4426693492569, -590.4965439038351, -584.8249856210314, 0.6720000319182873, 0.7360000349581242, 0.35200001671910286, 0.0, 0.0, 0.0, 0.0, 0.0, 1.7103956823083441E9, 0.0, 2024-03-13 22:54:42.308
62.0, -900.152780435048, -584.9783215192147, -588.0917882323265, -591.0294796475209, 0.6720000319182873, 0.7360000349581242, 0.35200001671910286, 0.0, 0.0, 0.0, 0.0, 0.0, 1.7103956823083441E9, 0.0, 2024-03-13 22:54:42.308
63.0, -900.683846228756, -584.3088794271462, -592.1084407847375, -588.0599990827031, 0.6720000319182873, 0.7360000349581242, 0.35200001671910286, 0.0, 0.0, 0.0, 0.0, 0.0, 1.710395682324123E9, 0.0, 2024-03-13 22:54:42.324
63.0, -886.2814914993942, -562.1873711892404, -578.2782907485962, -573.010641661007, 0.6720000319182873, 0.7360000349581242, 0.35200001671910286, 0.0, 0.0, 0.0, 0.0, 0.0, 1.710395682324123E9, 0.0, 2024-03-13 22:54:42.324
64.0, -892.4149274267256, -574.9329502382316, -579.9949048282579, -581.2309417636134, 0.6720000319182873, 0.7360000349581242, 0.35200001671910286, 0.0, 0.0, 0.0, 0.0, 0.0, 1.7103956823248153E9, 0.0, 2024-03-13 22:54:42.324
64.0, -905.1605064757168, -592.8096720264293, -592.4001529812813, -591.317451944109, 0.6720000319182873, 0.7360000349581242, 0.35200001671910286, 0.0, 0.0, 0.0, 0.0, 0.0, 1.7103956823248153E9, 0.0, 2024-03-13 22:54:42.324
65.0, -898.8176361508667, -586.5378598007374, -584.5725423740223, -582.4688486489467, 0.6720000319182873, 0.7360000349581242, 0.35200001671910286, 0.0, 0.0, 0.0, 0.0, 0.0, 1.71039568233842E9, 0.0, 2024-03-13 22:54:42.338
65.0, -898.3090097568929, -587.132503893692, -579.6022153329104, -581.2047624639235, 0.6720000319182873, 0.7360000349581242, 0.35200001671910286, 0.0, 0.0, 0.0, 0.0, 0.0, 1.71039568233842E9, 0.0, 2024-03-13 22:54:42.338
66.0, -896.2558046812192, -583.3178059388883, -581.1131349150091, -581.6161514590494, 0.6720000319182873, 0.7360000349581242, 0.35200001671910286, 0.0, 0.0, 0.0, 0.0, 0.0, 1.710395682354417E9, 0.0, 2024-03-13 22:54:42.354
66.0, -895.3993675913662, -580.2660475750454, -579.2357051372528, -579.3834311855026, 0.6720000319182873, 0.7360000349581242, 0.35200001671910286, 0.0, 0.0, 0.0, 0.0, 0.0, 1.710395682354417E9, 0.0, 2024-03-13 22:54:42.354
67.0, -886.199213700369, -575.6360514299013, -559.8555435668677, -567.5204685260542, 0.6720000319182873, 0.7360000349581242, 0.35200001671910286, 0.0, 0.0, 0.0, 0.0, 0.0, 1.7103956823549747E9, 0.0, 2024-03-13 22:54:42.354
67.0, -889.5688635604456, -578.8935042913072, -566.1909340918064, -577.9173904028721, 0.6720000319182873, 0.7360000349581242, 0.35200001671910286, 0.0, 0.0, 0.0, 0.0, 0.0, 1.7103956823549747E9, 0.0, 2024-03-13 22:54:42.354
68.0, -902.0264703128487, -588.725701274816, -584.2995296772569, -583.8675712323748, 0.6720000319182873, 0.7360000349581242, 0.35200001671910286, 0.0, 0.0, 0.0, 0.0, 0.0, 1.7103956823685894E9, 0.0, 2024-03-13 22:54:42.368
68.0, -895.9902717843652, -580.8345123683102, -574.7366054905578, -577.2255089110695, 0.6720000319182873, 0.7360000349581242, 0.35200001671910286, 0.0, 0.0, 0.0, 0.0, 0.0, 1.7103956823685894E9, 0.0, 2024-03-13 22:54:42.368
69.0, -892.6542810238898, -586.5602992004715, -568.4049548655748, -579.6153049827553, 0.6720000319182873, 0.7360000349581242, 0.35200001671910286, 0.0, 0.0, 0.0, 0.0, 0.0, 1.7103956823843455E9, 0.0, 2024-03-13 22:54:42.384
69.0, -899.7974899392575, -586.4443623018451, -575.3574288832024, -577.7790141045116, 0.6720000319182873, 0.7360000349581242, 0.35200001671910286, 0.0, 0.0, 0.0, 0.0, 0.0, 1.7103956823843455E9, 0.0, 2024-03-13 22:54:42.384
70.0, -901.8469551149756, -579.016920989845, -582.5829155975953, -580.5465400717221, 0.6720000319182873, 0.7360000349581242, 0.35200001671910286, 0.0, 0.0, 0.0, 0.0, 0.0, 1.7103956823850431E9, 0.0, 2024-03-13 22:54:42.385
