%OpenBCI Raw EXG Data
%Number of channels = 4
%Sample Rate = 200 Hz
%Board = OpenBCI_GUI$BoardGanglionBLE
Sample Index, EXG Channel 0, EXG Channel 1, EXG Channel 2, EXG Channel 3, Accel Channel 0, Accel Channel 1, Accel Channel 2, Other, Other, Other, Other, Other, Timestamp, Other, Timestamp (Formatted)
2.0, -15.28497111890465, -17.925340487621725, -20.356275458820164, -23.471612121909857, 0.6400000303983688, 0.0, 0.0, 0.0, 0.0, 0.0, 0.0, 0.0, 1.710395642687091E9, 0.0, 2024-03-13 22:54:02.687
2.0, -17.031504398211837, -18.84535587672144, -28.16518656630069, -21.171573649160564, 0.6400000303983688, 0.0, 0.0, 0.0, 0.0, 0.0, 0.0, 0.0, 1.710395642687091E9, 0.0, 2024-03-13 22:54:02.687
3.0, -12.356629453599453, -19.7878106655553, -19.38764137029648, -21.908333940431476, 0.6400000303983688, 0.0, 0.0, 0.0, 0.0, 0.0, 0.0, 0.0, 1.7103956427016573E9, 0.0, 2024-03-13 22:54:02.701
3.0, -9.24503269046545, -8.407295100390911, -21.822316241450608, -15.494405516423285, 0.6400000303983688, 0.0, 0.0, 0.0, 0.0, 0.0, 0.0, 0.0, 1.7103956427016573E9, 0.0, 2024-03-13 22:54:02.701
4.0, 4.861869942396879, 7.876229306682944, -5.2508195377886295, 3.145255862735212, 0.6400000303983688, 0.0, 0.0, 0.0, 0.0, 0.0, 0.0, 0.0, 1.7103956427030091E9, 0.0, 2024-03-13 22:54:02.703
4.0, 14.948380122892559, 10.187487479299307, 1.8175913784652948, 0.6694420920684934, 0.6400000303983688, 0.0, 0.0, 0.0, 0.0, 0.0, 0.0, 0.0, 1.7103956427030091E9, 0.0, 2024-03-13 22:54:02.703
5.0, 11.780684860423207, 8.732666396535933, 5.729526732116938, 7.461100411601365, 0.6400000303983688, 0.0, 0.0, 0.0, 0.0, 0.0, 0.0, 0.0, 1.7103956427164505E9, 0.0, 2024-03-13 22:54:02.716
5.0, 11.773205060511827, 20.677906855009496, 8.676567897200584, 19.447479769587517, 0.6400000303983688, 0.0, 0.0, 0.0, 0.0, 0.0, 0.0, 0.0, 1.7103956427164505E9, 0.0, 2024-03-13 22:54:02.716
6.0, 13.456160040572286, 11.533851463347673, 4.173728350549936, 7.5471181105822325, 0.6400000303983688, 0.0, 0.0, 0.0, 0.0, 0.0, 0.0, 0.0, 1.7103956427319236E9, 0.0, 2024-03-13 22:54:02.731
6.0, 15.086756421253085, 3.8333974545821548, -3.010619464330375, 2.8161446666345, 0.6400000303983688, 0.0, 0.0, 0.0, 0.0, 0.0, 0.0, 0.0, 1.7103956427319236E9, 0.0, 2024-03-13 22:54:02.731
7.0, -10.969126570038497, -6.892635618336499, -13.325263542123139, -2.333697572350502, 0.6400000303983688, 0.0, 0.0, 0.0, 0.0, 0.0, 0.0, 0.0, 1.710395642732345E9, 0.0, 2024-03-13 22:54:02.732
7.0, -0.160815698094666, -0.9499345887452364, -5.864163130521774, 0.09723739884793758, 0.6400000303983688, 0.0, 0.0, 0.0, 0.0, 0.0, 0.0, 0.0, 1.710395642732345E9, 0.0, 2024-03-13 22:54:02.732
8.0, 2.329957672394812, 0.1645555980503559, -3.7212004559114575, -3.1602154625579715, 0.6400000303983688, 0.0, 0.0, 0.0, 0.0, 0.0, 0.0, 0.0, 1.7103956427460284E9, 0.0, 2024-03-13 22:54:02.746
8.0, -1.5183993820101023, -0.4338283948600292, -14.89228162355721, -5.478953435085714, 0.6400000303983688, 0.0, 0.0, 0.0, 0.0, 0.0, 0.0, 0.0, 1.7103956427460284E9, 0.0, 2024-03-13 22:54:02.746
9.0, 0.13837629836052656, 4.334544048644602, -2.973220464773476, 2.3972758715972304, 0.6400000303983688, 0.0, 0.0, 0.0, 0.0, 0.0, 0.0, 0.0, 1.7103956427616434E9, 0.0, 2024-03-13 22:54:02.761
9.0, 17.042724098078907, 13.897468235343695, 17.510211592540145, 12.682000749744475, 0.6400000303983688, 0.0, 0.0, 0.0, 0.0, 0.0, 0.0, 0.0, 1.7103956427616434E9, 0.0, 2024-03-13 22:54:02.761
10.0, 17.25215849559754, 11.055144269019365, 12.715659849345684, 13.336483241990209, 0.6400000303983688, 0.0, 0.3840000182390213, 0.0, 0.0, 0.0, 0.0, 0.0, 1.7103956427624123E9, 0.0, 2024-03-13 22:54:02.762
10.0, 1.4772604824975133, 9.24129279050976, -7.528418610803783, 6.4176683239638805, 0.6400000303983688, 0.0, 0.3840000182390213, 0.0, 0.0, 0.0, 0.0, 0.0, 1.7103956427624123E9, 0.0, 2024-03-13 22:54:02.762
11.0, 1.690434779971838, 4.966587141156197, 1.529619081877172, 4.229826849885285, 0.6400000303983688, 0.7520000357180834, 0.3840000182390213, 0.0, 0.0, 0.0, 0.0, 0.0, 1.7103956427760112E9, 0.0, 2024-03-13 22:54:02.776
11.0, 14.1181223327294, 10.714813373051584, 5.867903030477464, 5.680908032692969, 0.6400000303983688, 0.7520000357180834, 0.3840000182390213, 0.0, 0.0, 0.0, 0.0, 0.0, 1.7103956427760112E9, 0.0, 2024-03-13 22:54:02.776
12.0, 10.87188917119056, 13.583316639065742, 7.113289715722203, 13.721692937426269, 0.6400000303983688, 0.7520000357180834, 0.3840000182390213, 0.0, 0.0, 0.0, 0.0, 0.0, 1.7103956427916384E9, 0.0, 2024-03-13 22:54:02.791
12.0, -3.455667559057474, 2.976960364729166, -2.41597537137568, 2.9582608649507165, 0.6400000303983688, 0.7520000357180834, 0.3840000182390213, 0.0, 0.0, 0.0, 0.0, 0.0, 1.7103956427916384E9, 0.0, 2024-03-13 22:54:02.791
13.0, 21.033197350800037, 17.046463998034596, 20.59562905598432, 18.362908782437444, 0.6400000303983688, 0.7520000357180834, 0.3840000182390213, 0.0, 0.0, 0.0, 0.0, 0.0, 1.7103956427923236E9, 0.0, 2024-03-13 22:54:02.792
13.0, 9.23007309064269, 17.626148491166532, -4.772112343460321, 10.797091172076762, 0.6400000303983688, 0.7520000357180834, 0.3840000182390213, 0.0, 0.0, 0.0, 0.0, 0.0, 1.7103956427923236E9, 0.0, 2024-03-13 22:54:02.792
14.0, 17.057683697901666, 27.260130777023733, 7.670534809119999, 20.756444754078984, 0.6400000303983688, 0.7520000357180834, 0.3840000182390213, 0.0, 0.0, 0.0, 0.0, 0.0, 1.7103956428062675E9, 0.0, 2024-03-13 22:54:02.806
14.0, 32.94851860962808, 34.70627158880234, 13.209326643496752, 21.635321243666112, 0.6400000303983688, 0.7520000357180834, 0.3840000182390213, 0.0, 0.0, 0.0, 0.0, 0.0, 1.7103956428062675E9, 0.0, 2024-03-13 22:54:02.806
15.0, 27.237691377289593, 27.660300072282553, -1.3987225834280252, 15.786117712967098, 0.6400000303983688, 0.7520000357180834, 0.3840000182390213, 0.0, 0.0, 0.0, 0.0, 0.0, 1.7103956428218937E9, 0.0, 2024-03-13 22:54:02.821
15.0, 12.150934956036508, 26.680446283891797, 3.6090034572407603, 17.988918786868453, 0.6400000303983688, 0.7520000357180834, 0.3840000182390213, 0.0, 0.0, 0.0, 0.0, 0.0, 1.7103956428218937E9, 0.0, 2024-03-13 22:54:02.821
16.0, 12.293051154352725, 20.8985609523952, 12.034998057410121, 24.48138510994613, 0.6400000303983688, 0.7520000357180834, 0.3840000182390213, 0.0, 0.0, 0.0, 0.0, 0.0, 1.710395642822363E9, 0.0, 2024-03-13 22:54:02.822
16.0, -0.24309349711984396, 4.02413235232234, 1.0546517875045538, 6.600923421792686, 0.6400000303983688, 0.7520000357180834, 0.3840000182390213, 0.0, 0.0, 0.0, 0.0, 0.0, 1.710395642822363E9, 0.0, 2024-03-13 22:54:02.822
17.0, 17.080123097635806, 27.892173869535327, 9.65268178563565, 26.441092686727643, 0.6400000303983688, 0.7520000357180834, 0.3840000182390213, 0.0, 0.0, 0.0, 0.0, 0.0, 1.7103956428364625E9, 0.0, 2024-03-13 22:54:02.836
17.0, 25.076029202900827, 31.280523229390383, 12.09109655674547, 30.259530541487038, 0.6400000303983688, 0.7520000357180834, 0.3840000182390213, 0.0, 0.0, 0.0, 0.0, 0.0, 1.7103956428364625E9, 0.0, 2024-03-13 22:54:02.836
18.0, 31.291742929257452, 31.699392024427652, 17.562570191919804, 24.21585221309215, 0.6400000303983688, 0.7520000357180834, 0.3840000182390213, 0.0, 0.0, 0.0, 0.0, 0.0, 1.7103956428523629E9, 0.0, 2024-03-13 22:54:02.852
18.0, 20.023424362763762, 28.59527506120503, 6.657021921128035, 22.835829129442573, 0.6400000303983688, 0.7520000357180834, 0.3840000182390213, 0.0, 0.0, 0.0, 0.0, 0.0, 1.7103956428523629E9, 0.0, 2024-03-13 22:54:02.852
19.0, 21.32116964738816, 36.95395146217197, 18.13851478509605, 33.258930305950344, 0.6400000303983688, 0.7520000357180834, 0.3840000182390213, 0.0, 0.0, 0.0, 0.0, 0.0, 1.7103956428525045E9, 0.0, 2024-03-13 22:54:02.852
19.0, 12.89143514726311, 28.92064635735005, 27.02451707981527, 31.680692524649203, 0.6400000303983688, 0.7520000357180834, 0.3840000182390213, 0.0, 0.0, 0.0, 0.0, 0.0, 1.7103956428525045E9, 0.0, 2024-03-13 22:54:02.852
20.0, 14.982039222493768, 18.92015387583524, 8.930881094187498, 22.48053863365203, 0.6400000303983688, 0.7520000357180834, 0.3840000182390213, 0.0, 0.0, 0.0, 0.0, 0.0, 1.7103956428662632E9, 0.0, 2024-03-13 22:54:02.866
20.0, 25.629534396342933, 39.620500130578876, 29.717245047912, 40.95564441476017, 0.6400000303983688, 0.7520000357180834, 0.3840000182390213, 0.0, 0.0, 0.0, 0.0, 0.0, 1.7103956428662632E9, 0.0, 2024-03-13 22:54:02.866
21.0, 18.396567882038653, 24.705779107287526, 20.281477459706366, 21.826056141406298, 0.6400000303983688, 0.7520000357180834, 0.3840000182390213, 0.0, 0.0, 0.0, 0.0, 0.0, 1.71039564288214E9, 0.0, 2024-03-13 22:54:02.882
21.0, 9.476906487718225, 10.389442076906562, 6.189534426666796, 11.574990362860262, 0.6400000303983688, 0.7520000357180834, 0.3840000182390213, 0.0, 0.0, 0.0, 0.0, 0.0, 1.71039564288214E9, 0.0, 2024-03-13 22:54:02.882
22.0, 11.477752964012325, 23.022824127227068, 2.543131969869137, 19.189426672644913, 0.6400000303983688, 0.7520000357180834, 0.3840000182390213, 0.0, 0.0, 0.0, 0.0, 0.0, 1.710395642896625E9, 0.0, 2024-03-13 22:54:02.896
22.0, 33.26641010586172, 41.04914191365242, 29.949118845164776, 40.54051551967859, 0.6400000303983688, 0.7520000357180834, 0.3840000182390213, 0.0, 0.0, 0.0, 0.0, 0.0, 1.710395642896625E9, 0.0, 2024-03-13 22:54:02.896
23.0, 30.18099264241755, 32.413712915964425, 25.00871100369841, 31.44507882744074, 0.6400000303983688, 0.7520000357180834, 0.3840000182390213, 0.0, 0.0, 0.0, 0.0, 0.0, 1.7103956428973503E9, 0.0, 2024-03-13 22:54:02.897
23.0, 21.79987684171647, 21.833535941317677, -1.8961292775347829, 16.765971501357853, 0.6400000303983688, 0.7520000357180834, 0.3840000182390213, 0.0, 0.0, 0.0, 0.0, 0.0, 1.7103956428973503E9, 0.0, 2024-03-13 22:54:02.897
24.0, 9.944393982179463, 17.67102729063481, -6.933774517849088, 9.806017683818936, 0.6400000303983688, 0.7520000357180834, 0.3840000182390213, 0.0, 0.0, 0.0, 0.0, 0.0, 1.710395642911631E9, 0.0, 2024-03-13 22:54:02.911
24.0, 16.50043860450387, 14.604309326969087, 4.076490951701999, 7.790211607702076, 0.6400000303983688, 0.7520000357180834, 0.3840000182390213, 0.0, 0.0, 0.0, 0.0, 0.0, 1.710395642911631E9, 0.0, 2024-03-13 22:54:02.911
25.0, 19.73545206617564, 19.2679645717144, -4.861869942396879, 10.007972281426191, 0.6400000303983688, 0.7520000357180834, 0.3840000182390213, 0.0, 0.0, 0.0, 0.0, 0.0, 1.710395642912358E9, 0.0, 2024-03-13 22:54:02.912
25.0, 15.333589818328619, 17.27833779528737, -8.635428997687995, 8.964540193788707, 0.6400000303983688, 0.7520000357180834, 0.3840000182390213, 0.0, 0.0, 0.0, 0.0, 0.0, 1.710395642912358E9, 0.0, 2024-03-13 22:54:02.912
26.0, 12.270611754618585, 16.758491701446474, 9.918214682489634, 13.119569044560194, 0.6400000303983688, 0.7520000357180834, 0.3840000182390213, 0.0, 0.0, 0.0, 0.0, 0.0, 1.7103956429260745E9, 0.0, 2024-03-13 22:54:02.926
26.0, 18.93137357570231, 18.254451683722436, 20.315136559307575, 21.160353949293494, 0.6400000303983688, 0.7520000357180834, 0.3840000182390213, 0.0, 0.0, 0.0, 0.0, 0.0, 1.7103956429260745E9, 0.0, 2024-03-13 22:54:02.926
27.0, 12.663301249966025, 16.391981505788863, 3.332250860519707, 15.614082315005362, 0.6400000303983688, 0.7520000357180834, 0.3840000182390213, 0.0, 0.0, 0.0, 0.0, 0.0, 1.710395642941632E9, 0.0, 2024-03-13 22:54:02.941
27.0, 9.566664086654782, 15.509365116246045, 4.551458246074617, 14.641708326525986, 0.6400000303983688, 0.7520000357180834, 0.3840000182390213, 0.0, 0.0, 0.0, 0.0, 0.0, 1.710395642941632E9, 0.0, 2024-03-13 22:54:02.941
28.0, 16.762231601402164, 15.70010001398623, 16.50417850445956, 17.207279696129262, 0.6400000303983688, 0.7520000357180834, 0.3840000182390213, 0.0, 0.0, 0.0, 0.0, 0.0, 1.7103956429423928E9, 0.0, 2024-03-13 22:54:02.942
28.0, 18.54242398031056, 17.828103088773787, -3.739899955689907, 9.28243169002235, 0.6400000303983688, 0.7520000357180834, 0.3840000182390213, 0.0, 0.0, 0.0, 0.0, 0.0, 1.7103956429423928E9, 0.0, 2024-03-13 22:54:02.942
29.0, 29.590088449418545, 29.231058053672314, 5.202200838364661, 22.360861835069954, 0.6400000303983688, 0.7520000357180834, 0.3840000182390213, 0.0, 0.0, 0.0, 0.0, 0.0, 1.710395642956205E9, 0.0, 2024-03-13 22:54:02.956
29.0, 15.946933411061764, 18.04875718615949, 17.783224289305508, 15.984332410618663, 0.6400000303983688, 0.7520000357180834, 0.3840000182390213, 0.0, 0.0, 0.0, 0.0, 0.0, 1.710395642956205E9, 0.0, 2024-03-13 22:54:02.956
30.0, 7.767772207967937, 11.870442459359765, 7.453620611689985, 15.26253171917051, 0.6400000303983688, 0.7520000357180834, 0.3840000182390213, 0.0, 0.0, 0.0, 0.0, 0.0, 1.7103956429717991E9, 0.0, 2024-03-13 22:54:02.971
30.0, 4.521539046429098, 11.171081167645752, -3.657622156664729, 9.016898793168366, 0.6400000303983688, 0.7520000357180834, 0.3840000182390213, 0.0, 0.0, 0.0, 0.0, 0.0, 1.7103956429717991E9, 0.0, 2024-03-13 22:54:02.971
31.0, 10.587656774558127, 19.25300497189164, 13.530958039686084, 16.11148900911212, 0.6400000303983688, 0.7360000349581242, 0.3840000182390213, 0.0, 0.0, 0.0, 0.0, 0.0, 1.7103956429724722E9, 0.0, 2024-03-13 22:54:02.972
31.0, 16.358322406187654, 20.490911857225, 17.087602897547185, 18.288110783323646, 0.6400000303983688, 0.7360000349581242, 0.3840000182390213, 0.0, 0.0, 0.0, 0.0, 0.0, 1.7103956429724722E9, 0.0, 2024-03-13 22:54:02.972
32.0, -5.419115035794675, 7.528418610803783, -17.543870692141354, -0.1570757981389761, 0.6400000303983688, 0.7360000349581242, 0.3840000182390213, 0.0, 0.0, 0.0, 0.0, 0.0, 1.71039564298643E9, 0.0, 2024-03-13 22:54:02.986
32.0, 7.397522112354636, 16.92304729949683, -4.917968441732228, 7.120769515633583, 0.6400000303983688, 0.7360000349581242, 0.3840000182390213, 0.0, 0.0, 0.0, 0.0, 0.0, 1.71039564298643E9, 0.0, 2024-03-13 22:54:02.986
33.0, 24.99749130383134, 18.9725124752149, 12.210773355327547, 9.783578284084797, 0.6400000303983688, 0.7360000349581242, 0.3840000182390213, 0.0, 0.0, 0.0, 0.0, 0.0, 1.7103956430016634E9, 0.0, 2024-03-13 22:54:03.001
33.0, 7.457360511645675, 15.744978813454509, -7.9098884062841535, 2.9545209649950266, 0.6400000303983688, 0.7360000349581242, 0.3840000182390213, 0.0, 0.0, 0.0, 0.0, 0.0, 1.7103956430016634E9, 0.0, 2024-03-13 22:54:03.001
34.0, 7.778991907835007, 22.56281643267721, 8.627949197776616, 16.14888800866902, 0.6400000303983688, 0.7360000349581242, 0.3840000182390213, 0.0, 0.0, 0.0, 0.0, 0.0, 1.710395643002298E9, 0.0, 2024-03-13 22:54:03.002
34.0, 15.980592510662973, 12.352889553643763, -0.9948133882135153, 7.25540591403842, 0.6400000303983688, 0.7360000349581242, 0.3840000182390213, 0.0, 0.0, 0.0, 0.0, 0.0, 1.710395643002298E9, 0.0, 2024-03-13 22:54:03.002
35.0, 12.121015756390989, 8.930881094187498, -9.061777592636645, -0.9050557892769575, 0.6400000303983688, 0.7360000349581242, 0.3840000182390213, 0.0, 0.0, 0.0, 0.0, 0.0, 1.7103956430160265E9, 0.0, 2024-03-13 22:54:03.016
35.0, 21.463285845704377, 30.199692142196, 7.980946505442262, 22.248664836399257, 0.6400000303983688, 0.7360000349581242, 0.3840000182390213, 0.0, 0.0, 0.0, 0.0, 0.0, 1.7103956430160265E9, 0.0, 2024-03-13 22:54:03.016
36.0, 25.831488993950188, 19.570896468125284, 9.390888788737357, 17.3419160945341, 0.6400000303983688, 0.7360000349581242, 0.3840000182390213, 0.0, 0.0, 0.0, 0.0, 0.0, 1.7103956430480103E9, 0.0, 2024-03-13 22:54:03.048
36.0, 35.40937278047204, 32.99339740909636, 18.695759878493845, 28.61771446093917, 0.6400000303983688, 0.7360000349581242, 0.3840000182390213, 0.0, 0.0, 0.0, 0.0, 0.0, 1.7103956430480103E9, 0.0, 2024-03-13 22:54:03.048
37.0, 41.58020770736039, 45.08823386579752, 32.024763320572674, 44.31407457496971, 0.6400000303983688, 0.7360000349581242, 0.3840000182390213, 0.0, 0.0, 0.0, 0.0, 0.0, 1.7103956430487175E9, 0.0, 2024-03-13 22:54:03.048
37.0, 35.10644088406116, 37.69071175344288, 23.269657524302602, 34.354720992967486, 0.6400000303983688, 0.7360000349581242, 0.3840000182390213, 0.0, 0.0, 0.0, 0.0, 0.0, 1.7103956430487175E9, 0.0, 2024-03-13 22:54:03.048
38.0, 40.821008016355336, 33.30006920546293, 24.473905310034752, 25.450019198469818, 0.6400000303983688, 0.7360000349581242, 0.3840000182390213, 0.0, 0.0, 0.0, 0.0, 0.0, 1.7103956430495117E9, 0.0, 2024-03-13 22:54:03.049
38.0, 15.105455921031535, 18.261931483633816, -6.892635618336499, 10.714813373051584, 0.6400000303983688, 0.7360000349581242, 0.3840000182390213, 0.0, 0.0, 0.0, 0.0, 0.0, 1.7103956430495117E9, 0.0, 2024-03-13 22:54:03.049
39.0, 23.587549020536244, 26.231658289209008, 1.4286417830735445, 21.216452448628843, 0.6400000303983688, 0.7360000349581242, 0.3840000182390213, 0.0, 0.0, 0.0, 0.0, 0.0, 1.710395643050291E9, 0.0, 2024-03-13 22:54:03.050
39.0, 18.733158878050745, 19.211866072379053, 13.886248535476625, 15.572943415492773, 0.6400000303983688, 0.7360000349581242, 0.3840000182390213, 0.0, 0.0, 0.0, 0.0, 0.0, 1.710395643050291E9, 0.0, 2024-03-13 22:54:03.050
40.0, 10.131388979963958, 13.018591745756567, -2.5244324700906873, 10.202447079122066, 0.6400000303983688, 0.7360000349581242, 0.3840000182390213, 0.0, 0.0, 0.0, 0.0, 0.0, 1.7103956430610368E9, 0.0, 2024-03-13 22:54:03.061
40.0, 12.05743745714426, 17.495251992717385, -1.0920507870614529, 7.595736810006201, 0.6400000303983688, 0.7360000349581242, 0.3840000182390213, 0.0, 0.0, 0.0, 0.0, 0.0, 1.7103956430610368E9, 0.0, 2024-03-13 22:54:03.061
41.0, 17.229719095863402, 20.48343205731362, 10.565217374823987, 11.036444769240916, 0.6400000303983688, 0.7360000349581242, 0.3840000182390213, 0.0, 0.0, 0.0, 0.0, 0.0, 1.7103956430760825E9, 0.0, 2024-03-13 22:54:03.076
41.0, 25.577175796963274, 21.485725245438516, 18.93137357570231, 14.563170427456498, 0.6400000303983688, 0.7360000349581242, 0.3840000182390213, 0.0, 0.0, 0.0, 0.0, 0.0, 1.7103956430760825E9, 0.0, 2024-03-13 22:54:03.076
42.0, 15.887095011770725, 20.737745254300535, 11.862962659448385, 13.785271236672997, 0.6400000303983688, 0.7360000349581242, 0.3840000182390213, 0.0, 0.0, 0.0, 0.0, 0.0, 1.7103956430917273E9, 0.0, 2024-03-13 22:54:03.091
42.0, 26.123201190494, 24.242031512781978, 15.210173119790852, 15.572943415492773, 0.6400000303983688, 0.7360000349581242, 0.3840000182390213, 0.0, 0.0, 0.0, 0.0, 0.0, 1.7103956430917273E9, 0.0, 2024-03-13 22:54:03.091
43.0, 15.804817212745547, 12.10605615656823, 10.254805678501725, 11.197260467335582, 0.6400000303983688, 0.7360000349581242, 0.3840000182390213, 0.0, 0.0, 0.0, 0.0, 0.0, 1.7103956430923705E9, 0.0, 2024-03-13 22:54:03.092
43.0, 9.69382068514824, 16.8594690002501, 12.637121950276196, 20.292697159573436, 0.6400000303983688, 0.7360000349581242, 0.3840000182390213, 0.0, 0.0, 0.0, 0.0, 0.0, 1.7103956430923705E9, 0.0, 2024-03-13 22:54:03.092
44.0, 21.126694849692285, 26.074582491070032, 24.91895340476185, 30.17725274246186, 0.6400000303983688, 0.7360000349581242, 0.3840000182390213, 0.0, 0.0, 0.0, 0.0, 0.0, 1.7103956431061883E9, 0.0, 2024-03-13 22:54:03.106
44.0, 28.023070367984474, 29.077722155489028, 30.22587144188583, 26.56076948530972, 0.6400000303983688, 0.7360000349581242, 0.3840000182390213, 0.0, 0.0, 0.0, 0.0, 0.0, 1.7103956431061883E9, 0.0, 2024-03-13 22:54:03.106
45.0, 12.274351654574275, 19.028610974550247, 10.348303177393973, 18.591042679734528, 0.6400000303983688, 0.7360000349581242, 0.3840000182390213, 0.0, 0.0, 0.0, 0.0, 0.0, 1.7103956431219933E9, 0.0, 2024-03-13 22:54:03.121
45.0, 17.581269691698253, 16.47799920476973, 9.200153890997171, 14.813743724487722, 0.6400000303983688, 0.7360000349581242, 0.3840000182390213, 0.0, 0.0, 0.0, 0.0, 0.0, 1.7103956431219933E9, 0.0, 2024-03-13 22:54:03.121
46.0, 34.11910729575902, 30.23335124179721, 38.18811844754964, 31.916306221857667, 0.6400000303983688, 0.7360000349581242, 0.3840000182390213, 0.0, 0.0, 0.0, 0.0, 0.0, 1.7103956431223729E9, 0.0, 2024-03-13 22:54:03.122
46.0, 18.56112348008901, 15.165294320322573, 12.670781049877405, 16.50417850445956, 0.6400000303983688, 0.7360000349581242, 0.3840000182390213, 0.0, 0.0, 0.0, 0.0, 0.0, 1.7103956431223729E9, 0.0, 2024-03-13 22:54:03.122
47.0, 3.178914962336421, 8.957060393877327, -10.939207370392978, 6.881415918469429, 0.6400000303983688, 0.7360000349581242, 0.3840000182390213, 0.0, 0.0, 0.0, 0.0, 0.0, 1.710395643136263E9, 0.0, 2024-03-13 22:54:03.136
47.0, -2.060684875585139, 7.539638310670853, -10.763432072475553, 2.457114270888269, 0.6400000303983688, 0.7360000349581242, 0.3840000182390213, 0.0, 0.0, 0.0, 0.0, 0.0, 1.710395643136263E9, 0.0, 2024-03-13 22:54:03.136
48.0, -0.6245632926002145, 3.7548595555126667, 1.727833779528737, 4.01665255241096, 0.6400000303983688, 0.7360000349581242, 0.3840000182390213, 0.0, 0.0, 0.0, 0.0, 0.0, 1.7103956431516938E9, 0.0, 2024-03-13 22:54:03.151
48.0, 15.453266616910696, 13.882508635520935, 0.34033089596778154, 9.570403986610472, 0.6400000303983688, 0.7360000349581242, 0.3840000182390213, 0.0, 0.0, 0.0, 0.0, 0.0, 1.7103956431516938E9, 0.0, 2024-03-13 22:54:03.151
49.0, 17.846802588552237, 20.247818360105157, 19.163247372955084, 21.72133894264698, 0.6400000303983688, 0.7360000349581242, 0.3840000182390213, 0.0, 0.0, 0.0, 0.0, 0.0, 1.7103956431526184E9, 0.0, 2024-03-13 22:54:03.152
49.0, 8.699007296934724, 9.791058083996177, 0.923755289055407, 7.887449006550014, 0.6400000303983688, 0.7360000349581242, 0.3840000182390213, 0.0, 0.0, 0.0, 0.0, 0.0, 1.7103956431526184E9, 0.0, 2024-03-13 22:54:03.152
50.0, 7.195567514747381, 11.167341267690063, -3.9343747533857822, 6.152135427109897, 0.6400000303983688, 0.7360000349581242, 0.3840000182390213, 0.0, 0.0, 0.0, 0.0, 0.0, 1.7103956431663237E9, 0.0, 2024-03-13 22:54:03.166
50.0, 9.966833381913602, 16.92678719945252, -5.63602923322469, 9.802277783863246, 0.6400000303983688, 0.7360000349581242, 0.3840000182390213, 0.0, 0.0, 0.0, 0.0, 0.0, 1.7103956431663237E9, 0.0, 2024-03-13 22:54:03.166
51.0, 21.631581343710423, 17.70468639023602, 14.551950727589428, 13.856329335831106, 0.6400000303983688, 0.7520000357180834, 0.3840000182390213, 0.0, 0.0, 0.0, 0.0, 0.0, 1.7103956431816297E9, 0.0, 2024-03-13 22:54:03.181
51.0, 25.169526701793075, 17.577529791742563, 13.201846843585372, 13.321523642167449, 0.6400000303983688, 0.7520000357180834, 0.3840000182390213, 0.0, 0.0, 0.0, 0.0, 0.0, 1.7103956431816297E9, 0.0, 2024-03-13 22:54:03.181
52.0, 20.1580607611686, 26.09328199084848, 6.125956127420068, 16.646294702775776, 0.6400000303983688, 0.7520000357180834, 0.3840000182390213, 0.0, 0.0, 0.0, 0.0, 0.0, 1.7103956431823585E9, 0.0, 2024-03-13 22:54:03.182
52.0, 12.797937648370862, 13.429980740882456, 6.477506723254919, 10.400661776773632, 0.6400000303983688, 0.7520000357180834, 0.3840000182390213, 0.0, 0.0, 0.0, 0.0, 0.0, 1.7103956431823585E9, 0.0, 2024-03-13 22:54:03.182
53.0, 14.600569427013397, 13.826410136185586, 9.806017683818936, 7.412481712177396, 0.6400000303983688, 0.7520000357180834, 0.3840000182390213, 0.0, 0.0, 0.0, 0.0, 0.0, 1.7103956431964035E9, 0.0, 2024-03-13 22:54:03.196
53.0, 13.149488244205713, 18.232012283988297, 12.405248153023422, 16.53783760406077, 0.6400000303983688, 0.7520000357180834, 0.3840000182390213, 0.0, 0.0, 0.0, 0.0, 0.0, 1.7103956431964035E9, 0.0, 2024-03-13 22:54:03.196
54.0, 25.71181219536811, 25.225625201128423, 4.5664178458973765, 20.797583653591573, 0.6400000303983688, 0.7520000357180834, 0.3840000182390213, 0.0, 0.0, 0.0, 0.0, 0.0, 1.7103956432116463E9, 0.0, 2024-03-13 22:54:03.211
54.0, 18.45640628132969, 20.18050016090274, 23.213559024967253, 16.178807208314538, 0.6400000303983688, 0.7520000357180834, 0.3840000182390213, 0.0, 0.0, 0.0, 0.0, 0.0, 1.7103956432116463E9, 0.0, 2024-03-13 22:54:03.211
55.0, 2.7189072677865624, 6.8215775191783905, -1.970927276648581, 2.176621774211526, 0.6400000303983688, 0.7520000357180834, 0.3840000182390213, 0.0, 0.0, 0.0, 0.0, 0.0, 1.7103956432123804E9, 0.0, 2024-03-13 22:54:03.212
55.0, 6.7430396201089025, 15.011958422139287, -5.22090033814311, 11.040184669196606, 0.6400000303983688, 0.7520000357180834, 0.3840000182390213, 0.0, 0.0, 0.0, 0.0, 0.0, 1.7103956432123804E9, 0.0, 2024-03-13 22:54:03.212
56.0, 17.34565599448979, 21.3436090471223, 12.031258157454431, 18.17591378465295, 0.6400000303983688, 0.7520000357180834, 0.3840000182390213, 0.0, 0.0, 0.0, 0.0, 0.0, 1.7103956432260487E9, 0.0, 2024-03-13 22:54:03.226
56.0, 22.92558672837913, 25.40140049904585, 21.639061143621802, 23.871781417168677, 0.6400000303983688, 0.7520000357180834, 0.3840000182390213, 0.0, 0.0, 0.0, 0.0, 0.0, 1.7103956432260487E9, 0.0, 2024-03-13 22:54:03.226
57.0, 15.737499013543129, 23.056483226828277, 14.993258922360837, 22.90688722860068, 0.6400000303983688, 0.7520000357180834, 0.3840000182390213, 0.0, 0.0, 0.0, 0.0, 0.0, 1.7103956432416766E9, 0.0, 2024-03-13 22:54:03.241
57.0, 17.68972679041326, 26.89362058136612, 23.617468220181763, 27.043216579593718, 0.6400000303983688, 0.7520000357180834, 0.3840000182390213, 0.0, 0.0, 0.0, 0.0, 0.0, 1.7103956432416766E9, 0.0, 2024-03-13 22:54:03.241
58.0, 17.74582528974861, 23.262177724391222, 13.744132337160408, 16.84450940042734, 0.6400000303983688, 0.7520000357180834, 0.3840000182390213, 0.0, 0.0, 0.0, 0.0, 0.0, 1.7103956432424147E9, 0.0, 2024-03-13 22:54:03.242
58.0, 18.97625237517059, 28.703732159920037, 13.770311636850238, 24.260731012560427, 0.6400000303983688, 0.7520000357180834, 0.3840000182390213, 0.0, 0.0, 0.0, 0.0, 0.0, 1.7103956432424147E9, 0.0, 2024-03-13 22:54:03.242
59.0, 22.11776833795011, 31.02621003240347, 18.47884568106383, 26.471011886373162, 0.6400000303983688, 0.7520000357180834, 0.3840000182390213, 0.0, 0.0, 0.0, 0.0, 0.0, 1.7103956432560444E9, 0.0, 2024-03-13 22:54:03.256
59.0, 27.043216579593718, 26.11572139058262, 27.596721773035824, 22.042970338836312, 0.6400000303983688, 0.7520000357180834, 0.3840000182390213, 0.0, 0.0, 0.0, 0.0, 0.0, 1.7103956432560444E9, 0.0, 2024-03-13 22:54:03.256
60.0, 20.711565954610705, 25.580915696918964, 21.059376650489867, 18.635921479202807, 0.6400000303983688, 0.7520000357180834, 0.3840000182390213, 0.0, 0.0, 0.0, 0.0, 0.0, 1.7103956432719963E9, 0.0, 2024-03-13 22:54:03.271
60.0, 12.734359349124134, 26.011004191823304, 25.7529510948807, 23.093882226385176, 0.6400000303983688, 0.7520000357180834, 0.3840000182390213, 0.0, 0.0, 0.0, 0.0, 0.0, 1.7103956432719963E9, 0.0, 2024-03-13 22:54:03.271
61.0, 15.816036912612617, 18.344209282658994, 18.44518658146262, 14.151781432330608, 0.6400000303983688, 0.7360000349581242, 0.3840000182390213, 0.0, 0.0, 0.0, 0.0, 0.0, 1.7103956432724795E9, 0.0, 2024-03-13 22:54:03.272
61.0, 12.558584051206708, 12.663301249966025, 14.308857230469584, 8.930881094187498, 0.6400000303983688, 0.7360000349581242, 0.3840000182390213, 0.0, 0.0, 0.0, 0.0, 0.0, 1.7103956432724795E9, 0.0, 2024-03-13 22:54:03.272
62.0, 26.646787184290588, 32.08086181990802, 16.593936103396118, 16.193766808137298, 0.6400000303983688, 0.7360000349581242, 0.3840000182390213, 0.0, 0.0, 0.0, 0.0, 0.0, 1.7103956432860246E9, 0.0, 2024-03-13 22:54:03.286
62.0, -7.4237014120444655, 3.8782762540504336, -4.678614844568074, -3.8745363540947437, 0.6400000303983688, 0.7360000349581242, 0.3840000182390213, 0.0, 0.0, 0.0, 0.0, 0.0, 1.7103956432860246E9, 0.0, 2024-03-13 22:54:03.286
63.0, -6.870196218602359, -0.684401691891253, -1.813851478509605, -3.1228164630010724, 0.6400000303983688, 0.7360000349581242, 0.3840000182390213, 0.0, 0.0, 0.0, 0.0, 0.0, 1.7103956433017707E9, 0.0, 2024-03-13 22:54:03.301
63.0, 3.306071560829878, 2.172881874255836, -7.6331358095631, 1.9634474767372012, 0.6400000303983688, 0.7360000349581242, 0.3840000182390213, 0.0, 0.0, 0.0, 0.0, 0.0, 1.7103956433017707E9, 0.0, 2024-03-13 22:54:03.301
64.0, 1.8811696777120233, 7.958507105708122, -1.5034397821873426, 2.7862254669889808, 0.6400000303983688, 0.7360000349581242, 0.3840000182390213, 0.0, 0.0, 0.0, 0.0, 0.0, 1.7103956433023903E9, 0.0, 2024-03-13 22:54:03.302
64.0, 10.404401676729321, 15.969372810795903, -0.34407079592347145, 0.6096036927774549, 0.6400000303983688, 0.7360000349581242, 0.3840000182390213, 0.0, 0.0, 0.0, 0.0, 0.0, 1.7103956433023903E9, 0.0, 2024-03-13 22:54:03.302
65.0, 6.249372825957835, 11.380515565164387, -6.84027701895684, -0.9162754891440272, 0.6400000303983688, 0.7360000349581242, 0.3840000182390213, 0.0, 0.0, 0.0, 0.0, 0.0, 1.7103956433160317E9, 0.0, 2024-03-13 22:54:03.316
65.0, 12.955013446509838, 17.910380887798965, -0.4861869942396879, 4.682354744523764, 0.6400000303983688, 0.7360000349581242, 0.3840000182390213, 0.0, 0.0, 0.0, 0.0, 0.0, 1.7103956433160317E9, 0.0, 2024-03-13 22:54:03.316
66.0, 12.438907252624631, 15.445786816999316, 15.70010001398623, 9.570403986610472, 0.6400000303983688, 0.7360000349581242, 0.3840000182390213, 0.0, 0.0, 0.0, 0.0, 0.0, 1.7103956433316145E9, 0.0, 2024-03-13 22:54:03.331
66.0, 1.0696113873273134, 5.864163130521774, 12.794197748415172, 2.1541823744773865, 0.6400000303983688, 0.7360000349581242, 0.3840000182390213, 0.0, 0.0, 0.0, 0.0, 0.0, 1.7103956433316145E9, 0.0, 2024-03-13 22:54:03.331
67.0, -11.26831856649369, -5.852943430654705, -9.050557892769575, -6.253112725913525, 0.6400000303983688, 0.7360000349581242, 0.3840000182390213, 0.0, 0.0, 0.0, 0.0, 0.0, 1.710395643332332E9, 0.0, 2024-03-13 22:54:03.332
67.0, -13.631935338489711, -10.501639075577259, -15.240092319436371, -11.604909562505782, 0.6400000303983688, 0.7360000349581242, 0.3840000182390213, 0.0, 0.0, 0.0, 0.0, 0.0, 1.710395643332332E9, 0.0, 2024-03-13 22:54:03.332
68.0, -18.16843398474157, -16.713612901978195, -19.29788377135992, -21.3062100475654, 0.6400000303983688, 0.7360000349581242, 0.3840000182390213, 0.0, 0.0, 0.0, 0.0, 0.0, 1.7103956433460174E9, 0.0, 2024-03-13 22:54:03.346
68.0, -4.992766440846026, -5.355536736547947, -24.634721008129418, -18.194613284431398, 0.6400000303983688, 0.7360000349581242, 0.3840000182390213, 0.0, 0.0, 0.0, 0.0, 0.0, 1.7103956433460174E9, 0.0, 2024-03-13 22:54:03.346
69.0, 12.390288553200662, 16.14140820875764, 4.951627541333437, 8.194120802916586, 0.6400000303983688, 0.7360000349581242, 0.3840000182390213, 0.0, 0.0, 0.0, 0.0, 0.0, 1.710395643361614E9, 0.0, 2024-03-13 22:54:03.361
69.0, 2.045725275762379, 7.509719111025333, 5.381716036237776, 5.920261629857123, 0.6400000303983688, 0.7360000349581242, 0.3840000182390213, 0.0, 0.0, 0.0, 0.0, 0.0, 1.710395643361614E9, 0.0, 2024-03-13 22:54:03.361
70.0, -3.702500956133008, 5.699607532471418, 1.1182300867512822, 2.2402000734582543, 0.6400000303983688, 0.7360000349581242, 0.3840000182390213, 0.0, 0.0, 0.0, 0.0, 0.0, 1.7103956433623607E9, 0.0, 2024-03-13 22:54:03.362
70.0, 4.2036475501954556, 11.982639458030462, 0.3665101956576109, 13.441200440749526, 0.6400000303983688, 0.7360000349581242, 0.3840000182390213, 0.0, 0.0, 0.0, 0.0, 0.0, 1.7103956433623607E9, 0.0, 2024-03-13 22:54:03.362
71.0, -2.4421546710655093, 6.167095026932657, -1.1406694864854217, 0.14585609827190638, 0.6400000303983688, 0.7360000349581242, 0.3840000182390213, 0.0, 0.0, 0.0, 0.0, 0.0, 1.7103956433761392E9, 0.0, 2024-03-13 22:54:03.376
71.0, 14.765125025063753, 19.133328173309565, 9.955613682046533, 12.251912254840136, 0.6400000303983688, 0.7360000349581242, 0.3840000182390213, 0.0, 0.0, 0.0, 0.0, 0.0, 1.7103956433761392E9, 0.0, 2024-03-13 22:54:03.376
72.0, 26.93101958092302, 34.66139278933406, 15.247572119347751, 25.958645592443645, 0.6400000303983688, 0.7360000349581242, 0.3840000182390213, 0.0, 0.0, 0.0, 0.0, 0.0, 1.710395643391624E9, 0.0, 2024-03-13 22:54:03.391
72.0, 20.59188915602863, 21.175313549116254, 12.315490554086864, 13.860069235786796, 0.6400000303983688, 0.7360000349581242, 0.3840000182390213, 0.0, 0.0, 0.0, 0.0, 0.0, 1.710395643391624E9, 0.0, 2024-03-13 22:54:03.391
73.0, -8.138022303581238, -2.8011850668117404, -19.900007664225996, -13.501038840040565, 0.6400000303983688, 0.7360000349581242, 0.3840000182390213, 0.0, 0.0, 0.0, 0.0, 0.0, 1.710395643392356E9, 0.0, 2024-03-13 22:54:03.392
73.0, -11.608649462461472, -2.5057329703122377, -21.010757951065898, -9.039338192902505, 0.6400000303983688, 0.7360000349581242, 0.3840000182390213, 0.0, 0.0, 0.0, 0.0, 0.0, 1.710395643392356E9, 0.0, 2024-03-13 22:54:03.392
74.0, -2.9545209649950266, -3.0816775634884834, -7.289065013639629, -2.5543516697362065, 0.6400000303983688, 0.7360000349581242, 0.3840000182390213, 0.0, 0.0, 0.0, 0.0, 0.0, 1.7103956434062312E9, 0.0, 2024-03-13 22:54:03.406
74.0, -1.2154674855992198, 5.119923039339483, 8.190380902960896, 6.092297027818859, 0.6400000303983688, 0.7360000349581242, 0.3840000182390213, 0.0, 0.0, 0.0, 0.0, 0.0, 1.7103956434062312E9, 0.0, 2024-03-13 22:54:03.406
75.0, -6.5822239220142365, -5.280738737434149, -12.90639474708587, -5.740746431984007, 0.6400000303983688, 0.7360000349581242, 0.3840000182390213, 0.0, 0.0, 0.0, 0.0, 0.0, 1.710395643421631E9, 0.0, 2024-03-13 22:54:03.421
75.0, -6.952474017627537, 2.539392069913447, -4.3682031482458115, -0.022439399734139442, 0.6400000303983688, 0.7360000349581242, 0.3840000182390213, 0.0, 0.0, 0.0, 0.0, 0.0, 1.710395643421631E9, 0.0, 2024-03-13 22:54:03.421
76.0, -12.554844151251018, -9.353489789180458, -7.528418610803783, -8.42973450012505, 0.6400000303983688, 0.7360000349581242, 0.3840000182390213, 0.0, 0.0, 0.0, 0.0, 0.0, 1.710395643422691E9, 0.0, 2024-03-13 22:54:03.422
76.0, -7.973466705530882, -2.0270257759839296, 2.8385840663686395, -2.531912270002067, 0.6400000303983688, 0.7360000349581242, 0.3840000182390213, 0.0, 0.0, 0.0, 0.0, 0.0, 1.710395643422691E9, 0.0, 2024-03-13 22:54:03.422
77.0, 1.2566063851118088, 11.3019776660949, -4.02787225227803, 3.8932358538731933, 0.6400000303983688, 0.7360000349581242, 0.3840000182390213, 0.0, 0.0, 0.0, 0.0, 0.0, 1.7103956434362907E9, 0.0, 2024-03-13 22:54:03.436
77.0, 3.1190765630453825, 9.697560585103929, 9.966833381913602, 7.543378210626543, 0.6400000303983688, 0.7360000349581242, 0.3840000182390213, 0.0, 0.0, 0.0, 0.0, 0.0, 1.7103956434362907E9, 0.0, 2024-03-13 22:54:03.436
78.0, -0.4338283948600292, 3.0741977635771036, 7.371342812664807, 3.0480184638872743, 0.6400000303983688, 0.7360000349581242, 0.3840000182390213, 0.0, 0.0, 0.0, 0.0, 0.0, 1.7103956434521728E9, 0.0, 2024-03-13 22:54:03.452
78.0, -2.172881874255836, 3.062978063710034, -11.444093864411116, -3.9268949534744024, 0.6400000303983688, 0.7360000349581242, 0.3840000182390213, 0.0, 0.0, 0.0, 0.0, 0.0, 1.7103956434521728E9, 0.0, 2024-03-13 22:54:03.452
79.0, 2.864763366058469, 10.924247770570219, 1.3089649844914675, 11.67970756161958, 0.6400000303983688, 0.7360000349581242, 0.3840000182390213, 0.0, 0.0, 0.0, 0.0, 0.0, 1.710395643452499E9, 0.0, 2024-03-13 22:54:03.452
79.0, 6.133435927331448, 10.45676027610898, 7.820130807347596, 6.133435927331448, 0.6400000303983688, 0.7360000349581242, 0.3840000182390213, 0.0, 0.0, 0.0, 0.0, 0.0, 1.710395643452499E9, 0.0, 2024-03-13 22:54:03.452
80.0, -5.161061938852072, 3.104116963222623, -9.622762585990131, -1.2154674855992198, 0.6400000303983688, 0.7360000349581242, 0.3840000182390213, 0.0, 0.0, 0.0, 0.0, 0.0, 1.7103956434660063E9, 0.0, 2024-03-13 22:54:03.466
80.0, -6.5822239220142365, 3.0442785639315844, -12.435167352668941, 3.021839164197445, 0.6400000303983688, 0.7360000349581242, 0.3840000182390213, 0.0, 0.0, 0.0, 0.0, 0.0, 1.7103956434660063E9, 0.0, 2024-03-13 22:54:03.466
81.0, -5.067564439959824, 6.948734117671847, 0.9536744887009263, 2.7525663673877716, 0.6400000303983688, 0.7520000357180834, 0.3840000182390213, 0.0, 0.0, 0.0, 0.0, 0.0, 1.710395643482028E9, 0.0, 2024-03-13 22:54:03.482
81.0, -8.699007296934724, -4.01291265245527, -13.033551345579326, -11.64604846201837, 0.6400000303983688, 0.7520000357180834, 0.3840000182390213, 0.0, 0.0, 0.0, 0.0, 0.0, 1.710395643482028E9, 0.0, 2024-03-13 22:54:03.482
82.0, -0.2169141974300146, 4.5701577458530664, -19.589595967903733, -5.778145431540906, 0.6400000303983688, 0.7520000357180834, 0.3840000182390213, 0.0, 0.0, 0.0, 0.0, 0.0, 1.7103956434823298E9, 0.0, 2024-03-13 22:54:03.482
82.0, -4.2859253492206335, 1.892389377579093, -7.66305500920862, -8.568110798485577, 0.6400000303983688, 0.7520000357180834, 0.3840000182390213, 0.0, 0.0, 0.0, 0.0, 0.0, 1.7103956434823298E9, 0.0, 2024-03-13 22:54:03.482
83.0, -15.157814520411193, -7.146948815323412, -17.469072693027556, -18.198353184387088, 0.6400000303983688, 0.7520000357180834, 0.3840000182390213, 0.0, 0.0, 0.0, 0.0, 0.0, 1.7103956434960084E9, 0.0, 2024-03-13 22:54:03.496
83.0, -4.622516345232725, 8.680307797156274, -12.304270854219794, -5.490173134952784, 0.6400000303983688, 0.7520000357180834, 0.3840000182390213, 0.0, 0.0, 0.0, 0.0, 0.0, 1.7103956434960084E9, 0.0, 2024-03-13 22:54:03.496
84.0, 17.895421287976205, 23.37063482310623, 7.599476709961891, 14.783824524842203, 0.6400000303983688, 0.7520000357180834, 0.3840000182390213, 0.0, 0.0, 0.0, 0.0, 0.0, 1.710395643511613E9, 0.0, 2024-03-13 22:54:03.511
84.0, 0.22439399734139442, 10.310904177837074, 0.8115582903847098, 1.170588686130941, 0.6400000303983688, 0.7520000357180834, 0.3840000182390213, 0.0, 0.0, 0.0, 0.0, 0.0, 1.710395643511613E9, 0.0, 2024-03-13 22:54:03.511
85.0, 5.426594835706055, 12.293051154352725, 4.83943054266274, 12.86899574752897, 0.6400000303983688, 0.7520000357180834, 0.3840000182390213, 0.0, 0.0, 0.0, 0.0, 0.0, 1.7103956435123973E9, 0.0, 2024-03-13 22:54:03.512
85.0, 7.62939590960741, 15.101716021075845, -3.3509503602981567, 6.922554817982018, 0.6400000303983688, 0.7520000357180834, 0.3840000182390213, 0.0, 0.0, 0.0, 0.0, 0.0, 1.7103956435123973E9, 0.0, 2024-03-13 22:54:03.512
86.0, -7.034751816652715, 2.2028010739013553, -1.9410080770030618, 0.5834243930876255, 0.6400000303983688, 0.7520000357180834, 0.3840000182390213, 0.0, 0.0, 0.0, 0.0, 0.0, 1.7103956435260844E9, 0.0, 2024-03-13 22:54:03.526
86.0, 1.1481492863968015, 3.9605540530756116, -3.425748359411955, -0.8601769898086786, 0.6400000303983688, 0.7520000357180834, 0.3840000182390213, 0.0, 0.0, 0.0, 0.0, 0.0, 1.7103956435260844E9, 0.0, 2024-03-13 22:54:03.526
87.0, 6.200754126533866, 18.811696777120233, 9.024378593079746, 16.4892189046368, 0.6400000303983688, 0.7520000357180834, 0.3840000182390213, 0.0, 0.0, 0.0, 0.0, 0.0, 1.7103956435416381E9, 0.0, 2024-03-13 22:54:03.541
87.0, 10.666194673627615, 16.13766830880195, 13.889988435432315, 16.335883006453514, 0.6400000303983688, 0.7520000357180834, 0.3840000182390213, 0.0, 0.0, 0.0, 0.0, 0.0, 1.7103956435416381E9, 0.0, 2024-03-13 22:54:03.541
88.0, -0.9349749889224768, 6.384009224362671, -0.9910734882578254, 1.1369295865297318, 0.6400000303983688, 0.7520000357180834, 0.3840000182390213, 0.0, 0.0, 0.0, 0.0, 0.0, 1.7103956435426176E9, 0.0, 2024-03-13 22:54:03.542
88.0, -6.384009224362671, 8.384855700656772, -14.51455172803253, -3.422008459456265, 0.6400000303983688, 0.7520000357180834, 0.3840000182390213, 0.0, 0.0, 0.0, 0.0, 0.0, 1.7103956435426176E9, 0.0, 2024-03-13 22:54:03.542
89.0, 8.05948440451175, 13.429980740882456, -2.5206925701349974, 5.381716036237776, 0.6400000303983688, 0.7520000357180834, 0.3840000182390213, 0.0, 0.0, 0.0, 0.0, 0.0, 1.710395643572332E9, 0.0, 2024-03-13 22:54:03.572
89.0, 9.338530189357698, 14.735205825418234, 6.45506732352078, 8.43721430003643, 0.6400000303983688, 0.7520000357180834, 0.3840000182390213, 0.0, 0.0, 0.0, 0.0, 0.0, 1.710395643572332E9, 0.0, 2024-03-13 22:54:03.572
90.0, 18.47136588115245, 16.829549800604582, -1.4697806825861335, 3.61648325715214, 0.6400000303983688, 0.7520000357180834, 0.3840000182390213, 0.0, 0.0, 0.0, 0.0, 0.0, 1.7103956435730844E9, 0.0, 2024-03-13 22:54:03.573
90.0, 11.754505560733378, 13.089649844914675, -18.792997277341783, -2.176621774211526, 0.6400000303983688, 0.7520000357180834, 0.3840000182390213, 0.0, 0.0, 0.0, 0.0, 0.0, 1.7103956435730844E9, 0.0, 2024-03-13 22:54:03.573
91.0, -1.6418160805478692, 3.4332281593233347, -13.976006134413183, -9.020638693124056, 0.6400000303983688, 0.7520000357180834, 0.3840000182390213, 0.0, 0.0, 0.0, 0.0, 0.0, 1.710395643573773E9, 0.0, 2024-03-13 22:54:03.573
91.0, 1.9410080770030618, 8.983239693567157, 2.857283566147089, 0.5161061938852072, 0.6400000303983688, 0.7520000357180834, 0.3840000182390213, 0.0, 0.0, 0.0, 0.0, 0.0, 1.710395643573773E9, 0.0, 2024-03-13 22:54:03.573
92.0, -2.730126967653632, -2.1990611739456654, -15.939453611150384, -7.64435550943017, 0.6400000303983688, 0.7520000357180834, 0.3840000182390213, 0.0, 0.0, 0.0, 0.0, 0.0, 1.7103956435862598E9, 0.0, 2024-03-13 22:54:03.586
92.0, 9.566664086654782, 10.02667178120464, 0.6544824922457337, 1.2304270854219794, 0.6400000303983688, 0.7520000357180834, 0.3840000182390213, 0.0, 0.0, 0.0, 0.0, 0.0, 1.7103956435862598E9, 0.0, 2024-03-13 22:54:03.586
93.0, 11.085063468664885, 15.445786816999316, 9.607802986167371, 9.68634088523686, 0.6400000303983688, 0.7520000357180834, 0.3840000182390213, 0.0, 0.0, 0.0, 0.0, 0.0, 1.7103956436017802E9, 0.0, 2024-03-13 22:54:03.601
93.0, 8.598029998131096, 11.66100806184113, -0.14585609827190638, 3.9680338529869914, 0.6400000303983688, 0.7520000357180834, 0.3840000182390213, 0.0, 0.0, 0.0, 0.0, 0.0, 1.7103956436017802E9, 0.0, 2024-03-13 22:54:03.601
94.0, 15.374728717841208, 16.10026930924505, 11.608649462461472, 14.847402824088931, 0.6400000303983688, 0.7520000357180834, 0.3840000182390213, 0.0, 0.0, 0.0, 0.0, 0.0, 1.7103956436027088E9, 0.0, 2024-03-13 22:54:03.602
94.0, 11.990119257941842, 15.804817212745547, 8.231519802473485, 4.293405149132013, 0.6400000303983688, 0.7520000357180834, 0.3840000182390213, 0.0, 0.0, 0.0, 0.0, 0.0, 1.7103956436027088E9, 0.0, 2024-03-13 22:54:03.602
95.0, 2.9133820654824376, 6.795398219488561, -16.676213902421296, -10.733512872830033, 0.6400000303983688, 0.7520000357180834, 0.3840000182390213, 0.0, 0.0, 0.0, 0.0, 0.0, 1.710395643616292E9, 0.0, 2024-03-13 22:54:03.616
95.0, 8.197860702872276, 5.336837236769497, -16.586456303484738, -7.969726805575192, 0.6400000303983688, 0.7520000357180834, 0.3840000182390213, 0.0, 0.0, 0.0, 0.0, 0.0, 1.710395643616292E9, 0.0, 2024-03-13 22:54:03.616
96.0, -4.334544048644602, 4.41682184766978, -11.111242768354714, -8.526971898972988, 0.6400000303983688, 0.7520000357180834, 0.3840000182390213, 0.0, 0.0, 0.0, 0.0, 0.0, 1.710395643631634E9, 0.0, 2024-03-13 22:54:03.631
96.0, -3.504286258481443, 7.341423613019288, 6.885155818425119, 4.6898345444351435, 0.6400000303983688, 0.7520000357180834, 0.3840000182390213, 0.0, 0.0, 0.0, 0.0, 0.0, 1.710395643631634E9, 0.0, 2024-03-13 22:54:03.631
97.0, -2.086864175274968, 9.024378593079746, -5.946440929546952, 0.5535051934421062, 0.6400000303983688, 0.7520000357180834, 0.3840000182390213, 0.0, 0.0, 0.0, 0.0, 0.0, 1.7103956436325018E9, 0.0, 2024-03-13 22:54:03.632
97.0, 4.865609842352569, 17.910380887798965, -8.601769898086786, 1.047171987593174, 0.6400000303983688, 0.7520000357180834, 0.3840000182390213, 0.0, 0.0, 0.0, 0.0, 0.0, 1.7103956436325018E9, 0.0, 2024-03-13 22:54:03.632
98.0, -2.296298572793603, 6.881415918469429, -8.238999602384865, -4.895529041998088, 0.6400000303983688, 0.7520000357180834, 0.3840000182390213, 0.0, 0.0, 0.0, 0.0, 0.0, 1.7103956436459644E9, 0.0, 2024-03-13 22:54:03.645
98.0, 9.181454391218722, 17.932820287533104, -12.779238148592412, 1.1219699867069721, 0.6400000303983688, 0.7520000357180834, 0.3840000182390213, 0.0, 0.0, 0.0, 0.0, 0.0, 1.7103956436459644E9, 0.0, 2024-03-13 22:54:03.645
99.0, 34.22756439447403, 37.675752153620124, 12.394028453156352, 20.17302036099136, 0.6400000303983688, 0.7520000357180834, 0.3840000182390213, 0.0, 0.0, 0.0, 0.0, 0.0, 1.7103956436616397E9, 0.0, 2024-03-13 22:54:03.661
99.0, 28.834628658369184, 37.0549287609756, 23.00786452740431, 14.746425525285304, 0.6400000303983688, 0.7520000357180834, 0.3840000182390213, 0.0, 0.0, 0.0, 0.0, 0.0, 1.7103956436616397E9, 0.0, 2024-03-13 22:54:03.661
100.0, -17.416714093647897, -5.015205840580165, -23.434213122352958, -17.629888391122222, 0.6400000303983688, 0.7520000357180834, 0.3840000182390213, 0.0, 0.0, 0.0, 0.0, 0.0, 1.7103956436626396E9, 0.0, 2024-03-13 22:54:03.662
100.0, -3.975513652898371, 2.41597537137568, -12.46508655231446, -4.701054244302213, 0.6400000303983688, 0.7520000357180834, 0.3840000182390213, 0.0, 0.0, 0.0, 0.0, 0.0, 1.7103956436626396E9, 0.0, 2024-03-13 22:54:03.662
0.0, -903.4812913956121, -579.4470094847493, -580.3632849738933, -589.3745739171281, 0.6400000303983688, 0.7520000357180834, 0.3840000182390213, 0.0, 0.0, 0.0, 0.0, 0.0, 1.710395643676726E9, 0.0, 2024-03-13 22:54:03.676
1.0, -902.3219224093482, -579.4432695847936, -575.493935231585, -586.5472095506266, 0.6400000303983688, 0.7520000357180834, 0.3840000182390213, 0.0, 0.0, 0.0, 0.0, 0.0, 1.7103956436776705E9, 0.0, 2024-03-13 22:54:03.677
1.0, -892.9497331203893, -569.9775827969424, -578.7252087933011, -575.4359667822719, 0.6400000303983688, 0.7520000357180834, 0.3840000182390213, 0.0, 0.0, 0.0, 0.0, 0.0, 1.7103956436776705E9, 0.0, 2024-03-13 22:54:03.677
2.0, -903.5486095948145, -585.3373519149609, -586.7547739981674, -588.4021999286488, 0.6400000303983688, 0.7520000357180834, 0.3840000182390213, 0.0, 0.0, 0.0, 0.0, 0.0, 1.7103956436910684E9, 0.0, 2024-03-13 22:54:03.691
2.0, -903.9338192902505, -587.0203068950213, -589.3988832668401, -593.8362745642662, 0.6400000303983688, 0.7520000357180834, 0.3840000182390213, 0.0, 0.0, 0.0, 0.0, 0.0, 1.7103956436910684E9, 0.0, 2024-03-13 22:54:03.691
3.0, -898.4735653549433, -581.7246085577644, -581.5862322594039, -586.831441947259, 0.6400000303983688, 0.7520000357180834, 0.3840000182390213, 0.0, 0.0, 0.0, 0.0, 0.0, 1.710395643706922E9, 0.0, 2024-03-13 22:54:03.706
3.0, -903.7243848927319, -579.6265246826224, -584.1144046294503, -582.2313650017604, 0.6400000303983688, 0.7520000357180834, 0.3840000182390213, 0.0, 0.0, 0.0, 0.0, 0.0, 1.710395643706922E9, 0.0, 2024-03-13 22:54:03.706
4.0, -916.1184133458883, -593.4117959192954, -594.2457936094142, -594.6440929546952, 0.6400000303983688, 0.7520000357180834, 0.3840000182390213, 0.0, 0.0, 0.0, 0.0, 0.0, 1.7103956437076292E9, 0.0, 2024-03-13 22:54:03.707
4.0, -913.4144656779245, -586.8931502965279, -600.9701337297447, -594.1205069608986, 0.6400000303983688, 0.7520000357180834, 0.3840000182390213, 0.0, 0.0, 0.0, 0.0, 0.0, 1.7103956437076292E9, 0.0, 2024-03-13 22:54:03.707
5.0, -896.7868704749271, -571.731595876161, -594.0887178112753, -588.701391925104, 0.6400000303983688, 0.7520000357180834, 0.3840000182390213, 0.0, 0.0, 0.0, 0.0, 0.0, 1.7103956437213888E9, 0.0, 2024-03-13 22:54:03.721
5.0, -896.7831305749714, -573.8857782506384, -588.2993526798673, -588.338621629402, 0.6400000303983688, 0.7520000357180834, 0.3840000182390213, 0.0, 0.0, 0.0, 0.0, 0.0, 1.7103956437213888E9, 0.0, 2024-03-13 22:54:03.721
6.0, -897.2319185696542, -578.2614611987956, -591.2052549454384, -594.4570979569107, 0.6400000303983688, 0.7520000357180834, 0.3840000182390213, 0.0, 0.0, 0.0, 0.0, 0.0, 1.7103956437370012E9, 0.0, 2024-03-13 22:54:03.737
6.0, -890.384161750786, -569.427817503456, -592.8844700255431, -587.8935735346749, 0.6400000303983688, 0.7520000357180834, 0.3840000182390213, 0.0, 0.0, 0.0, 0.0, 0.0, 1.7103956437370012E9, 0.0, 2024-03-13 22:54:03.737
7.0, -893.2152660172433, -575.277021034155, -585.3934504142962, -587.4036466404796, 0.6400000303983688, 0.7520000357180834, 0.3840000182390213, 0.0, 0.0, 0.0, 0.0, 0.0, 1.71039564373762E9, 0.0, 2024-03-13 22:54:03.737
7.0, -904.0684556886554, -586.1451703053899, -593.8643238139339, -601.4095719745383, 0.6400000303983688, 0.7520000357180834, 0.3840000182390213, 0.0, 0.0, 0.0, 0.0, 0.0, 1.71039564373762E9, 0.0, 2024-03-13 22:54:03.737
8.0, -894.6588674001396, -572.9732426614501, -593.6623692163266, -591.5212764916942, 0.6400000303983688, 0.7520000357180834, 0.3840000182390213, 0.0, 0.0, 0.0, 0.0, 0.0, 1.710395643750997E9, 0.0, 2024-03-13 22:54:03.750
8.0, -881.0568512612954, -563.0138890794478, -576.1521576237865, -578.6261014444754, 0.6400000303983688, 0.7520000357180834, 0.3840000182390213, 0.0, 0.0, 0.0, 0.0, 0.0, 1.710395643750997E9, 0.0, 2024-03-13 22:54:03.750
9.0, -879.8638231754303, -567.823400422465, -571.997128773015, -580.2454781252891, 0.6400000303983688, 0.7520000357180834, 0.3840000182390213, 0.0, 0.0, 0.0, 0.0, 0.0, 1.7103956437670715E9, 0.0, 2024-03-13 22:54:03.767
9.0, -891.4313337383792, -574.3083869456314, -578.8336658920161, -581.4198067113757, 0.6400000303983688, 0.7520000357180834, 0.3840000182390213, 0.0, 0.0, 0.0, 0.0, 0.0, 1.7103956437670715E9, 0.0, 2024-03-13 22:54:03.767
10.0, -886.2066935002804, -569.0575674078427, -573.5566670545377, -572.7245393143967, 0.6400000303983688, 0.7520000357180834, 0.3840000182390213, 0.0, 0.0, 0.0, 0.0, 0.0, 1.7103956437817135E9, 0.0, 2024-03-13 22:54:03.781
10.0, -895.750918187201, -575.374258433003, -576.7767209163867, -579.7555512310937, 0.6400000303983688, 0.7520000357180834, 0.3840000182390213, 0.0, 0.0, 0.0, 0.0, 0.0, 1.7103956437817135E9, 0.0, 2024-03-13 22:54:03.781
11.0, -898.0659162597731, -583.1308109411038, -590.9621614483185, -591.3791602933779, 0.6400000303983688, 0.7360000349581242, 0.3840000182390213, 0.0, 0.0, 0.0, 0.0, 0.0, 1.7103956437823825E9, 0.0, 2024-03-13 22:54:03.782
11.0, -875.3535038288683, -563.7543892706744, -576.0437005250715, -569.994412346743, 0.6400000303983688, 0.7360000349581242, 0.3840000182390213, 0.0, 0.0, 0.0, 0.0, 0.0, 1.7103956437823825E9, 0.0, 2024-03-13 22:54:03.782
12.0, -898.5895022535697, -569.4315574034117, -572.273881369736, -574.3700952949002, 0.6400000303983688, 0.7360000349581242, 0.3840000182390213, 0.0, 0.0, 0.0, 0.0, 0.0, 1.710395643796823E9, 0.0, 2024-03-13 22:54:03.796
12.0, -904.1806526873261, -578.7289486932568, -585.1540968171321, -589.449371916242, 0.6400000303983688, 0.7360000349581242, 0.3840000182390213, 0.0, 0.0, 0.0, 0.0, 0.0, 1.710395643796823E9, 0.0, 2024-03-13 22:54:03.796
13.0, -896.6410143766552, -572.2925808695145, -587.1063245940022, -585.3130425652489, 0.6400000303983688, 0.7360000349581242, 0.3840000182390213, 0.0, 0.0, 0.0, 0.0, 0.0, 1.7103956437973552E9, 0.0, 2024-03-13 22:54:03.797
13.0, -896.0875091832131, -571.4099644799717, -594.4814073066227, -584.4753049751744, 0.6400000303983688, 0.7360000349581242, 0.3840000182390213, 0.0, 0.0, 0.0, 0.0, 0.0, 1.7103956437973552E9, 0.0, 2024-03-13 22:54:03.797
14.0, -889.901714656502, -571.092072983738, -576.133458124008, -579.1235081385821, 0.6400000303983688, 0.7360000349581242, 0.3840000182390213, 0.0, 0.0, 0.0, 0.0, 0.0, 1.710395643810976E9, 0.0, 2024-03-13 22:54:03.810
14.0, -896.0837692832574, -567.2137967296876, -586.5789987002499, -582.8708878941834, 0.6400000303983688, 0.7360000349581242, 0.3840000182390213, 0.0, 0.0, 0.0, 0.0, 0.0, 1.710395643810976E9, 0.0, 2024-03-13 22:54:03.810
15.0, -885.4287943094969, -558.7130041304044, -579.0131810898893, -569.4296874534339, 0.6400000303983688, 0.7360000349581242, 0.3840000182390213, 0.0, 0.0, 0.0, 0.0, 0.0, 1.7103956438266368E9, 0.0, 2024-03-13 22:54:03.826
15.0, -872.6719955606386, -557.4563977452926, -575.3368594334461, -570.4432003414258, 0.6400000303983688, 0.7360000349581242, 0.3840000182390213, 0.0, 0.0, 0.0, 0.0, 0.0, 1.7103956438266368E9, 0.0, 2024-03-13 22:54:03.826
16.0, -885.0398447141051, -569.8167670988478, -590.606870952528, -583.8844007821754, 0.6400000303983688, 0.7360000349581242, 0.3840000182390213, 0.0, 0.0, 0.0, 0.0, 0.0, 1.710395643827422E9, 0.0, 2024-03-13 22:54:03.827
16.0, -882.4854930443689, -564.1807378656231, -593.9241622132249, -586.4013534523547, 0.6400000303983688, 0.7360000349581242, 0.3840000182390213, 0.0, 0.0, 0.0, 0.0, 0.0, 1.710395643827422E9, 0.0, 2024-03-13 22:54:03.827
17.0, -884.6359355188906, -563.4776366739534, -569.8541660984047, -575.9371133763343, 0.6400000303983688, 0.7360000349581242, 0.3840000182390213, 0.0, 0.0, 0.0, 0.0, 0.0, 1.7103956438410614E9, 0.0, 2024-03-13 22:54:03.841
17.0, -879.070964384824, -566.9931426323019, -568.4704031147994, -577.1638005618006, 0.6400000303983688, 0.7360000349581242, 0.3840000182390213, 0.0, 0.0, 0.0, 0.0, 0.0, 1.7103956438410614E9, 0.0, 2024-03-13 22:54:03.841
18.0, -897.8041232628748, -570.4338505915366, -565.291488152463, -569.5718036517501, 0.6400000303983688, 0.7360000349581242, 0.3840000182390213, 0.0, 0.0, 0.0, 0.0, 0.0, 1.7103956438566225E9, 0.0, 2024-03-13 22:54:03.856
18.0, -880.4135884689167, -559.1991911246441, -560.1229464136995, -562.4510341361165, 0.6400000303983688, 0.7360000349581242, 0.3840000182390213, 0.0, 0.0, 0.0, 0.0, 0.0, 1.7103956438566225E9, 0.0, 2024-03-13 22:54:03.856
19.0, -891.1545811416581, -568.1412919186987, -575.3892180328257, -576.0380906751379, 0.6400000303983688, 0.7360000349581242, 0.3840000182390213, 0.0, 0.0, 0.0, 0.0, 0.0, 1.7103956438573403E9, 0.0, 2024-03-13 22:54:03.857
19.0, -893.9744657082483, -578.1380445002578, -586.4929810012691, -584.5314034745097, 0.6400000303983688, 0.7360000349581242, 0.3840000182390213, 0.0, 0.0, 0.0, 0.0, 0.0, 1.7103956438573403E9, 0.0, 2024-03-13 22:54:03.857
20.0, -890.6571744475514, -571.8662322745658, -582.7156820460223, -585.2606839658692, 0.6400000303983688, 0.7360000349581242, 0.3840000182390213, 0.0, 0.0, 0.0, 0.0, 0.0, 1.710395643871206E9, 0.0, 2024-03-13 22:54:03.871
20.0, -896.9140270734206, -577.3115266100504, -586.3695643027313, -588.1591064315289, 0.6400000303983688, 0.7360000349581242, 0.3840000182390213, 0.0, 0.0, 0.0, 0.0, 0.0, 1.710395643871206E9, 0.0, 2024-03-13 22:54:03.871
21.0, -883.5588443316519, -571.1593911829405, -584.38367742626, -587.2016920428723, 0.6400000303983688, 0.7360000349581242, 0.3840000182390213, 0.0, 0.0, 0.0, 0.0, 0.0, 1.7103956438869772E9, 0.0, 2024-03-13 22:54:03.886
21.0, -885.8476631045341, -565.1755512538366, -580.1388909765519, -578.7906570425257, 0.6400000303983688, 0.7360000349581242, 0.3840000182390213, 0.0, 0.0, 0.0, 0.0, 0.0, 1.7103956438869772E9, 0.0, 2024-03-13 22:54:03.886
22.0, -883.2746119350195, -561.3533734991215, -571.1182522834279, -580.0996220270172, 0.6400000303983688, 0.7360000349581242, 0.3840000182390213, 0.0, 0.0, 0.0, 0.0, 0.0, 1.710395643887881E9, 0.0, 2024-03-13 22:54:03.887
22.0, -871.3854699758813, -558.1894181366079, -564.1246393662877, -577.6911264555529, 0.6400000303983688, 0.7360000349581242, 0.3840000182390213, 0.0, 0.0, 0.0, 0.0, 0.0, 1.710395643887881E9, 0.0, 2024-03-13 22:54:03.887
23.0, -879.4973129797727, -560.5679945084266, -572.8909648624249, -572.2009533206001, 0.6400000303983688, 0.7360000349581242, 0.3840000182390213, 0.0, 0.0, 0.0, 0.0, 0.0, 1.7103956439010298E9, 0.0, 2024-03-13 22:54:03.901
23.0, -889.8156969575211, -565.448563950602, -580.3595450739376, -579.7069325316697, 0.6400000303983688, 0.7360000349581242, 0.3840000182390213, 0.0, 0.0, 0.0, 0.0, 0.0, 1.7103956439010298E9, 0.0, 2024-03-13 22:54:03.901
24.0, -889.250972064212, -574.203669746872, -589.8663707613014, -593.7614765651524, 0.6400000303983688, 0.7360000349581242, 0.3840000182390213, 0.0, 0.0, 0.0, 0.0, 0.0, 1.710395643916631E9, 0.0, 2024-03-13 22:54:03.916
24.0, -883.1698947362602, -566.3723192396574, -592.162669334095, -590.5152434036136, 0.6400000303983688, 0.7360000349581242, 0.3840000182390213, 0.0, 0.0, 0.0, 0.0, 0.0, 1.710395643916631E9, 0.0, 2024-03-13 22:54:03.916
25.0, -882.9268012391403, -568.1225924189202, -589.7392141628079, -589.6326270140707, 0.6400000303983688, 0.7360000349581242, 0.3840000182390213, 0.0, 0.0, 0.0, 0.0, 0.0, 1.7103956439175267E9, 0.0, 2024-03-13 22:54:03.917
25.0, -888.6787673709914, -568.1562515185215, -580.7036158698611, -587.0109571451321, 0.6400000303983688, 0.7360000349581242, 0.3840000182390213, 0.0, 0.0, 0.0, 0.0, 0.0, 1.7103956439175267E9, 0.0, 2024-03-13 22:54:03.917
26.0, -898.8774745501578, -581.2421614634804, -587.4877943894826, -591.7755896886811, 0.6400000303983688, 0.7360000349581242, 0.3840000182390213, 0.0, 0.0, 0.0, 0.0, 0.0, 1.710395643931019E9, 0.0, 2024-03-13 22:54:03.931
26.0, -889.0826765662059, -570.1645777947269, -583.2804069393314, -579.9874250283465, 0.6400000303983688, 0.7360000349581242, 0.3840000182390213, 0.0, 0.0, 0.0, 0.0, 0.0, 1.710395643931019E9, 0.0, 2024-03-13 22:54:03.931
27.0, -884.5573976198211, -566.5443546376191, -574.3383061452769, -580.125801326707, 0.6400000303983688, 0.7360000349581242, 0.3840000182390213, 0.0, 0.0, 0.0, 0.0, 0.0, 1.7103956439467237E9, 0.0, 2024-03-13 22:54:03.946
27.0, -897.2206988697872, -570.7854011873715, -568.0103954202496, -579.6807532319799, 0.6400000303983688, 0.7360000349581242, 0.3840000182390213, 0.0, 0.0, 0.0, 0.0, 0.0, 1.7103956439467237E9, 0.0, 2024-03-13 22:54:03.946
28.0, -895.7209989875555, -569.8953049979173, -589.8962899609469, -586.1545200552791, 0.6400000303983688, 0.7360000349581242, 0.3840000182390213, 0.0, 0.0, 0.0, 0.0, 0.0, 1.710395643947368E9, 0.0, 2024-03-13 22:54:03.947
28.0, -883.1324957367033, -559.4572442215867, -582.4277097494341, -578.0015381518751, 0.6400000303983688, 0.7360000349581242, 0.3840000182390213, 0.0, 0.0, 0.0, 0.0, 0.0, 1.710395643947368E9, 0.0, 2024-03-13 22:54:03.947
29.0, -888.5927496720105, -567.8271403224207, -576.0399606251158, -584.4005069760606, 0.6400000303983688, 0.7360000349581242, 0.3840000182390213, 0.0, 0.0, 0.0, 0.0, 0.0, 1.710395643961017E9, 0.0, 2024-03-13 22:54:03.961
29.0, -889.1238154657185, -566.4171980391257, -590.4273557546549, -583.1551202908158, 0.6400000303983688, 0.7360000349581242, 0.3840000182390213, 0.0, 0.0, 0.0, 0.0, 0.0, 1.710395643961017E9, 0.0, 2024-03-13 22:54:03.961
30.0, -881.4420609567314, -559.079514326062, -583.2504877396859, -577.0777828628197, 0.6400000303983688, 0.7360000349581242, 0.3840000182390213, 0.0, 0.0, 0.0, 0.0, 0.0, 1.7103956439766386E9, 0.0, 2024-03-13 22:54:03.976
30.0, -871.183515378274, -555.6949048661627, -569.9401837973855, -570.5516574401408, 0.6400000303983688, 0.7360000349581242, 0.3840000182390213, 0.0, 0.0, 0.0, 0.0, 0.0, 1.7103956439766386E9, 0.0, 2024-03-13 22:54:03.976
31.0, -880.2378131709993, -560.1566055133007, -559.7003377187066, -572.4477867176756, 0.6400000303983688, 0.7360000349581242, 0.3840000182390213, 0.0, 0.0, 0.0, 0.0, 0.0, 1.710395643977355E9, 0.0, 2024-03-13 22:54:03.977
31.0, -872.9188289577141, -551.1696259197779, -565.3924654512666, -565.4055551011115, 0.6400000303983688, 0.7360000349581242, 0.3840000182390213, 0.0, 0.0, 0.0, 0.0, 0.0, 1.710395643977355E9, 0.0, 2024-03-13 22:54:03.977
32.0, -881.0830305609852, -561.1813381011598, -572.6104723657481, -572.720799414441, 0.6400000303983688, 0.7360000349581242, 0.3840000182390213, 0.0, 0.0, 0.0, 0.0, 0.0, 1.7103956439910572E9, 0.0, 2024-03-13 22:54:03.991
32.0, -881.1653083600104, -562.3781060869806, -573.5005685552023, -579.6957128318027, 0.6400000303983688, 0.7360000349581242, 0.3840000182390213, 0.0, 0.0, 0.0, 0.0, 0.0, 1.7103956439910572E9, 0.0, 2024-03-13 22:54:03.991
33.0, -883.0015992382541, -564.1844777655788, -581.9976212545298, -580.885001017712, 0.6400000303983688, 0.7360000349581242, 0.3840000182390213, 0.0, 0.0, 0.0, 0.0, 0.0, 1.710395644006624E9, 0.0, 2024-03-13 22:54:04.006
33.0, -884.2656854232773, -566.8024077345617, -583.5122807365842, -580.9710187166929, 0.6400000303983688, 0.7360000349581242, 0.3840000182390213, 0.0, 0.0, 0.0, 0.0, 0.0, 1.710395644006624E9, 0.0, 2024-03-13 22:54:04.006
34.0, -877.4328882042319, -561.0392219028436, -568.6910572121851, -578.4353665467352, 0.6400000303983688, 0.7360000349581242, 0.3840000182390213, 0.0, 0.0, 0.0, 0.0, 0.0, 1.7103956440075223E9, 0.0, 2024-03-13 22:54:04.007
34.0, -880.6005834667012, -563.6534119718708, -576.6869633174501, -575.9258936764672, 0.6400000303983688, 0.7360000349581242, 0.3840000182390213, 0.0, 0.0, 0.0, 0.0, 0.0, 1.7103956440075223E9, 0.0, 2024-03-13 22:54:04.007
35.0, -878.2594060944393, -563.4477174743079, -567.9505570209585, -570.0280714463443, 0.6400000303983688, 0.7360000349581242, 0.3840000182390213, 0.0, 0.0, 0.0, 0.0, 0.0, 1.7103956440211737E9, 0.0, 2024-03-13 22:54:04.021
35.0, -871.8978362698108, -554.35228078207, -555.1189602729864, -561.0635312525555, 0.6400000303983688, 0.7360000349581242, 0.3840000182390213, 0.0, 0.0, 0.0, 0.0, 0.0, 1.7103956440211737E9, 0.0, 2024-03-13 22:54:04.021
36.0, -876.7223072126508, -563.7282099709846, -564.6295258603059, -567.7691718731076, 0.6400000303983688, 0.7360000349581242, 0.3840000182390213, 0.0, 0.0, 0.0, 0.0, 0.0, 1.7103956440532317E9, 0.0, 2024-03-13 22:54:04.053
36.0, -887.1566280890256, -563.735689770896, -587.6860090871342, -578.3082099482417, 0.6400000303983688, 0.7360000349581242, 0.3840000182390213, 0.0, 0.0, 0.0, 0.0, 0.0, 1.7103956440532317E9, 0.0, 2024-03-13 22:54:04.053
37.0, -888.2449389761314, -571.7502953759395, -588.0188601831906, -579.6583138322458, 0.6400000303983688, 0.7360000349581242, 0.3840000182390213, 0.0, 0.0, 0.0, 0.0, 0.0, 1.710395644053766E9, 0.0, 2024-03-13 22:54:04.053
37.0, -890.6833537472412, -573.3135735574178, -581.4141968614422, -587.6056012380868, 0.6400000303983688, 0.7360000349581242, 0.3840000182390213, 0.0, 0.0, 0.0, 0.0, 0.0, 1.710395644053766E9, 0.0, 2024-03-13 22:54:04.053
38.0, -898.4997446546331, -581.1299644648097, -595.0311726001091, -594.6627924544737, 0.6400000303983688, 0.7360000349581242, 0.3840000182390213, 0.0, 0.0, 0.0, 0.0, 0.0, 1.710395644054502E9, 0.0, 2024-03-13 22:54:04.054
38.0, -891.554750436917, -577.0310341133736, -587.7271479866467, -591.3567208936438, 0.6400000303983688, 0.7360000349581242, 0.3840000182390213, 0.0, 0.0, 0.0, 0.0, 0.0, 1.710395644054502E9, 0.0, 2024-03-13 22:54:04.054
39.0, -892.747778522782, -578.871064891573, -574.626278441865, -591.3978597931564, 0.6400000303983688, 0.7360000349581242, 0.3840000182390213, 0.0, 0.0, 0.0, 0.0, 0.0, 1.710395644055223E9, 0.0, 2024-03-13 22:54:04.055
39.0, -888.1402217773721, -583.6543969349004, -586.4256628020667, -598.8290410051122, 0.6400000303983688, 0.7360000349581242, 0.3840000182390213, 0.0, 0.0, 0.0, 0.0, 0.0, 1.710395644055223E9, 0.0, 2024-03-13 22:54:04.055
40.0, -892.1680940296501, -585.5280868127011, -597.1666554748081, -599.1918113008142, 0.6400000303983688, 0.7360000349581242, 0.3840000182390213, 0.0, 0.0, 0.0, 0.0, 0.0, 1.7103956440660124E9, 0.0, 2024-03-13 22:54:04.066
40.0, -906.0057238657027, -596.4523345832713, -591.5268863416277, -604.0985600426793, 0.6400000303983688, 0.7360000349581242, 0.3840000182390213, 0.0, 0.0, 0.0, 0.0, 0.0, 1.7103956440660124E9, 0.0, 2024-03-13 22:54:04.066
41.0, -896.3006834806874, -585.3710110145621, -584.8249856210314, -594.0270094620064, 0.6400000303983688, 0.7360000349581242, 0.3840000182390213, 0.0, 0.0, 0.0, 0.0, 0.0, 1.7103956440809984E9, 0.0, 2024-03-13 22:54:04.080
41.0, -894.3222764041275, -580.0678328773938, -591.089318046812, -590.2833696063608, 0.6400000303983688, 0.7360000349581242, 0.3840000182390213, 0.0, 0.0, 0.0, 0.0, 0.0, 1.7103956440809984E9, 0.0, 2024-03-13 22:54:04.080
42.0, -900.3734345324337, -586.8819305966608, -589.2829463682137, -591.6035542907193, 0.6400000303983688, 0.7360000349581242, 0.3840000182390213, 0.0, 0.0, 0.0, 0.0, 0.0, 1.7103956440971975E9, 0.0, 2024-03-13 22:54:04.097
42.0, -900.8745811264962, -589.9823076599278, -587.7346277865581, -600.1230463897809, 0.6400000303983688, 0.7360000349581242, 0.3840000182390213, 0.0, 0.0, 0.0, 0.0, 0.0, 1.7103956440971975E9, 0.0, 2024-03-13 22:54:04.097
43.0, -892.687940123491, -578.328779397998, -576.4924885197543, -583.9479790814221, 0.6400000303983688, 0.7360000349581242, 0.3840000182390213, 0.0, 0.0, 0.0, 0.0, 0.0, 1.7103956440974693E9, 0.0, 2024-03-13 22:54:04.097
43.0, -901.1737731229514, -583.1008917414583, -584.2004223284312, -587.2727501420304, 0.6400000303983688, 0.7360000349581242, 0.3840000182390213, 0.0, 0.0, 0.0, 0.0, 0.0, 1.7103956440974693E9, 0.0, 2024-03-13 22:54:04.097
44.0, -911.357520702295, -596.8375442787074, -587.8131656856276, -599.5807608962059, 0.6400000303983688, 0.7360000349581242, 0.3840000182390213, 0.0, 0.0, 0.0, 0.0, 0.0, 1.7103956441109974E9, 0.0, 2024-03-13 22:54:04.110
44.0, -906.2974360622466, -587.2185215926729, -594.5300260060467, -589.8532811114565, 0.6400000303983688, 0.7360000349581242, 0.3840000182390213, 0.0, 0.0, 0.0, 0.0, 0.0, 1.7103956441109974E9, 0.0, 2024-03-13 22:54:04.110
45.0, -884.3629228221253, -569.7157898000441, -577.3077867100947, -576.8421691656113, 0.6400000303983688, 0.7360000349581242, 0.3840000182390213, 0.0, 0.0, 0.0, 0.0, 0.0, 1.7103956441266859E9, 0.0, 2024-03-13 22:54:04.126
45.0, -881.6103564547375, -567.0604608315043, -572.9358436618932, -576.6364746680483, 0.6400000303983688, 0.7360000349581242, 0.3840000182390213, 0.0, 0.0, 0.0, 0.0, 0.0, 1.7103956441266859E9, 0.0, 2024-03-13 22:54:04.126
46.0, -900.6053083296865, -582.2407147516496, -584.2677405276336, -586.1881791548803, 0.6400000303983688, 0.7360000349581242, 0.3840000182390213, 0.0, 0.0, 0.0, 0.0, 0.0, 1.7103956441274009E9, 0.0, 2024-03-13 22:54:04.127
46.0, -890.1971667530015, -574.5888794423081, -582.887717443984, -581.5694027096033, 0.6400000303983688, 0.7360000349581242, 0.3840000182390213, 0.0, 0.0, 0.0, 0.0, 0.0, 1.7103956441274009E9, 0.0, 2024-03-13 22:54:04.127
47.0, -890.3804218508303, -568.6461784127168, -583.8675712323748, -579.3553819358349, 0.6400000303983688, 0.7360000349581242, 0.3840000182390213, 0.0, 0.0, 0.0, 0.0, 0.0, 1.7103956441410947E9, 0.0, 2024-03-13 22:54:04.141
47.0, -885.6270090071484, -560.8671865048818, -562.0564746907912, -567.2493257792667, 0.6400000303983688, 0.7360000349581242, 0.3840000182390213, 0.0, 0.0, 0.0, 0.0, 0.0, 1.7103956441410947E9, 0.0, 2024-03-13 22:54:04.141
48.0, -897.0112644722685, -572.528194566723, -584.0470864302479, -576.5242776693776, 0.6400000303983688, 0.7360000349581242, 0.3840000182390213, 0.0, 0.0, 0.0, 0.0, 0.0, 1.7103956441568205E9, 0.0, 2024-03-13 22:54:04.156
48.0, -884.2058470239863, -564.6706647598185, -575.0040083373897, -573.4949587052688, 0.6400000303983688, 0.7360000349581242, 0.3840000182390213, 0.0, 0.0, 0.0, 0.0, 0.0, 1.7103956441568205E9, 0.0, 2024-03-13 22:54:04.156
49.0, -881.8123110523447, -564.5659475610591, -566.3012611404993, -575.3836081828922, 0.6400000303983688, 0.7360000349581242, 0.3840000182390213, 0.0, 0.0, 0.0, 0.0, 0.0, 1.7103956441574175E9, 0.0, 2024-03-13 22:54:04.157
49.0, -888.5104718729854, -567.8009610227309, -579.0804992890917, -580.5334504218772, 0.6400000303983688, 0.7360000349581242, 0.3840000182390213, 0.0, 0.0, 0.0, 0.0, 0.0, 1.7103956441574175E9, 0.0, 2024-03-13 22:54:04.157
50.0, -883.4316877331585, -570.2505954937078, -584.4098567259498, -579.6620537322015, 0.6400000303983688, 0.7360000349581242, 0.3840000182390213, 0.0, 0.0, 0.0, 0.0, 0.0, 1.7103956441712947E9, 0.0, 2024-03-13 22:54:04.171
50.0, -876.1538424193859, -564.5135889616795, -570.0224615964107, -573.7567517021671, 0.6400000303983688, 0.7360000349581242, 0.3840000182390213, 0.0, 0.0, 0.0, 0.0, 0.0, 1.7103956441712947E9, 0.0, 2024-03-13 22:54:04.171
51.0, -890.3692021509632, -573.5192680549808, -582.4576289490797, -588.5143969273195, 0.6400000303983688, 0.7360000349581242, 0.3840000182390213, 0.0, 0.0, 0.0, 0.0, 0.0, 1.7103956441870084E9, 0.0, 2024-03-13 22:54:04.187
51.0, -889.0714568663388, -571.032234584447, -594.6534427045844, -588.6228540260345, 0.6400000303983688, 0.7360000349581242, 0.3840000182390213, 0.0, 0.0, 0.0, 0.0, 0.0, 1.7103956441870084E9, 0.0, 2024-03-13 22:54:04.187
52.0, -894.5167512018234, -585.1241776174866, -588.6135042761452, -594.6440929546952, 0.6400000303983688, 0.7360000349581242, 0.3840000182390213, 0.0, 0.0, 0.0, 0.0, 0.0, 1.7103956441876917E9, 0.0, 2024-03-13 22:54:04.187
52.0, -899.3561817444861, -589.1370902699418, -582.356651650276, -598.6158667076379, 0.6400000303983688, 0.7360000349581242, 0.3840000182390213, 0.0, 0.0, 0.0, 0.0, 0.0, 1.7103956441876917E9, 0.0, 2024-03-13 22:54:04.187
53.0, -894.726185599342, -578.7476481930353, -588.0076404833235, -590.6386601021513, 0.6400000303983688, 0.7360000349581242, 0.3840000182390213, 0.0, 0.0, 0.0, 0.0, 0.0, 1.7103956442013538E9, 0.0, 2024-03-13 22:54:04.201
53.0, -894.520491101779, -577.6967363054864, -573.0293411607854, -578.7308186432347, 0.6400000303983688, 0.7360000349581242, 0.3840000182390213, 0.0, 0.0, 0.0, 0.0, 0.0, 1.7103956442013538E9, 0.0, 2024-03-13 22:54:04.201
54.0, -892.5458239251748, -586.0554127064534, -576.7505416166969, -589.6812457134947, 0.6400000303983688, 0.7360000349581242, 0.3840000182390213, 0.0, 0.0, 0.0, 0.0, 0.0, 1.7103956442166636E9, 0.0, 2024-03-13 22:54:04.216
54.0, -893.6790136117488, -582.9999144426547, -589.0772518706508, -591.9513649865985, 0.6400000303983688, 0.7360000349581242, 0.3840000182390213, 0.0, 0.0, 0.0, 0.0, 0.0, 1.7103956442166636E9, 0.0, 2024-03-13 22:54:04.216
55.0, -895.148794294335, -582.5997451473959, -590.9509417484514, -592.6918651778251, 0.6400000303983688, 0.7360000349581242, 0.3840000182390213, 0.0, 0.0, 0.0, 0.0, 0.0, 1.710395644217595E9, 0.0, 2024-03-13 22:54:04.217
55.0, -891.8277631336823, -584.6641699229367, -582.1920960522257, -590.5788217028603, 0.6400000303983688, 0.7360000349581242, 0.3840000182390213, 0.0, 0.0, 0.0, 0.0, 0.0, 1.710395644217595E9, 0.0, 2024-03-13 22:54:04.217
56.0, -894.4456931026652, -580.0865323771723, -575.4565362320282, -586.6444469494745, 0.6400000303983688, 0.7360000349581242, 0.3840000182390213, 0.0, 0.0, 0.0, 0.0, 0.0, 1.7103956442311685E9, 0.0, 2024-03-13 22:54:04.231
56.0, -892.2728112284094, -568.8144739107229, -588.8865169729106, -579.4077405352145, 0.6400000303983688, 0.7360000349581242, 0.3840000182390213, 0.0, 0.0, 0.0, 0.0, 0.0, 1.7103956442311685E9, 0.0, 2024-03-13 22:54:04.231
57.0, -882.3770359456539, -564.6183061604388, -579.8920575794764, -580.4923115223646, 0.6400000303983688, 0.7360000349581242, 0.3840000182390213, 0.0, 0.0, 0.0, 0.0, 0.0, 1.7103956442466128E9, 0.0, 2024-03-13 22:54:04.246
57.0, -883.2409528354183, -563.892765569035, -575.7370287287049, -579.7854704307392, 0.6400000303983688, 0.7360000349581242, 0.3840000182390213, 0.0, 0.0, 0.0, 0.0, 0.0, 1.7103956442466128E9, 0.0, 2024-03-13 22:54:04.246
58.0, -882.8594830399379, -564.8427001577802, -585.4345893138088, -582.0892488034442, 0.6400000303983688, 0.7360000349581242, 0.3840000182390213, 0.0, 0.0, 0.0, 0.0, 0.0, 1.7103956442473948E9, 0.0, 2024-03-13 22:54:04.247
58.0, -874.826177935116, -562.9166516805999, -576.8178598158993, -578.5513034453616, 0.6400000303983688, 0.7360000349581242, 0.3840000182390213, 0.0, 0.0, 0.0, 0.0, 0.0, 1.7103956442473948E9, 0.0, 2024-03-13 22:54:04.247
59.0, -876.598890514113, -562.4865631856956, -568.7060168120079, -577.6425077561289, 0.6400000303983688, 0.7360000349581242, 0.3840000182390213, 0.0, 0.0, 0.0, 0.0, 0.0, 1.7103956442609973E9, 0.0, 2024-03-13 22:54:04.260
59.0, -879.4524341803044, -562.4192449864931, -574.4467632439919, -579.9799452284351, 0.6400000303983688, 0.7360000349581242, 0.3840000182390213, 0.0, 0.0, 0.0, 0.0, 0.0, 1.7103956442609973E9, 0.0, 2024-03-13 22:54:04.260
60.0, -887.9681863794103, -568.1338121187873, -583.7329348339699, -581.3861476117745, 0.6400000303983688, 0.7360000349581242, 0.3840000182390213, 0.0, 0.0, 0.0, 0.0, 0.0, 1.710395644276658E9, 0.0, 2024-03-13 22:54:04.276
60.0, -890.6048158481717, -571.9185908739455, -580.6101183709688, -584.7557974718511, 0.6400000303983688, 0.7360000349581242, 0.3840000182390213, 0.0, 0.0, 0.0, 0.0, 0.0, 1.710395644276658E9, 0.0, 2024-03-13 22:54:04.276
61.0, -900.7399447280914, -579.3198528862558, -583.153250340838, -588.9856243217364, 0.6400000303983688, 0.7520000357180834, 0.3840000182390213, 0.0, 0.0, 0.0, 0.0, 0.0, 1.7103956442773445E9, 0.0, 2024-03-13 22:54:04.277
61.0, -874.5868243379518, -556.8654935522936, -569.0837467075326, -564.362123013474, 0.6400000303983688, 0.7520000357180834, 0.3840000182390213, 0.0, 0.0, 0.0, 0.0, 0.0, 1.7103956442773445E9, 0.0, 2024-03-13 22:54:04.277
62.0, -894.4082941031083, -569.2520422055386, -575.0451472369023, -575.0133580872789, 0.6400000303983688, 0.7520000357180834, 0.3840000182390213, 0.0, 0.0, 0.0, 0.0, 0.0, 1.7103956442910185E9, 0.0, 2024-03-13 22:54:04.291
62.0, -905.6616530697793, -584.0844854298048, -585.1952357166447, -589.08660162054, 0.6400000303983688, 0.7520000357180834, 0.3840000182390213, 0.0, 0.0, 0.0, 0.0, 0.0, 1.7103956442910185E9, 0.0, 2024-03-13 22:54:04.291
63.0, -888.2711182758212, -570.9873557849787, -574.8469325392507, -579.0599298393354, 0.6400000303983688, 0.7520000357180834, 0.3840000182390213, 0.0, 0.0, 0.0, 0.0, 0.0, 1.7103956443066912E9, 0.0, 2024-03-13 22:54:04.306
63.0, -886.6442617950961, -570.7741814875044, -571.8961514742114, -576.1502876738086, 0.6400000303983688, 0.7520000357180834, 0.3840000182390213, 0.0, 0.0, 0.0, 0.0, 0.0, 1.7103956443066912E9, 0.0, 2024-03-13 22:54:04.306
64.0, -891.4687327379361, -576.1484177238308, -578.9570825905539, -586.8501414470375, 0.6400000303983688, 0.7520000357180834, 0.3840000182390213, 0.0, 0.0, 0.0, 0.0, 0.0, 1.7103956443073459E9, 0.0, 2024-03-13 22:54:04.307
64.0, -890.2831844519824, -577.9173904028721, -578.7663476928137, -580.608248420991, 0.6400000303983688, 0.7520000357180834, 0.3840000182390213, 0.0, 0.0, 0.0, 0.0, 0.0, 1.7103956443073459E9, 0.0, 2024-03-13 22:54:04.307
65.0, -904.9435922782868, -579.1814765878953, -591.1715958458371, -594.7301106536761, 0.6400000303983688, 0.7520000357180834, 0.3840000182390213, 0.0, 0.0, 0.0, 0.0, 0.0, 1.710395644321164E9, 0.0, 2024-03-13 22:54:04.321
65.0, -907.0678554531187, -586.8931502965279, -591.9831541362219, -597.9950433149934, 0.6400000303983688, 0.7520000357180834, 0.3840000182390213, 0.0, 0.0, 0.0, 0.0, 0.0, 1.710395644321164E9, 0.0, 2024-03-13 22:54:04.321
66.0, -900.7137654284015, -592.5329194297083, -598.6214765575714, -603.825547345914, 0.6400000303983688, 0.7520000357180834, 0.3840000182390213, 0.0, 0.0, 0.0, 0.0, 0.0, 1.7103956443370323E9, 0.0, 2024-03-13 22:54:04.337
66.0, -904.001137489453, -591.9345354367979, -607.346663154196, -604.6707647358999, 0.6400000303983688, 0.7520000357180834, 0.3840000182390213, 0.0, 0.0, 0.0, 0.0, 0.0, 1.7103956443370323E9, 0.0, 2024-03-13 22:54:04.337
67.0, -900.1153814354911, -589.0323730711825, -598.2998451613821, -603.4852164499462, 0.6400000303983688, 0.7520000357180834, 0.3840000182390213, 0.0, 0.0, 0.0, 0.0, 0.0, 1.7103956443374097E9, 0.0, 2024-03-13 22:54:04.337
67.0, -892.0072783315554, -582.0649394537322, -593.7409071153961, -602.0004761675373, 0.6400000303983688, 0.7520000357180834, 0.3840000182390213, 0.0, 0.0, 0.0, 0.0, 0.0, 1.7103956443374097E9, 0.0, 2024-03-13 22:54:04.337
68.0, -889.2771513639018, -576.1932965232991, -597.4770671711303, -592.6769055780023, 0.6400000303983688, 0.7520000357180834, 0.3840000182390213, 0.0, 0.0, 0.0, 0.0, 0.0, 1.7103956443510215E9, 0.0, 2024-03-13 22:54:04.351
68.0, -915.4489712538198, -598.9206685540266, -606.6809609620832, -612.6965900408104, 0.6400000303983688, 0.7520000357180834, 0.3840000182390213, 0.0, 0.0, 0.0, 0.0, 0.0, 1.7103956443510215E9, 0.0, 2024-03-13 22:54:04.351
69.0, -919.0841540107504, -604.5903568868525, -595.5061398944817, -619.2002760637552, 0.6400000303983688, 0.7520000357180834, 0.3840000182390213, 0.0, 0.0, 0.0, 0.0, 0.0, 1.7103956443666968E9, 0.0, 2024-03-13 22:54:04.366
69.0, -914.2073244685307, -602.3875558129512, -597.4172287718393, -608.227409593761, 0.6400000303983688, 0.7520000357180834, 0.3840000182390213, 0.0, 0.0, 0.0, 0.0, 0.0, 1.7103956443666968E9, 0.0, 2024-03-13 22:54:04.366
70.0, -915.591087452136, -602.0808840165846, -601.6694950214587, -610.2731348695233, 0.6400000303983688, 0.7520000357180834, 0.3840000182390213, 0.0, 0.0, 0.0, 0.0, 0.0, 1.710395644367373E9, 0.0, 2024-03-13 22:54:04.367
70.0, -918.6652852157131, -612.1075557977892, -595.9773672888987, -610.7518420638517, 0.6400000303983688, 0.7520000357180834, 0.3840000182390213, 0.0, 0.0, 0.0, 0.0, 0.0, 1.710395644367373E9, 0.0, 2024-03-13 22:54:04.367
71.0, -935.6294714147225, -616.0531502510421, -604.6950740856119, -618.0072479778901, 0.6400000303983688, 0.7360000349581242, 0.3840000182390213, 0.0, 0.0, 0.0, 0.0, 0.0, 1.710395644381034E9, 0.0, 2024-03-13 22:54:04.381
71.0, -916.0099562471732, -600.2782522379421, -597.7799990675412, -600.8485869811848, 0.6400000303983688, 0.7360000349581242, 0.3840000182390213, 0.0, 0.0, 0.0, 0.0, 0.0, 1.710395644381034E9, 0.0, 2024-03-13 22:54:04.381
72.0, -917.9696638239548, -606.2770517668687, -587.2933195917867, -601.7835619701073, 0.6400000303983688, 0.7360000349581242, 0.3840000182390213, 0.0, 0.0, 0.0, 0.0, 0.0, 1.7103956443966393E9, 0.0, 2024-03-13 22:54:04.396
72.0, -913.081614581868, -600.9701337297447, -582.4164900495671, -602.6250394601375, 0.6400000303983688, 0.7360000349581242, 0.3840000182390213, 0.0, 0.0, 0.0, 0.0, 0.0, 1.7103956443966393E9, 0.0, 2024-03-13 22:54:04.396
73.0, -915.2731959559023, -603.1056166044436, -591.8185985381715, -599.6480790954083, 0.6400000303983688, 0.7360000349581242, 0.3840000182390213, 0.0, 0.0, 0.0, 0.0, 0.0, 1.7103956443973775E9, 0.0, 2024-03-13 22:54:04.397
73.0, -897.7854237630963, -587.6074711880647, -576.6308648181148, -584.1312341792509, 0.6400000303983688, 0.7360000349581242, 0.3840000182390213, 0.0, 0.0, 0.0, 0.0, 0.0, 1.7103956443973775E9, 0.0, 2024-03-13 22:54:04.397
74.0, -912.7487634858117, -605.7272864733823, -594.4327886071987, -605.6393988244236, 0.6400000303983688, 0.7360000349581242, 0.3840000182390213, 0.0, 0.0, 0.0, 0.0, 0.0, 1.7103956444110954E9, 0.0, 2024-03-13 22:54:04.411
74.0, -913.5378823764622, -601.4114419245161, -598.5765977581032, -607.3373134043068, 0.6400000303983688, 0.7360000349581242, 0.3840000182390213, 0.0, 0.0, 0.0, 0.0, 0.0, 1.7103956444110954E9, 0.0, 2024-03-13 22:54:04.411
75.0, -915.1946580568328, -602.7353665088303, -599.1637620511465, -607.0605608075857, 0.6400000303983688, 0.7360000349581242, 0.3840000182390213, 0.0, 0.0, 0.0, 0.0, 0.0, 1.7103956444270484E9, 0.0, 2024-03-13 22:54:04.427
75.0, -915.7893021497875, -601.9649471179582, -596.1456627869047, -603.462777050212, 0.6400000303983688, 0.7360000349581242, 0.3840000182390213, 0.0, 0.0, 0.0, 0.0, 0.0, 1.7103956444270484E9, 0.0, 2024-03-13 22:54:04.427
76.0, -908.6348735345528, -598.879529654514, -596.3924961839803, -602.871872857213, 0.6400000303983688, 0.7360000349581242, 0.3840000182390213, 0.0, 0.0, 0.0, 0.0, 0.0, 1.7103956444273949E9, 0.0, 2024-03-13 22:54:04.427
76.0, -911.5071167005226, -598.7897720555775, -602.6418690099381, -605.549641225487, 0.6400000303983688, 0.7360000349581242, 0.3840000182390213, 0.0, 0.0, 0.0, 0.0, 0.0, 1.7103956444273949E9, 0.0, 2024-03-13 22:54:04.427
77.0, -907.4904641481116, -598.9206685540266, -597.8585369666107, -602.7409763587639, 0.6400000303983688, 0.7360000349581242, 0.3840000182390213, 0.0, 0.0, 0.0, 0.0, 0.0, 1.7103956444410443E9, 0.0, 2024-03-13 22:54:04.441
77.0, -922.5435614697635, -611.2698182077147, -602.4286947124638, -613.2276558345184, 0.6400000303983688, 0.7360000349581242, 0.3840000182390213, 0.0, 0.0, 0.0, 0.0, 0.0, 1.7103956444410443E9, 0.0, 2024-03-13 22:54:04.441
78.0, -921.3243540842086, -611.2997374073602, -610.2637851196341, -613.8896181266755, 0.6400000303983688, 0.7360000349581242, 0.3840000182390213, 0.0, 0.0, 0.0, 0.0, 0.0, 1.710395644456657E9, 0.0, 2024-03-13 22:54:04.456
78.0, -912.4159123897552, -604.6165361865424, -590.835004849825, -601.256236076355, 0.6400000303983688, 0.7360000349581242, 0.3840000182390213, 0.0, 0.0, 0.0, 0.0, 0.0, 1.710395644456657E9, 0.0, 2024-03-13 22:54:04.456
79.0, -919.6114799045026, -606.1685946681537, -590.0945046585985, -602.763415758498, 0.6400000303983688, 0.7360000349581242, 0.3840000182390213, 0.0, 0.0, 0.0, 0.0, 0.0, 1.7103956444574008E9, 0.0, 2024-03-13 22:54:04.457
79.0, -913.9006526721641, -596.4972133827396, -583.8563515325077, -596.6337197311223, 0.6400000303983688, 0.7360000349581242, 0.3840000182390213, 0.0, 0.0, 0.0, 0.0, 0.0, 1.7103956444574008E9, 0.0, 2024-03-13 22:54:04.457
80.0, -894.038044007495, -576.4850087198429, -573.986755549442, -580.5521499216557, 0.6400000303983688, 0.7360000349581242, 0.3840000182390213, 0.0, 0.0, 0.0, 0.0, 0.0, 1.7103956444712708E9, 0.0, 2024-03-13 22:54:04.471
80.0, -906.3273552618921, -587.8505646851845, -578.5008147959597, -589.3783138170838, 0.6400000303983688, 0.7360000349581242, 0.3840000182390213, 0.0, 0.0, 0.0, 0.0, 0.0, 1.7103956444712708E9, 0.0, 2024-03-13 22:54:04.471
81.0, -914.8730266606435, -591.5119267418049, -583.6917959344573, -591.7232310893014, 0.6400000303983688, 0.7360000349581242, 0.3840000182390213, 0.0, 0.0, 0.0, 0.0, 0.0, 1.7103956444871101E9, 0.0, 2024-03-13 22:54:04.487
81.0, -902.7632306041196, -591.6428232402541, -589.0660321707837, -591.8092487882823, 0.6400000303983688, 0.7360000349581242, 0.3840000182390213, 0.0, 0.0, 0.0, 0.0, 0.0, 1.7103956444871101E9, 0.0, 2024-03-13 22:54:04.487
82.0, -898.2080324580893, -588.1385369817726, -583.6095181354322, -589.3222153177485, 0.6400000303983688, 0.7360000349581242, 0.3840000182390213, 0.0, 0.0, 0.0, 0.0, 0.0, 1.7103956444875643E9, 0.0, 2024-03-13 22:54:04.487
82.0, -904.060975888744, -589.1071710702963, -586.9455088959076, -597.662192218937, 0.6400000303983688, 0.7360000349581242, 0.3840000182390213, 0.0, 0.0, 0.0, 0.0, 0.0, 1.7103956444875643E9, 0.0, 2024-03-13 22:54:04.487
83.0, -910.0635153176263, -590.3600375554524, -593.0752049232833, -594.875966751948, 0.6400000303983688, 0.7360000349581242, 0.3840000182390213, 0.0, 0.0, 0.0, 0.0, 0.0, 1.710395644500996E9, 0.0, 2024-03-13 22:54:04.500
83.0, -908.4329189369455, -584.3724577263929, -589.5148201654665, -592.14957968425, 0.6400000303983688, 0.7360000349581242, 0.3840000182390213, 0.0, 0.0, 0.0, 0.0, 0.0, 1.710395644500996E9, 0.0, 2024-03-13 22:54:04.500
84.0, -899.285123645328, -580.6736966702156, -579.5180675839074, -588.4433388281614, 0.6400000303983688, 0.7360000349581242, 0.3840000182390213, 0.0, 0.0, 0.0, 0.0, 0.0, 1.7103956445168867E9, 0.0, 2024-03-13 22:54:04.516
84.0, -892.1905334293842, -574.6038390421309, -590.449795154389, -589.6737659135833, 0.6400000303983688, 0.7360000349581242, 0.3840000182390213, 0.0, 0.0, 0.0, 0.0, 0.0, 1.7103956445168867E9, 0.0, 2024-03-13 22:54:04.516
85.0, -895.3395291920751, -577.3451857096516, -595.9324884894304, -590.7284177010879, 0.6400000303983688, 0.7360000349581242, 0.3840000182390213, 0.0, 0.0, 0.0, 0.0, 0.0, 1.7103956445175924E9, 0.0, 2024-03-13 22:54:04.517
85.0, -891.9362202323973, -579.619044882711, -596.3775365841575, -593.1668324721977, 0.6400000303983688, 0.7360000349581242, 0.3840000182390213, 0.0, 0.0, 0.0, 0.0, 0.0, 1.7103956445175924E9, 0.0, 2024-03-13 22:54:04.517
86.0, -891.5622302368283, -578.594312294852, -594.6609225044958, -593.5520421676338, 0.6400000303983688, 0.7360000349581242, 0.3840000182390213, 0.0, 0.0, 0.0, 0.0, 0.0, 1.7103956445473542E9, 0.0, 2024-03-13 22:54:04.547
86.0, -885.1183826131746, -565.8786524455063, -590.9584215483628, -582.2089256020263, 0.6400000303983688, 0.7360000349581242, 0.3840000182390213, 0.0, 0.0, 0.0, 0.0, 0.0, 1.7103956445473542E9, 0.0, 2024-03-13 22:54:04.547
87.0, -889.1013760659844, -574.0241545489989, -581.8068863567896, -584.527663574554, 0.6400000303983688, 0.7360000349581242, 0.3840000182390213, 0.0, 0.0, 0.0, 0.0, 0.0, 1.710395644548076E9, 0.0, 2024-03-13 22:54:04.548
87.0, -883.4391675330698, -568.7920345109887, -571.092072983738, -581.3412688123062, 0.6400000303983688, 0.7360000349581242, 0.3840000182390213, 0.0, 0.0, 0.0, 0.0, 0.0, 1.710395644548076E9, 0.0, 2024-03-13 22:54:04.548
88.0, -897.246878169477, -576.8290795157664, -592.5179598298855, -593.9222922632471, 0.6400000303983688, 0.7360000349581242, 0.3840000182390213, 0.0, 0.0, 0.0, 0.0, 0.0, 1.710395644548834E9, 0.0, 2024-03-13 22:54:04.548
88.0, -894.7374052992091, -579.2039159876294, -592.8508109259419, -596.5364823322743, 0.6400000303983688, 0.7360000349581242, 0.3840000182390213, 0.0, 0.0, 0.0, 0.0, 0.0, 1.710395644548834E9, 0.0, 2024-03-13 22:54:04.548
89.0, -906.1179208643734, -591.5007070419379, -594.8441776023246, -602.438044462353, 0.6400000303983688, 0.7360000349581242, 0.3840000182390213, 0.0, 0.0, 0.0, 0.0, 0.0, 1.71039564456101E9, 0.0, 2024-03-13 22:54:04.561
89.0, -903.096081700176, -586.0928117060103, -594.3879098077305, -598.7729425057769, 0.6400000303983688, 0.7360000349581242, 0.3840000182390213, 0.0, 0.0, 0.0, 0.0, 0.0, 1.71039564456101E9, 0.0, 2024-03-13 22:54:04.561
90.0, -897.9873783607036, -579.4881483842619, -590.5993911526166, -588.7948894239962, 0.6400000303983688, 0.7360000349581242, 0.3840000182390213, 0.0, 0.0, 0.0, 0.0, 0.0, 1.7103956445767179E9, 0.0, 2024-03-13 22:54:04.576
90.0, -893.2115261172876, -575.8791449270211, -586.2124885045923, -589.8495412115008, 0.6400000303983688, 0.7360000349581242, 0.3840000182390213, 0.0, 0.0, 0.0, 0.0, 0.0, 1.7103956445767179E9, 0.0, 2024-03-13 22:54:04.576
91.0, -899.8835076382384, -583.6020383355208, -590.7789063504897, -592.9798374744132, 0.6400000303983688, 0.7360000349581242, 0.3840000182390213, 0.0, 0.0, 0.0, 0.0, 0.0, 1.7103956445774012E9, 0.0, 2024-03-13 22:54:04.577
91.0, -901.3383287210017, -579.4283099849708, -597.0581983760931, -591.0612687971443, 0.6400000303983688, 0.7360000349581242, 0.3840000182390213, 0.0, 0.0, 0.0, 0.0, 0.0, 1.7103956445774012E9, 0.0, 2024-03-13 22:54:04.577
92.0, -894.3484557038173, -575.8941045268439, -578.6504107941873, -583.3757743882015, 0.6400000303983688, 0.7360000349581242, 0.3840000182390213, 0.0, 0.0, 0.0, 0.0, 0.0, 1.7103956445910032E9, 0.0, 2024-03-13 22:54:04.591
92.0, -903.9637384898961, -583.8787909322418, -581.874204555992, -591.4913572920486, 0.6400000303983688, 0.7360000349581242, 0.3840000182390213, 0.0, 0.0, 0.0, 0.0, 0.0, 1.7103956445910032E9, 0.0, 2024-03-13 22:54:04.591
93.0, -892.3775284271687, -571.9111110740341, -589.0660321707837, -586.2330579543486, 0.6400000303983688, 0.7360000349581242, 0.3840000182390213, 0.0, 0.0, 0.0, 0.0, 0.0, 1.710395644606733E9, 0.0, 2024-03-13 22:54:04.606
93.0, -897.5797292655334, -571.092072983738, -582.2145354519598, -581.7189987078309, 0.6400000303983688, 0.7360000349581242, 0.3840000182390213, 0.0, 0.0, 0.0, 0.0, 0.0, 1.710395644606733E9, 0.0, 2024-03-13 22:54:04.606
94.0, -905.3475014735013, -587.2110417927615, -584.5407532243989, -597.3443007227033, 0.6400000303983688, 0.7360000349581242, 0.3840000182390213, 0.0, 0.0, 0.0, 0.0, 0.0, 1.710395644607478E9, 0.0, 2024-03-13 22:54:04.607
94.0, -900.3173360330984, -578.4596758964472, -579.9107570792548, -584.6772595727816, 0.6400000303983688, 0.7360000349581242, 0.3840000182390213, 0.0, 0.0, 0.0, 0.0, 0.0, 1.710395644607478E9, 0.0, 2024-03-13 22:54:04.607
95.0, -914.192364868708, -589.8289717617445, -591.9008763371967, -592.2804761826992, 0.6400000303983688, 0.7360000349581242, 0.3840000182390213, 0.0, 0.0, 0.0, 0.0, 0.0, 1.7103956446210082E9, 0.0, 2024-03-13 22:54:04.621
95.0, -923.4112182594836, -597.4957666709088, -589.4662014660425, -598.8477405048907, 0.6400000303983688, 0.7360000349581242, 0.3840000182390213, 0.0, 0.0, 0.0, 0.0, 0.0, 1.7103956446210082E9, 0.0, 2024-03-13 22:54:04.621
96.0, -903.4476322960109, -584.3238390269689, -567.1389987305738, -580.8064631186426, 0.6400000303983688, 0.7360000349581242, 0.3840000182390213, 0.0, 0.0, 0.0, 0.0, 0.0, 1.7103956446370127E9, 0.0, 2024-03-13 22:54:04.637
96.0, -910.3776669139042, -584.6155512235127, -576.7468017167412, -585.0138505687937, 0.6400000303983688, 0.7360000349581242, 0.3840000182390213, 0.0, 0.0, 0.0, 0.0, 0.0, 1.7103956446370127E9, 0.0, 2024-03-13 22:54:04.637
97.0, -912.9020993839949, -594.3392911083065, -578.5157743957825, -595.6015073433518, 0.6400000303983688, 0.7360000349581242, 0.3840000182390213, 0.0, 0.0, 0.0, 0.0, 0.0, 1.7103956446376448E9, 0.0, 2024-03-13 22:54:04.637
97.0, -919.7797754025087, -593.9727809126489, -558.5895874318667, -585.709471960552, 0.6400000303983688, 0.7360000349581242, 0.3840000182390213, 0.0, 0.0, 0.0, 0.0, 0.0, 1.7103956446376448E9, 0.0, 2024-03-13 22:54:04.637
98.0, -921.5188288819045, -596.9834003769793, -580.7335350695066, -590.1749125076458, 0.6400000303983688, 0.7360000349581242, 0.3840000182390213, 0.0, 0.0, 0.0, 0.0, 0.0, 1.7103956446510115E9, 0.0, 2024-03-13 22:54:04.651
98.0, -926.530294822529, -603.2776520024054, -593.7596066151746, -601.4058320745826, 0.6400000303983688, 0.7360000349581242, 0.3840000182390213, 0.0, 0.0, 0.0, 0.0, 0.0, 1.7103956446510115E9, 0.0, 2024-03-13 22:54:04.651
99.0, -941.0411066506058, -619.142307614442, -591.3922499432229, -608.8557127863169, 0.6400000303983688, 0.7360000349581242, 0.3840000182390213, 0.0, 0.0, 0.0, 0.0, 0.0, 1.7103956446667073E9, 0.0, 2024-03-13 22:54:04.666
99.0, -950.5142732383683, -628.7949894000776, -600.5363053348847, -612.3001606455073, 0.6400000303983688, 0.7360000349581242, 0.3840000182390213, 0.0, 0.0, 0.0, 0.0, 0.0, 1.7103956446667073E9, 0.0, 2024-03-13 22:54:04.666
100.0, -941.5609527444467, -617.0180444396101, -597.6827616686933, -607.7038235999644, 0.6400000303983688, 0.7360000349581242, 0.3840000182390213, 0.0, 0.0, 0.0, 0.0, 0.0, 1.7103956446675522E9, 0.0, 2024-03-13 22:54:04.667
100.0, -937.5667395917699, -619.6284946086816, -589.3091256679036, -609.0127885844558, 0.6400000303983688, 0.7360000349581242, 0.3840000182390213, 0.0, 0.0, 0.0, 0.0, 0.0, 1.7103956446675522E9, 0.0, 2024-03-13 22:54:04.667
0.0, -917.6218531280756, -600.6241929838434, -585.5467863124795, -595.4575211950578, 0.6400000303983688, 0.7360000349581242, 0.3840000182390213, 0.0, 0.0, 0.0, 0.0, 0.0, 1.7103956446816788E9, 0.0, 2024-03-13 22:54:04.681
1.0, -927.3007142134011, -602.221130264923, -601.2581060263328, -602.4473942122422, 0.6400000303983688, 0.7360000349581242, 0.3840000182390213, 0.0, 0.0, 0.0, 0.0, 0.0, 1.710395644682409E9, 0.0, 2024-03-13 22:54:04.682
1.0, -918.160398721695, -603.9190448448062, -585.3934504142962, -596.5944507815875, 0.6400000303983688, 0.7360000349581242, 0.3840000182390213, 0.0, 0.0, 0.0, 0.0, 0.0, 1.710395644682409E9, 0.0, 2024-03-13 22:54:04.682
2.0, -918.6839847154915, -599.0496951024979, -579.402130685281, -597.3386908727698, 0.6400000303983688, 0.7360000349581242, 0.3840000182390213, 0.0, 0.0, 0.0, 0.0, 0.0, 1.7103956446959991E9, 0.0, 2024-03-13 22:54:04.695
2.0, -930.3262932775542, -611.9860090492293, -598.3559436607175, -606.9390140590258, 0.6400000303983688, 0.7360000349581242, 0.3840000182390213, 0.0, 0.0, 0.0, 0.0, 0.0, 1.7103956446959991E9, 0.0, 2024-03-13 22:54:04.695
3.0, -934.7206757254899, -609.3979982798919, -602.6231695101596, -607.4214611533098, 0.6400000303983688, 0.7360000349581242, 0.3840000182390213, 0.0, 0.0, 0.0, 0.0, 0.0, 1.7103956447118118E9, 0.0, 2024-03-13 22:54:04.711
3.0, -929.2641616901383, -608.5340813901275, -587.4092564904131, -611.8495027008466, 0.6400000303983688, 0.7360000349581242, 0.3840000182390213, 0.0, 0.0, 0.0, 0.0, 0.0, 1.7103956447118118E9, 0.0, 2024-03-13 22:54:04.711
4.0, -924.2040770500898, -610.531187966466, -597.1629155748524, -609.4597066291608, 0.6400000303983688, 0.7360000349581242, 0.3840000182390213, 0.0, 0.0, 0.0, 0.0, 0.0, 1.7103956447123587E9, 0.0, 2024-03-13 22:54:04.712
4.0, -917.5881940284744, -604.5623076371849, -579.4170902851038, -593.4978136182763, 0.6400000303983688, 0.7360000349581242, 0.3840000182390213, 0.0, 0.0, 0.0, 0.0, 0.0, 1.7103956447123587E9, 0.0, 2024-03-13 22:54:04.712
5.0, -922.6108796689659, -602.823254157789, -580.0266939778812, -598.8982291542925, 0.6400000303983688, 0.7360000349581242, 0.3840000182390213, 0.0, 0.0, 0.0, 0.0, 0.0, 1.7103956447260249E9, 0.0, 2024-03-13 22:54:04.726
5.0, -924.6416453449056, -607.9394372971728, -584.16676322883, -604.5641775871627, 0.6400000303983688, 0.7360000349581242, 0.3840000182390213, 0.0, 0.0, 0.0, 0.0, 0.0, 1.7103956447260249E9, 0.0, 2024-03-13 22:54:04.726
6.0, -918.2987750200555, -598.0249625146389, -582.3641314501874, -592.3047855324112, 0.6400000303983688, 0.7360000349581242, 0.3840000182390213, 0.0, 0.0, 0.0, 0.0, 0.0, 1.7103956447419262E9, 0.0, 2024-03-13 22:54:04.741
6.0, -915.7818223498762, -595.4818305447698, -574.5813996423967, -592.2748663327657, 0.6400000303983688, 0.7360000349581242, 0.3840000182390213, 0.0, 0.0, 0.0, 0.0, 0.0, 1.7103956447419262E9, 0.0, 2024-03-13 22:54:04.741
7.0, -909.3716338258237, -593.0658551733941, -574.7197759407572, -589.2044084691443, 0.6400000303983688, 0.7360000349581242, 0.3840000182390213, 0.0, 0.0, 0.0, 0.0, 0.0, 1.7103956447426035E9, 0.0, 2024-03-13 22:54:04.742
7.0, -912.4720108890906, -591.8316881880164, -581.4815150606446, -588.6135042761452, 0.6400000303983688, 0.7360000349581242, 0.3840000182390213, 0.0, 0.0, 0.0, 0.0, 0.0, 1.7103956447426035E9, 0.0, 2024-03-13 22:54:04.742
8.0, -901.6749197170138, -583.3383753886446, -568.3694258159958, -583.0186139424331, 0.6400000303983688, 0.7360000349581242, 0.3840000182390213, 0.0, 0.0, 0.0, 0.0, 0.0, 1.7103956447560513E9, 0.0, 2024-03-13 22:54:04.756
8.0, -906.9257392548025, -589.1314804200083, -555.956697863061, -578.4746354962699, 0.6400000303983688, 0.7360000349581242, 0.3840000182390213, 0.0, 0.0, 0.0, 0.0, 0.0, 1.7103956447560513E9, 0.0, 2024-03-13 22:54:04.756
9.0, -919.8096946021542, -598.1483792131767, -595.8576904903166, -601.9125885185786, 0.6400000303983688, 0.7360000349581242, 0.3840000182390213, 0.0, 0.0, 0.0, 0.0, 0.0, 1.7103956447720256E9, 0.0, 2024-03-13 22:54:04.772
9.0, -913.4593444773927, -596.0989140374586, -604.5940967868082, -607.3728424538858, 0.6400000303983688, 0.7360000349581242, 0.3840000182390213, 0.0, 0.0, 0.0, 0.0, 0.0, 1.7103956447720256E9, 0.0, 2024-03-13 22:54:04.772
10.0, -908.3095022384077, -587.9945508334786, -587.8543045851402, -594.7058013039641, 0.6400000303983688, 0.7360000349581242, 0.3840000182390213, 0.0, 0.0, 0.0, 0.0, 0.0, 1.7103956447726443E9, 0.0, 2024-03-13 22:54:04.772
10.0, -903.6458469936624, -584.5127039747313, -584.1218844293617, -592.7423538272269, 0.6400000303983688, 0.7360000349581242, 0.3840000182390213, 0.0, 0.0, 0.0, 0.0, 0.0, 1.7103956447726443E9, 0.0, 2024-03-13 22:54:04.772
11.0, -900.2761971335858, -578.8766747415066, -590.6255704523064, -590.9659013482742, 0.6400000303983688, 0.7520000357180834, 0.3840000182390213, 0.0, 0.0, 0.0, 0.0, 0.0, 1.7103956447865329E9, 0.0, 2024-03-13 22:54:04.786
11.0, -903.2681170981377, -578.0314573515207, -578.5082945958711, -587.495274189394, 0.6400000303983688, 0.7520000357180834, 0.3840000182390213, 0.0, 0.0, 0.0, 0.0, 0.0, 1.7103956447865329E9, 0.0, 2024-03-13 22:54:04.786
12.0, -913.130233281292, -592.4338120808825, -575.5126347313635, -593.7446470153518, 0.6400000303983688, 0.7520000357180834, 0.3840000182390213, 0.0, 0.0, 0.0, 0.0, 0.0, 1.7103956448017173E9, 0.0, 2024-03-13 22:54:04.801
12.0, -902.4864780073985, -581.2814304130152, -576.71314261714, -579.8583984798752, 0.6400000303983688, 0.7520000357180834, 0.3840000182390213, 0.0, 0.0, 0.0, 0.0, 0.0, 1.7103956448017173E9, 0.0, 2024-03-13 22:54:04.801
13.0, -893.604215612635, -577.4181137587875, -567.2399760293774, -581.6198913590051, 0.6400000303983688, 0.7520000357180834, 0.3840000182390213, 0.0, 0.0, 0.0, 0.0, 0.0, 1.710395644802637E9, 0.0, 2024-03-13 22:54:04.802
13.0, -902.3929805085063, -587.2989294417202, -575.5874327304773, -590.2665400565602, 0.6400000303983688, 0.7520000357180834, 0.3840000182390213, 0.0, 0.0, 0.0, 0.0, 0.0, 1.710395644802637E9, 0.0, 2024-03-13 22:54:04.802
14.0, -900.7736038276926, -583.2747970893979, -575.1012457362376, -581.8106262567453, 0.6400000303983688, 0.7520000357180834, 0.3840000182390213, 0.0, 0.0, 0.0, 0.0, 0.0, 1.7103956448163848E9, 0.0, 2024-03-13 22:54:04.816
14.0, -902.1685865111649, -580.0360437277704, -580.4642622726969, -579.8172595803626, 0.6400000303983688, 0.7520000357180834, 0.3840000182390213, 0.0, 0.0, 0.0, 0.0, 0.0, 1.7103956448163848E9, 0.0, 2024-03-13 22:54:04.816
15.0, -898.7129189521074, -585.1858859667554, -571.3613457805477, -583.4599221372046, 0.6400000303983688, 0.7520000357180834, 0.3840000182390213, 0.0, 0.0, 0.0, 0.0, 0.0, 1.7103956448318355E9, 0.0, 2024-03-13 22:54:04.831
15.0, -902.9315261021256, -590.593781302683, -579.727501981426, -589.8551510614343, 0.6400000303983688, 0.7520000357180834, 0.3840000182390213, 0.0, 0.0, 0.0, 0.0, 0.0, 1.7103956448318355E9, 0.0, 2024-03-13 22:54:04.831
16.0, -894.9617992965505, -580.2379983253777, -581.9452626551501, -582.3042930508964, 0.6400000303983688, 0.7520000357180834, 0.3840000182390213, 0.0, 0.0, 0.0, 0.0, 0.0, 1.710395644832654E9, 0.0, 2024-03-13 22:54:04.832
16.0, -880.084477272816, -566.2470325911418, -562.2808686881326, -568.4217844153754, 0.6400000303983688, 0.7520000357180834, 0.3840000182390213, 0.0, 0.0, 0.0, 0.0, 0.0, 1.710395644832654E9, 0.0, 2024-03-13 22:54:04.832
17.0, -888.3571359748021, -573.6221153037623, -565.0708340550773, -573.9456166499294, 0.6400000303983688, 0.7520000357180834, 0.3840000182390213, 0.0, 0.0, 0.0, 0.0, 0.0, 1.7103956448460252E9, 0.0, 2024-03-13 22:54:04.846
17.0, -887.8597292806953, -570.3983215419576, -568.2796682170592, -569.3492796043865, 0.6400000303983688, 0.7520000357180834, 0.3840000182390213, 0.0, 0.0, 0.0, 0.0, 0.0, 1.7103956448460252E9, 0.0, 2024-03-13 22:54:04.846
18.0, -896.3792213797569, -577.3732349593192, -576.7954204161651, -575.4901953316294, 0.6400000303983688, 0.7520000357180834, 0.3840000182390213, 0.0, 0.0, 0.0, 0.0, 0.0, 1.7103956448616848E9, 0.0, 2024-03-13 22:54:04.861
18.0, -900.3360355328768, -584.9876712691039, -580.4792218725197, -585.0418998184614, 0.6400000303983688, 0.7520000357180834, 0.3840000182390213, 0.0, 0.0, 0.0, 0.0, 0.0, 1.7103956448616848E9, 0.0, 2024-03-13 22:54:04.861
19.0, -894.1652006059885, -574.2728578960523, -578.1417844002135, -580.1052318769507, 0.6400000303983688, 0.7520000357180834, 0.3840000182390213, 0.0, 0.0, 0.0, 0.0, 0.0, 1.7103956448623683E9, 0.0, 2024-03-13 22:54:04.862
19.0, -885.077243713662, -567.5447778757662, -573.7361822524108, -573.1078790598549, 0.6400000303983688, 0.7520000357180834, 0.3840000182390213, 0.0, 0.0, 0.0, 0.0, 0.0, 1.7103956448623683E9, 0.0, 2024-03-13 22:54:04.862
20.0, -881.0867704609409, -569.717659750022, -568.8144739107229, -573.5903261541389, 0.6400000303983688, 0.7520000357180834, 0.3840000182390213, 0.0, 0.0, 0.0, 0.0, 0.0, 1.7103956448760931E9, 0.0, 2024-03-13 22:54:04.876
20.0, -904.9398523783311, -588.1591064315289, -581.6423307587393, -591.3473711437546, 0.6400000303983688, 0.7520000357180834, 0.3840000182390213, 0.0, 0.0, 0.0, 0.0, 0.0, 1.7103956448760931E9, 0.0, 2024-03-13 22:54:04.876
21.0, -907.0566357532516, -585.7693103598431, -586.8482714970596, -587.0502260946669, 0.6400000303983688, 0.7360000349581242, 0.3840000182390213, 0.0, 0.0, 0.0, 0.0, 0.0, 1.710395644891799E9, 0.0, 2024-03-13 22:54:04.891
21.0, -912.7786826854572, -589.6999452132732, -576.93005681457, -589.2866862681694, 0.6400000303983688, 0.7360000349581242, 0.3840000182390213, 0.0, 0.0, 0.0, 0.0, 0.0, 1.710395644891799E9, 0.0, 2024-03-13 22:54:04.891
22.0, -906.2862163623795, -588.1441468317062, -556.3980060578324, -579.4769286843948, 0.6400000303983688, 0.7360000349581242, 0.3840000182390213, 0.0, 0.0, 0.0, 0.0, 0.0, 1.710395644892338E9, 0.0, 2024-03-13 22:54:04.892
22.0, -913.2835691794753, -596.7047778302804, -584.768887121696, -589.7466939627193, 0.6400000303983688, 0.7360000349581242, 0.3840000182390213, 0.0, 0.0, 0.0, 0.0, 0.0, 1.710395644892338E9, 0.0, 2024-03-13 22:54:04.892
23.0, -910.8825534079224, -594.6440929546952, -589.1819690694101, -596.4897335828282, 0.6400000303983688, 0.7360000349581242, 0.3840000182390213, 0.0, 0.0, 0.0, 0.0, 0.0, 1.71039564490625E9, 0.0, 2024-03-13 22:54:04.906
23.0, -903.9749581897631, -589.8046624120325, -572.9994219611399, -591.5568055412732, 0.6400000303983688, 0.7360000349581242, 0.3840000182390213, 0.0, 0.0, 0.0, 0.0, 0.0, 1.71039564490625E9, 0.0, 2024-03-13 22:54:04.906
24.0, -915.2806757558137, -595.4294719453901, -580.5278405719437, -594.2270941096358, 0.6400000303983688, 0.7360000349581242, 0.3840000182390213, 0.0, 0.0, 0.0, 0.0, 0.0, 1.7103956449216936E9, 0.0, 2024-03-13 22:54:04.921
24.0, -900.5978285297751, -585.9488255577162, -578.3960975972004, -591.5306262415834, 0.6400000303983688, 0.7360000349581242, 0.3840000182390213, 0.0, 0.0, 0.0, 0.0, 0.0, 1.7103956449216936E9, 0.0, 2024-03-13 22:54:04.921
25.0, -904.4050466846675, -593.5595219675452, -579.1665169880725, -598.7411533561535, 0.6400000303983688, 0.7360000349581242, 0.3840000182390213, 0.0, 0.0, 0.0, 0.0, 0.0, 1.710395644922336E9, 0.0, 2024-03-13 22:54:04.922
25.0, -909.3379747262225, -599.1170133017004, -594.2570133092813, -605.2897181785665, 0.6400000303983688, 0.7360000349581242, 0.3840000182390213, 0.0, 0.0, 0.0, 0.0, 0.0, 1.710395644922336E9, 0.0, 2024-03-13 22:54:04.922
26.0, -898.9410528494045, -584.1648932788521, -589.3053857679479, -593.13878322253, 0.6400000303983688, 0.7360000349581242, 0.3840000182390213, 0.0, 0.0, 0.0, 0.0, 0.0, 1.710395644936015E9, 0.0, 2024-03-13 22:54:04.936
26.0, -901.8469551149756, -590.0552357090637, -591.4820075421594, -600.749479632359, 0.6400000303983688, 0.7360000349581242, 0.3840000182390213, 0.0, 0.0, 0.0, 0.0, 0.0, 1.710395644936015E9, 0.0, 2024-03-13 22:54:04.936
27.0, -899.4758585430682, -582.0107109043747, -582.0163207543083, -594.6048240051605, 0.6400000303983688, 0.7360000349581242, 0.3840000182390213, 0.0, 0.0, 0.0, 0.0, 0.0, 1.7103956449516718E9, 0.0, 2024-03-13 22:54:04.951
27.0, -897.5535499658436, -579.3553819358349, -590.5208532535471, -592.6039775288664, 0.6400000303983688, 0.7360000349581242, 0.3840000182390213, 0.0, 0.0, 0.0, 0.0, 0.0, 1.7103956449516718E9, 0.0, 2024-03-13 22:54:04.951
28.0, -893.8847081093118, -573.154627809301, -577.8238929039799, -582.513727448415, 0.6400000303983688, 0.7360000349581242, 0.3840000182390213, 0.0, 0.0, 0.0, 0.0, 0.0, 1.710395644952532E9, 0.0, 2024-03-13 22:54:04.952
28.0, -901.7609374159947, -586.7005454488099, -582.8241391447373, -588.8378982734866, 0.6400000303983688, 0.7360000349581242, 0.3840000182390213, 0.0, 0.0, 0.0, 0.0, 0.0, 1.710395644952532E9, 0.0, 2024-03-13 22:54:04.952
29.0, -903.36161459703, -584.2845700774342, -594.260753209237, -593.3519575200044, 0.6400000303983688, 0.7360000349581242, 0.3840000182390213, 0.0, 0.0, 0.0, 0.0, 0.0, 1.7103956449659607E9, 0.0, 2024-03-13 22:54:04.965
29.0, -884.3704026220366, -570.2188063440844, -579.0954588889144, -580.5652395715006, 0.6400000303983688, 0.7360000349581242, 0.3840000182390213, 0.0, 0.0, 0.0, 0.0, 0.0, 1.7103956449659607E9, 0.0, 2024-03-13 22:54:04.965
30.0, -890.4626996498555, -577.9454396525398, -573.8521191510372, -589.0398528710939, 0.6400000303983688, 0.7360000349581242, 0.3840000182390213, 0.0, 0.0, 0.0, 0.0, 0.0, 1.7103956449817278E9, 0.0, 2024-03-13 22:54:04.981
30.0, -904.6107411822304, -590.8854934992269, -582.0350202540867, -592.5553588294424, 0.6400000303983688, 0.7360000349581242, 0.3840000182390213, 0.0, 0.0, 0.0, 0.0, 0.0, 1.7103956449817278E9, 0.0, 2024-03-13 22:54:04.981
31.0, -909.1135807288811, -591.330541593954, -592.4992603301071, -592.7498336271383, 0.6400000303983688, 0.7360000349581242, 0.3840000182390213, 0.0, 0.0, 0.0, 0.0, 0.0, 1.7103956449823537E9, 0.0, 2024-03-13 22:54:04.982
31.0, -909.9999370183796, -588.809849023819, -584.4846547250636, -590.4049163549207, 0.6400000303983688, 0.7360000349581242, 0.3840000182390213, 0.0, 0.0, 0.0, 0.0, 0.0, 1.7103956449823537E9, 0.0, 2024-03-13 22:54:04.982
32.0, -899.9209066377953, -590.2908494062722, -583.0073942425661, -593.7558667152189, 0.6400000303983688, 0.7360000349581242, 0.3840000182390213, 0.0, 0.0, 0.0, 0.0, 0.0, 1.710395644995966E9, 0.0, 2024-03-13 22:54:04.995
32.0, -911.3874399019405, -592.1458397842944, -599.7584061441012, -605.9030617712997, 0.6400000303983688, 0.7360000349581242, 0.3840000182390213, 0.0, 0.0, 0.0, 0.0, 0.0, 1.710395644995966E9, 0.0, 2024-03-13 22:54:04.995
33.0, -908.945285230875, -591.6858320897445, -595.0274327001534, -599.3881560484879, 0.6400000303983688, 0.7360000349581242, 0.3840000182390213, 0.0, 0.0, 0.0, 0.0, 0.0, 1.7103956450117288E9, 0.0, 2024-03-13 22:54:05.011
33.0, -907.4081863490865, -589.7822230122983, -590.666709351819, -598.8645700546913, 0.6400000303983688, 0.7360000349581242, 0.3840000182390213, 0.0, 0.0, 0.0, 0.0, 0.0, 1.7103956450117288E9, 0.0, 2024-03-13 22:54:05.011
34.0, -900.3322956329212, -582.9643853930756, -587.7308878866024, -593.1088640228845, 0.6400000303983688, 0.7360000349581242, 0.3840000182390213, 0.0, 0.0, 0.0, 0.0, 0.0, 1.710395645012375E9, 0.0, 2024-03-13 22:54:05.012
34.0, -893.1255084183067, -572.889094912447, -591.5119267418049, -586.9006300964393, 0.6400000303983688, 0.7360000349581242, 0.3840000182390213, 0.0, 0.0, 0.0, 0.0, 0.0, 1.710395645012375E9, 0.0, 2024-03-13 22:54:05.012
35.0, -900.9605988254771, -583.5814688857645, -589.5634388648905, -586.7734734979458, 0.6400000303983688, 0.7360000349581242, 0.3840000182390213, 0.0, 0.0, 0.0, 0.0, 0.0, 1.710395645026272E9, 0.0, 2024-03-13 22:54:05.026
35.0, -898.3875476559624, -579.8527886299416, -583.164470040705, -584.1443238290958, 0.6400000303983688, 0.7360000349581242, 0.3840000182390213, 0.0, 0.0, 0.0, 0.0, 0.0, 1.710395645026272E9, 0.0, 2024-03-13 22:54:05.026
36.0, -889.1163356658071, -562.2490795385092, -570.5684869899414, -570.6058859894983, 0.6400000303983688, 0.7360000349581242, 0.3840000182390213, 0.0, 0.0, 0.0, 0.0, 0.0, 1.7103956450420375E9, 0.0, 2024-03-13 22:54:05.042
36.0, -888.7760047698393, -569.8560360483825, -559.8125347173773, -571.2753280815668, 0.6400000303983688, 0.7360000349581242, 0.3840000182390213, 0.0, 0.0, 0.0, 0.0, 0.0, 1.7103956450420375E9, 0.0, 2024-03-13 22:54:05.042
37.0, -905.0071705775335, -590.1225539082661, -583.3290256387554, -585.9132965081371, 0.6400000303983688, 0.7360000349581242, 0.3840000182390213, 0.0, 0.0, 0.0, 0.0, 0.0, 1.7103956450430815E9, 0.0, 2024-03-13 22:54:05.043
37.0, -904.7902563801035, -587.3213688414544, -590.9883407480083, -591.4259090428241, 0.6400000303983688, 0.7360000349581242, 0.3840000182390213, 0.0, 0.0, 0.0, 0.0, 0.0, 1.7103956450430815E9, 0.0, 2024-03-13 22:54:05.043
38.0, -894.8533421978354, -577.1301414621994, -584.3649779264815, -585.673942910973, 0.6400000303983688, 0.7360000349581242, 0.3840000182390213, 0.0, 0.0, 0.0, 0.0, 0.0, 1.7103956450560203E9, 0.0, 2024-03-13 22:54:05.056
38.0, -908.6124341348186, -586.1059013558552, -584.0844854298048, -592.2374673332088, 0.6400000303983688, 0.7360000349581242, 0.3840000182390213, 0.0, 0.0, 0.0, 0.0, 0.0, 1.7103956450560203E9, 0.0, 2024-03-13 22:54:05.056
39.0, -881.797351452522, -563.1840545274317, -579.9257166790776, -575.277021034155, 0.6400000303983688, 0.7360000349581242, 0.3840000182390213, 0.0, 0.0, 0.0, 0.0, 0.0, 1.7103956450718782E9, 0.0, 2024-03-13 22:54:05.071
39.0, -882.7323264414445, -557.8846162902191, -579.8883176795207, -573.7324423524551, 0.6400000303983688, 0.7360000349581242, 0.3840000182390213, 0.0, 0.0, 0.0, 0.0, 0.0, 1.7103956450718782E9, 0.0, 2024-03-13 22:54:05.071
40.0, -881.0119724618271, -563.5393450232223, -558.7354435301386, -566.0282484437339, 0.6400000303983688, 0.7360000349581242, 0.3840000182390213, 0.0, 0.0, 0.0, 0.0, 0.0, 1.710395645072615E9, 0.0, 2024-03-13 22:54:05.072
40.0, -887.5306180845946, -567.3615227779374, -572.262661669869, -575.2471018345095, 0.6400000303983688, 0.7360000349581242, 0.3840000182390213, 0.0, 0.0, 0.0, 0.0, 0.0, 1.710395645072615E9, 0.0, 2024-03-13 22:54:05.072
41.0, -877.0663780085742, -563.8235774198547, -578.8261860921048, -571.3314265809022, 0.6400000303983688, 0.7360000349581242, 0.3840000182390213, 0.0, 0.0, 0.0, 0.0, 0.0, 1.710395645086416E9, 0.0, 2024-03-13 22:54:05.086
41.0, -860.8052930012345, -549.8475712854415, -558.9934966270812, -561.5702876965515, 0.6400000303983688, 0.7360000349581242, 0.3840000182390213, 0.0, 0.0, 0.0, 0.0, 0.0, 1.710395645086416E9, 0.0, 2024-03-13 22:54:05.086
42.0, -871.0900178793818, -558.2249471861869, -567.7112034237944, -569.5175751023926, 0.6400000303983688, 0.7360000349581242, 0.3840000182390213, 0.0, 0.0, 0.0, 0.0, 0.0, 1.7103956451020691E9, 0.0, 2024-03-13 22:54:05.102
42.0, -882.8931421395391, -558.1464092871174, -571.4735427792184, -571.0397143843584, 0.6400000303983688, 0.7360000349581242, 0.3840000182390213, 0.0, 0.0, 0.0, 0.0, 0.0, 1.7103956451020691E9, 0.0, 2024-03-13 22:54:05.102
43.0, -880.13309597224, -555.5696182176471, -564.4612303622998, -566.533134937752, 0.6400000303983688, 0.7360000349581242, 0.3840000182390213, 0.0, 0.0, 0.0, 0.0, 0.0, 1.7103956451026692E9, 0.0, 2024-03-13 22:54:05.102
43.0, -867.4436154225841, -546.5527194244787, -544.6659398968332, -552.4374520047568, 0.6400000303983688, 0.7360000349581242, 0.3840000182390213, 0.0, 0.0, 0.0, 0.0, 0.0, 1.7103956451026692E9, 0.0, 2024-03-13 22:54:05.102
44.0, -875.2375669302419, -559.212280774489, -575.0526270368136, -572.2439621700905, 0.6400000303983688, 0.7360000349581242, 0.3840000182390213, 0.0, 0.0, 0.0, 0.0, 0.0, 1.710395645115986E9, 0.0, 2024-03-13 22:54:05.115
44.0, -875.0804911321029, -551.4071095669642, -561.6563053955324, -557.9313650396653, 0.6400000303983688, 0.7360000349581242, 0.3840000182390213, 0.0, 0.0, 0.0, 0.0, 0.0, 1.710395645115986E9, 0.0, 2024-03-13 22:54:05.115
45.0, -872.728094059974, -551.1752357697114, -550.9078329228796, -553.2714496948756, 0.6400000303983688, 0.7360000349581242, 0.3840000182390213, 0.0, 0.0, 0.0, 0.0, 0.0, 1.7103956451317189E9, 0.0, 2024-03-13 22:54:05.131
45.0, -863.1801294730976, -548.4974674014375, -547.0258167688735, -552.2878560065292, 0.6400000303983688, 0.7360000349581242, 0.3840000182390213, 0.0, 0.0, 0.0, 0.0, 0.0, 1.7103956451317189E9, 0.0, 2024-03-13 22:54:05.131
46.0, -859.7319417139515, -542.2406147755682, -556.596220755484, -549.3819537409581, 0.6400000303983688, 0.7360000349581242, 0.3840000182390213, 0.0, 0.0, 0.0, 0.0, 0.0, 1.710395645132468E9, 0.0, 2024-03-13 22:54:05.132
46.0, -853.5162279875949, -541.0513265896589, -545.2792834895663, -549.1126809441485, 0.6400000303983688, 0.7360000349581242, 0.3840000182390213, 0.0, 0.0, 0.0, 0.0, 0.0, 1.710395645132468E9, 0.0, 2024-03-13 22:54:05.132
47.0, -869.2088482016698, -548.4226694023237, -536.6064554923214, -545.185785990674, 0.6400000303983688, 0.7360000349581242, 0.3840000182390213, 0.0, 0.0, 0.0, 0.0, 0.0, 1.7103956451459727E9, 0.0, 2024-03-13 22:54:05.145
47.0, -877.2197139067575, -551.904516261071, -560.4520576098002, -554.8197682765312, 0.6400000303983688, 0.7360000349581242, 0.3840000182390213, 0.0, 0.0, 0.0, 0.0, 0.0, 1.7103956451459727E9, 0.0, 2024-03-13 22:54:05.145
48.0, -882.5228920439258, -557.6340429931879, -565.8449933459051, -564.4238313627429, 0.6400000303983688, 0.7360000349581242, 0.3840000182390213, 0.0, 0.0, 0.0, 0.0, 0.0, 1.7103956451617167E9, 0.0, 2024-03-13 22:54:05.161
48.0, -887.7138731824234, -566.8977751834318, -568.9004916097037, -574.2148894467391, 0.6400000303983688, 0.7360000349581242, 0.3840000182390213, 0.0, 0.0, 0.0, 0.0, 0.0, 1.7103956451617167E9, 0.0, 2024-03-13 22:54:05.161
49.0, -896.3717415798455, -573.9362669000402, -571.3688255804591, -575.1910033351742, 0.6400000303983688, 0.7360000349581242, 0.3840000182390213, 0.0, 0.0, 0.0, 0.0, 0.0, 1.7103956451624484E9, 0.0, 2024-03-13 22:54:05.162
49.0, -896.1997061818838, -574.6356281917542, -567.7074635238387, -571.9148509739898, 0.6400000303983688, 0.7360000349581242, 0.3840000182390213, 0.0, 0.0, 0.0, 0.0, 0.0, 1.7103956451624484E9, 0.0, 2024-03-13 22:54:05.162
50.0, -887.4221609858796, -573.4650395056233, -564.9511572564952, -575.0862861364149, 0.6400000303983688, 0.7360000349581242, 0.3840000182390213, 0.0, 0.0, 0.0, 0.0, 0.0, 1.7103956451759522E9, 0.0, 2024-03-13 22:54:05.175
50.0, -879.661868577823, -568.2852780669928, -560.6577521073632, -568.9079714096151, 0.6400000303983688, 0.7360000349581242, 0.3840000182390213, 0.0, 0.0, 0.0, 0.0, 0.0, 1.7103956451759522E9, 0.0, 2024-03-13 22:54:05.175
51.0, -889.8904949566349, -570.8471095366403, -570.6619844888337, -575.6771903294139, 0.6400000303983688, 0.7360000349581242, 0.3840000182390213, 0.0, 0.0, 0.0, 0.0, 0.0, 1.7103956451916568E9, 0.0, 2024-03-13 22:54:05.191
51.0, -888.4842925732955, -573.0611303104088, -565.4747432502918, -575.8866247269325, 0.6400000303983688, 0.7360000349581242, 0.3840000182390213, 0.0, 0.0, 0.0, 0.0, 0.0, 1.7103956451916568E9, 0.0, 2024-03-13 22:54:05.191
52.0, -879.3477169815451, -569.9682330470532, -562.0377751910128, -571.140691683162, 0.6400000303983688, 0.7360000349581242, 0.3840000182390213, 0.0, 0.0, 0.0, 0.0, 0.0, 1.7103956451924276E9, 0.0, 2024-03-13 22:54:05.192
52.0, -880.084477272816, -565.6299490984529, -576.5785062187351, -572.0083484728821, 0.6400000303983688, 0.7360000349581242, 0.3840000182390213, 0.0, 0.0, 0.0, 0.0, 0.0, 1.7103956451924276E9, 0.0, 2024-03-13 22:54:05.192
53.0, -873.2591598536819, -551.4258090667427, -549.2734966422431, -552.6207071025856, 0.6400000303983688, 0.7360000349581242, 0.3840000182390213, 0.0, 0.0, 0.0, 0.0, 0.0, 1.7103956452060163E9, 0.0, 2024-03-13 22:54:05.206
53.0, -873.3077785531059, -560.8092180555686, -550.6423000260256, -558.6606455310248, 0.6400000303983688, 0.7360000349581242, 0.3840000182390213, 0.0, 0.0, 0.0, 0.0, 0.0, 1.7103956452060163E9, 0.0, 2024-03-13 22:54:05.206
54.0, -881.2962048584595, -562.7577059324831, -564.9735966562293, -565.6430387482978, 0.6400000303983688, 0.7360000349581242, 0.3840000182390213, 0.0, 0.0, 0.0, 0.0, 0.0, 1.7103956452217517E9, 0.0, 2024-03-13 22:54:05.221
54.0, -885.2081402121112, -561.7703723441809, -567.0417613317259, -566.9108648332767, 0.6400000303983688, 0.7360000349581242, 0.3840000182390213, 0.0, 0.0, 0.0, 0.0, 0.0, 1.7103956452217517E9, 0.0, 2024-03-13 22:54:05.221
55.0, -890.3804218508303, -575.7463784785941, -574.3233465454541, -579.0655396892689, 0.6400000303983688, 0.7360000349581242, 0.3840000182390213, 0.0, 0.0, 0.0, 0.0, 0.0, 1.71039564522265E9, 0.0, 2024-03-13 22:54:05.222
55.0, -894.4456931026652, -576.6551741678268, -572.7712880638428, -577.8201530040242, 0.6400000303983688, 0.7360000349581242, 0.3840000182390213, 0.0, 0.0, 0.0, 0.0, 0.0, 1.71039564522265E9, 0.0, 2024-03-13 22:54:05.222
56.0, -880.5370051674545, -569.5269248522818, -574.8656320390292, -577.1207917123102, 0.6400000303983688, 0.7360000349581242, 0.3840000182390213, 0.0, 0.0, 0.0, 0.0, 0.0, 1.7103956452362924E9, 0.0, 2024-03-13 22:54:05.236
56.0, -882.4742733445019, -569.2688717553392, -563.2083638771437, -574.360745545011, 0.6400000303983688, 0.7360000349581242, 0.3840000182390213, 0.0, 0.0, 0.0, 0.0, 0.0, 1.7103956452362924E9, 0.0, 2024-03-13 22:54:05.236
57.0, -872.2007681662217, -558.3633234845474, -550.373027229216, -563.2308032768779, 0.6400000303983688, 0.7360000349581242, 0.3840000182390213, 0.0, 0.0, 0.0, 0.0, 0.0, 1.7103956452520573E9, 0.0, 2024-03-13 22:54:05.252
57.0, -899.8722879383713, -576.1615073736757, -589.4288024664856, -585.6814227108844, 0.6400000303983688, 0.7360000349581242, 0.3840000182390213, 0.0, 0.0, 0.0, 0.0, 0.0, 1.7103956452520573E9, 0.0, 2024-03-13 22:54:05.252
58.0, -889.9540732558817, -567.0062322821468, -574.0166747490875, -572.7264092643745, 0.6400000303983688, 0.7360000349581242, 0.3840000182390213, 0.0, 0.0, 0.0, 0.0, 0.0, 1.7103956452525868E9, 0.0, 2024-03-13 22:54:05.252
58.0, -885.933680803515, -568.0085254702717, -576.2606147225015, -578.9271633909084, 0.6400000303983688, 0.7360000349581242, 0.3840000182390213, 0.0, 0.0, 0.0, 0.0, 0.0, 1.7103956452525868E9, 0.0, 2024-03-13 22:54:05.252
59.0, -886.6480016950518, -566.3255704902112, -579.8658782797866, -578.0333273014985, 0.6400000303983688, 0.7360000349581242, 0.3840000182390213, 0.0, 0.0, 0.0, 0.0, 0.0, 1.710395645265977E9, 0.0, 2024-03-13 22:54:05.265
59.0, -887.2276861881837, -559.0963438758627, -577.9996682018973, -572.0008686729707, 0.6400000303983688, 0.7360000349581242, 0.3840000182390213, 0.0, 0.0, 0.0, 0.0, 0.0, 1.710395645265977E9, 0.0, 2024-03-13 22:54:05.265
60.0, -870.91798248142, -550.2739198803902, -551.3454012176953, -559.5769210201688, 0.6400000303983688, 0.7360000349581242, 0.3840000182390213, 0.0, 0.0, 0.0, 0.0, 0.0, 1.7103956452819624E9, 0.0, 2024-03-13 22:54:05.281
60.0, -881.7524726530537, -563.4308879245073, -565.0708340550773, -571.2267093821429, 0.6400000303983688, 0.7360000349581242, 0.3840000182390213, 0.0, 0.0, 0.0, 0.0, 0.0, 1.7103956452819624E9, 0.0, 2024-03-13 22:54:05.281
61.0, -896.0912490831688, -571.9877790231258, -578.5120344958268, -579.8546585799195, 0.6400000303983688, 0.7360000349581242, 0.3840000182390213, 0.0, 0.0, 0.0, 0.0, 0.0, 1.7103956452824883E9, 0.0, 2024-03-13 22:54:05.282
61.0, -892.2690713284537, -573.4612996056676, -573.5192680549808, -580.2398682753555, 0.6400000303983688, 0.7360000349581242, 0.3840000182390213, 0.0, 0.0, 0.0, 0.0, 0.0, 1.7103956452824883E9, 0.0, 2024-03-13 22:54:05.282
62.0, -892.2877708282322, -584.4491256754845, -585.3149125152268, -592.3160052322783, 0.6400000303983688, 0.7360000349581242, 0.3840000182390213, 0.0, 0.0, 0.0, 0.0, 0.0, 1.710395645296004E9, 0.0, 2024-03-13 22:54:05.296
62.0, -888.0542040783912, -580.4698721226305, -590.5694719529711, -591.1042776466347, 0.6400000303983688, 0.7360000349581242, 0.3840000182390213, 0.0, 0.0, 0.0, 0.0, 0.0, 1.710395645296004E9, 0.0, 2024-03-13 22:54:05.296
63.0, -885.4138347096741, -573.8764285007492, -587.278359991964, -587.1175442938693, 0.6400000303983688, 0.7360000349581242, 0.3840000182390213, 0.0, 0.0, 0.0, 0.0, 0.0, 1.7103956453121116E9, 0.0, 2024-03-13 22:54:05.312
63.0, -893.3648620154709, -582.0219306042418, -579.2749740867876, -591.8821768374182, 0.6400000303983688, 0.7360000349581242, 0.3840000182390213, 0.0, 0.0, 0.0, 0.0, 0.0, 1.7103956453121116E9, 0.0, 2024-03-13 22:54:05.312
64.0, -881.6814145538956, -570.6077559394762, -584.2004223284312, -581.5750125595368, 0.6400000303983688, 0.7360000349581242, 0.3840000182390213, 0.0, 0.0, 0.0, 0.0, 0.0, 1.7103956453126173E9, 0.0, 2024-03-13 22:54:05.312
64.0, -875.2787058297545, -560.5848240582272, -575.5687332306989, -577.7939737043343, 0.6400000303983688, 0.7360000349581242, 0.3840000182390213, 0.0, 0.0, 0.0, 0.0, 0.0, 1.7103956453126173E9, 0.0, 2024-03-13 22:54:05.312
65.0, -874.029579244554, -560.4763669595122, -560.6315728076734, -571.8512726747431, 0.6400000303983688, 0.7360000349581242, 0.3840000182390213, 0.0, 0.0, 0.0, 0.0, 0.0, 1.7103956453262992E9, 0.0, 2024-03-13 22:54:05.326
65.0, -884.1048697251827, -562.9858398297802, -563.3803992751054, -570.441330391448, 0.6400000303983688, 0.7360000349581242, 0.3840000182390213, 0.0, 0.0, 0.0, 0.0, 0.0, 1.7103956453262992E9, 0.0, 2024-03-13 22:54:05.326
66.0, -882.6687481421977, -560.9625539537519, -562.2359898886643, -560.792388505768, 0.6400000303983688, 0.7360000349581242, 0.3840000182390213, 0.0, 0.0, 0.0, 0.0, 0.0, 1.7103956453416927E9, 0.0, 2024-03-13 22:54:05.341
66.0, -899.7862702393904, -580.4623923227191, -577.737875204999, -579.2974134865217, 0.6400000303983688, 0.7360000349581242, 0.3840000182390213, 0.0, 0.0, 0.0, 0.0, 0.0, 1.7103956453416927E9, 0.0, 2024-03-13 22:54:05.341
67.0, -893.4433999145404, -580.6007686210796, -573.3060937575065, -579.7462014812045, 0.6400000303983688, 0.7360000349581242, 0.3840000182390213, 0.0, 0.0, 0.0, 0.0, 0.0, 1.7103956453424249E9, 0.0, 2024-03-13 22:54:05.342
67.0, -887.3735422864556, -570.6526347389445, -578.9982214900665, -574.5402607428841, 0.6400000303983688, 0.7360000349581242, 0.3840000182390213, 0.0, 0.0, 0.0, 0.0, 0.0, 1.7103956453424249E9, 0.0, 2024-03-13 22:54:05.342
68.0, -889.3295099632815, -574.0746431984007, -579.6414842824452, -585.1877559167333, 0.6400000303983688, 0.7360000349581242, 0.3840000182390213, 0.0, 0.0, 0.0, 0.0, 0.0, 1.7103956453562872E9, 0.0, 2024-03-13 22:54:05.356
68.0, -886.2627919996157, -576.4868786698207, -571.189310382586, -587.6860090871342, 0.6400000303983688, 0.7360000349581242, 0.3840000182390213, 0.0, 0.0, 0.0, 0.0, 0.0, 1.7103956453562872E9, 0.0, 2024-03-13 22:54:05.356
69.0, -899.7039924403653, -582.3024231009185, -582.4426693492569, -586.0292334067635, 0.6400000303983688, 0.7360000349581242, 0.3840000182390213, 0.0, 0.0, 0.0, 0.0, 0.0, 1.710395645371864E9, 0.0, 2024-03-13 22:54:05.371
69.0, -895.1562740942463, -576.6140352683142, -570.0411610961892, -569.8803453980945, 0.6400000303983688, 0.7360000349581242, 0.3840000182390213, 0.0, 0.0, 0.0, 0.0, 0.0, 1.710395645371864E9, 0.0, 2024-03-13 22:54:05.371
70.0, -885.8514030044898, -574.0447239987552, -558.4175520339049, -571.6455781771801, 0.6400000303983688, 0.7360000349581242, 0.3840000182390213, 0.0, 0.0, 0.0, 0.0, 0.0, 1.710395645372408E9, 0.0, 2024-03-13 22:54:05.372
70.0, -885.3689559102058, -572.3729887185618, -565.725316547323, -579.8957974794321, 0.6400000303983688, 0.7360000349581242, 0.3840000182390213, 0.0, 0.0, 0.0, 0.0, 0.0, 1.710395645372408E9, 0.0, 2024-03-13 22:54:05.372
71.0, -893.2601448167115, -581.0196374161169, -593.404316119384, -589.1221306701191, 0.6400000303983688, 0.7520000357180834, 0.3840000182390213, 0.0, 0.0, 0.0, 0.0, 0.0, 1.710395645402368E9, 0.0, 2024-03-13 22:54:05.402
