%OpenBCI Raw EXG Data
%Number of channels = 4
%Sample Rate = 200 Hz
%Board = OpenBCI_GUI$BoardGanglionBLE
Sample Index, EXG Channel 0, EXG Channel 1, EXG Channel 2, EXG Channel 3, Accel Channel 0, Accel Channel 1, Accel Channel 2, Other, Other, Other, Other, Other, Timestamp, Other, Timestamp (Formatted)
2.0, -5.486433234997094, -8.197860702872276, -3.788518655113876, 0.5273258937522769, 0.6720000319182873, 0.0, 0.0, 0.0, 0.0, 0.0, 0.0, 0.0, 1.710395162895138E9, 0.0, 2024-03-13 22:46:02.895
2.0, -15.333589818328619, -21.485725245438516, -20.401154258288443, -20.255298160016537, 0.6720000319182873, 0.0, 0.0, 0.0, 0.0, 0.0, 0.0, 0.0, 1.710395162895138E9, 0.0, 2024-03-13 22:46:02.895
3.0, -22.727372030727565, -30.61482103727758, -43.82040778081864, -31.265563629567623, 0.6720000319182873, 0.0, 0.0, 0.0, 0.0, 0.0, 0.0, 0.0, 1.7103951629095662E9, 0.0, 2024-03-13 22:46:02.909
3.0, -18.224532484076917, -33.31128890533, -25.73051169514656, -25.180746401660144, 0.6720000319182873, 0.0, 0.0, 0.0, 0.0, 0.0, 0.0, 0.0, 1.7103951629095662E9, 0.0, 2024-03-13 22:46:02.909
4.0, -10.221146578900516, -20.446033057756722, -16.89312809985131, -25.094728702679276, 0.6720000319182873, 0.0, 0.0, 0.0, 0.0, 0.0, 0.0, 0.0, 1.7103951629101806E9, 0.0, 2024-03-13 22:46:02.910
4.0, -10.965386670082808, -16.616375503130257, -14.002185434103012, -15.733759113587439, 0.6720000319182873, 0.0, 0.0, 0.0, 0.0, 0.0, 0.0, 0.0, 1.7103951629101806E9, 0.0, 2024-03-13 22:46:02.910
5.0, -2.6441092686727643, -25.199445901438594, -21.119215049780905, -23.049003426916897, 0.6720000319182873, 0.0, 0.0, 0.0, 0.0, 0.0, 0.0, 0.0, 1.7103951629237962E9, 0.0, 2024-03-13 22:46:02.923
5.0, -40.92198531515896, -48.66731812339276, -39.11561363656074, -43.37909958604723, 0.6720000319182873, 0.0, 0.0, 0.0, 0.0, 0.0, 0.0, 0.0, 1.7103951629237962E9, 0.0, 2024-03-13 22:46:02.923
6.0, -35.166279283352196, -28.258684065192938, -34.91570598632097, -25.68937279563397, 0.6720000319182873, 0.0, 0.0, 0.0, 0.0, 0.0, 0.0, 0.0, 1.7103951629396384E9, 0.0, 2024-03-13 22:46:02.939
6.0, -14.406094629317522, -25.064809503033757, -27.548103073611856, -22.360861835069954, 0.6720000319182873, 0.0, 0.0, 0.0, 0.0, 0.0, 0.0, 0.0, 1.7103951629396384E9, 0.0, 2024-03-13 22:46:02.939
7.0, -3.986733352765441, -28.10160826705396, -18.87901497632265, -24.238291612826288, 0.6720000319182873, 0.0, 0.0, 0.0, 0.0, 0.0, 0.0, 0.0, 1.710395162940195E9, 0.0, 2024-03-13 22:46:02.940
7.0, -46.3560599507764, -53.04674097150564, -46.090527053922415, -44.31407457496971, 0.6720000319182873, 0.0, 0.0, 0.0, 0.0, 0.0, 0.0, 0.0, 1.710395162940195E9, 0.0, 2024-03-13 22:46:02.940
8.0, -21.560523244552314, -30.98881103284657, -38.74536354094744, -30.457745239138603, 0.6720000319182873, 0.0, 0.0, 0.0, 0.0, 0.0, 0.0, 0.0, 1.710395162953922E9, 0.0, 2024-03-13 22:46:02.953
8.0, -19.33154287096113, -34.07048859633505, -34.64269328955561, -30.22587144188583, 0.6720000319182873, 0.0, 0.0, 0.0, 0.0, 0.0, 0.0, 0.0, 1.710395162953922E9, 0.0, 2024-03-13 22:46:02.953
9.0, -33.48706420324743, -39.8710734276101, -35.656206177547574, -37.91136585082859, 0.6720000319182873, 0.0, 0.0, 0.0, 0.0, 0.0, 0.0, 0.0, 1.7103951629697962E9, 0.0, 2024-03-13 22:46:02.969
9.0, -40.877106515690684, -38.25543664675206, -35.588887978345156, -33.93959209788591, 0.6720000319182873, 0.0, 0.0, 0.0, 0.0, 0.0, 0.0, 0.0, 1.7103951629697962E9, 0.0, 2024-03-13 22:46:02.969
10.0, -20.91352055221796, -36.72955746483058, -22.693712931126356, -28.423239663243294, 0.6720000319182873, 0.0, 0.41600001975893974, 0.0, 0.0, 0.0, 0.0, 0.0, 1.7103951629706633E9, 0.0, 2024-03-13 22:46:02.970
10.0, -39.34000763390213, -42.081354301422834, -26.654266984201968, -35.31587528157979, 0.6720000319182873, 0.0, 0.41600001975893974, 0.0, 0.0, 0.0, 0.0, 0.0, 1.7103951629706633E9, 0.0, 2024-03-13 22:46:02.970
11.0, -42.18981140013784, -43.4651172850281, -32.07712191995233, -33.71519810054451, 0.6720000319182873, 0.6880000326782465, 0.41600001975893974, 0.0, 0.0, 0.0, 0.0, 0.0, 1.7103951629841533E9, 0.0, 2024-03-13 22:46:02.984
11.0, -31.172066130675375, -40.72003071755171, -39.75513652898371, -37.185825259424746, 0.6720000319182873, 0.6880000326782465, 0.41600001975893974, 0.0, 0.0, 0.0, 0.0, 0.0, 1.7103951629841533E9, 0.0, 2024-03-13 22:46:02.984
12.0, -23.636167719960213, -34.762370088137686, -27.7537975711748, -35.13262018375099, 0.6720000319182873, 0.6880000326782465, 0.41600001975893974, 0.0, 0.0, 0.0, 0.0, 0.0, 1.7103951629998744E9, 0.0, 2024-03-13 22:46:02.999
12.0, -37.230704058893025, -43.667071882635355, -39.47838393226266, -42.39924579765648, 0.6720000319182873, 0.6880000326782465, 0.41600001975893974, 0.0, 0.0, 0.0, 0.0, 0.0, 1.7103951629998744E9, 0.0, 2024-03-13 22:46:02.999
13.0, -36.781916064210236, -38.71918424125761, -44.20187757629901, -40.64523271843791, 0.6720000319182873, 0.6880000326782465, 0.41600001975893974, 0.0, 0.0, 0.0, 0.0, 0.0, 1.7103951630003643E9, 0.0, 2024-03-13 22:46:03.000
13.0, -24.025117315351963, -42.37680639792234, -40.26376292295754, -44.818961068987846, 0.6720000319182873, 0.6880000326782465, 0.41600001975893974, 0.0, 0.0, 0.0, 0.0, 0.0, 1.7103951630003643E9, 0.0, 2024-03-13 22:46:03.000
14.0, -52.979422772303224, -50.58214690070599, -43.98870327882469, -45.226610164158046, 0.6720000319182873, 0.6880000326782465, 0.41600001975893974, 0.0, 0.0, 0.0, 0.0, 0.0, 1.7103951630138836E9, 0.0, 2024-03-13 22:46:03.013
14.0, -57.332666320726275, -59.03806070052087, -57.84877251461148, -54.2472488572821, 0.6720000319182873, 0.6880000326782465, 0.41600001975893974, 0.0, 0.0, 0.0, 0.0, 0.0, 1.7103951630138836E9, 0.0, 2024-03-13 22:46:03.013
15.0, -25.78287029452622, -28.98048475664109, -35.6823854772374, -35.94043857418001, 0.6720000319182873, 0.6880000326782465, 0.41600001975893974, 0.0, 0.0, 0.0, 0.0, 0.0, 1.7103951630294363E9, 0.0, 2024-03-13 22:46:03.029
15.0, -39.52700263168663, -40.091727524995804, -30.17725274246186, -29.73220464773476, 0.6720000319182873, 0.6880000326782465, 0.41600001975893974, 0.0, 0.0, 0.0, 0.0, 0.0, 1.7103951630294363E9, 0.0, 2024-03-13 22:46:03.029
16.0, -33.550642502494156, -31.86394762247801, -38.62568674236536, -37.37282025720924, 0.6720000319182873, 0.6880000326782465, 0.41600001975893974, 0.0, 0.0, 0.0, 0.0, 0.0, 1.7103951630303197E9, 0.0, 2024-03-13 22:46:03.030
16.0, -53.87325886171311, -57.03721422422677, -62.624624758027494, -58.49951510690153, 0.6720000319182873, 0.6880000326782465, 0.41600001975893974, 0.0, 0.0, 0.0, 0.0, 0.0, 1.7103951630303197E9, 0.0, 2024-03-13 22:46:03.030
17.0, -45.320107663050294, -54.883031849749386, -51.81631388608366, -58.77626770362258, 0.6720000319182873, 0.6880000326782465, 0.41600001975893974, 0.0, 0.0, 0.0, 0.0, 0.0, 1.710395163043794E9, 0.0, 2024-03-13 22:46:03.043
17.0, -64.4010772369802, -61.08004607632756, -57.9908887129277, -59.63644469343126, 0.6720000319182873, 0.6880000326782465, 0.41600001975893974, 0.0, 0.0, 0.0, 0.0, 0.0, 1.710395163043794E9, 0.0, 2024-03-13 22:46:03.043
18.0, -64.22530193906277, -61.8803846668452, -63.15943045169115, -59.96555588953197, 0.6720000319182873, 0.6880000326782465, 0.41600001975893974, 0.0, 0.0, 0.0, 0.0, 0.0, 1.7103951630595524E9, 0.0, 2024-03-13 22:46:03.059
18.0, -35.211158082820475, -45.645478959195316, -34.852127687074244, -40.22636392340064, 0.6720000319182873, 0.6880000326782465, 0.41600001975893974, 0.0, 0.0, 0.0, 0.0, 0.0, 1.7103951630595524E9, 0.0, 2024-03-13 22:46:03.059
19.0, -45.40612536203116, -43.85032698046416, -32.19679871853441, -36.13491337187588, 0.6720000319182873, 0.6880000326782465, 0.41600001975893974, 0.0, 0.0, 0.0, 0.0, 0.0, 1.710395163060223E9, 0.0, 2024-03-13 22:46:03.060
19.0, -56.195736734196544, -43.44267788529396, -41.35955360997468, -38.378853345289826, 0.6720000319182873, 0.6880000326782465, 0.41600001975893974, 0.0, 0.0, 0.0, 0.0, 0.0, 1.710395163060223E9, 0.0, 2024-03-13 22:46:03.060
20.0, -44.063501277938485, -43.85032698046416, -48.01657553110272, -43.218283887952566, 0.6720000319182873, 0.6880000326782465, 0.43200002051889896, 0.0, 0.0, 0.0, 0.0, 0.0, 1.7103951630737824E9, 0.0, 2024-03-13 22:46:03.073
20.0, -31.317922228947282, -30.914013033732772, -24.069996114820242, -31.239384329877794, 0.6720000319182873, 0.6880000326782465, 0.43200002051889896, 0.0, 0.0, 0.0, 0.0, 0.0, 1.7103951630737824E9, 0.0, 2024-03-13 22:46:03.073
21.0, -40.38343972153962, -31.523616726510227, -35.82450167555362, -33.37486720457673, 0.6720000319182873, 0.6880000326782465, 0.43200002051889896, 0.0, 0.0, 0.0, 0.0, 0.0, 1.7103951630894508E9, 0.0, 2024-03-13 22:46:03.089
21.0, -32.33143511693925, -30.22961134184152, -38.072181548923254, -37.10728736035526, 0.6720000319182873, 0.6880000326782465, 0.43200002051889896, 0.0, 0.0, 0.0, 0.0, 0.0, 1.7103951630894508E9, 0.0, 2024-03-13 22:46:03.089
22.0, -27.058176179416478, -31.82280872296542, -20.95091955177486, -29.32829545252025, 0.6720000319182873, 0.6880000326782465, 0.43200002051889896, 0.0, 0.0, 0.0, 0.0, 0.0, 1.7103951630902357E9, 0.0, 2024-03-13 22:46:03.090
22.0, -59.359692096710205, -52.04818768333644, -57.45234311930835, -53.21877636946738, 0.6720000319182873, 0.6880000326782465, 0.43200002051889896, 0.0, 0.0, 0.0, 0.0, 0.0, 1.7103951630902357E9, 0.0, 2024-03-13 22:46:03.090
23.0, -43.85780678037554, -35.84694107528776, -46.842246945016086, -42.402985697612166, 0.6720000319182873, 0.6880000326782465, 0.43200002051889896, 0.0, 0.0, 0.0, 0.0, 0.0, 1.7103951631037967E9, 0.0, 2024-03-13 22:46:03.103
23.0, -27.01703727990389, -29.623747549019754, -37.10728736035526, -31.994844120927155, 0.6720000319182873, 0.6880000326782465, 0.43200002051889896, 0.0, 0.0, 0.0, 0.0, 0.0, 1.7103951631037967E9, 0.0, 2024-03-13 22:46:03.103
24.0, -46.69265094678849, -40.79108881670982, -38.064701749011874, -38.71918424125761, 0.6720000319182873, 0.6880000326782465, 0.43200002051889896, 0.0, 0.0, 0.0, 0.0, 0.0, 1.710395163119768E9, 0.0, 2024-03-13 22:46:03.119
24.0, -22.0841092383489, -25.622054596431553, -23.37063482310623, -20.827502853237092, 0.6720000319182873, 0.6880000326782465, 0.43200002051889896, 0.0, 0.0, 0.0, 0.0, 0.0, 1.710395163119768E9, 0.0, 2024-03-13 22:46:03.119
25.0, -24.56366290897131, -22.738591730594635, -28.875767557881773, -26.452312386594713, 0.6720000319182873, 0.6880000326782465, 0.43200002051889896, 0.0, 0.0, 0.0, 0.0, 0.0, 1.7103951631203969E9, 0.0, 2024-03-13 22:46:03.120
25.0, -29.511550550349057, -26.676706383936107, -27.80241627059877, -30.663439736701548, 0.6720000319182873, 0.6880000326782465, 0.43200002051889896, 0.0, 0.0, 0.0, 0.0, 0.0, 1.7103951631203969E9, 0.0, 2024-03-13 22:46:03.120
26.0, -47.21623694058508, -37.37656015716493, -32.88120041042566, -40.38717962149531, 0.6720000319182873, 0.6880000326782465, 0.43200002051889896, 0.0, 0.0, 0.0, 0.0, 0.0, 1.710395163133778E9, 0.0, 2024-03-13 22:46:03.133
26.0, -39.97579062636942, -36.91655246261507, -40.71255091764033, -42.047695201821625, 0.6720000319182873, 0.6880000326782465, 0.43200002051889896, 0.0, 0.0, 0.0, 0.0, 0.0, 1.710395163133778E9, 0.0, 2024-03-13 22:46:03.133
27.0, -30.390427039936185, -36.35556746926159, -33.70023850072175, -36.92403226252645, 0.6720000319182873, 0.6880000326782465, 0.43200002051889896, 0.0, 0.0, 0.0, 0.0, 0.0, 1.7103951631658995E9, 0.0, 2024-03-13 22:46:03.165
27.0, -36.11995377205312, -29.227318153716624, -29.556429349817336, -29.298376252874732, 0.6720000319182873, 0.6880000326782465, 0.43200002051889896, 0.0, 0.0, 0.0, 0.0, 0.0, 1.7103951631658995E9, 0.0, 2024-03-13 22:46:03.165
28.0, -36.65849936567247, -30.21465174201876, -33.565602102316916, -39.3512273337692, 0.6720000319182873, 0.6880000326782465, 0.43200002051889896, 0.0, 0.0, 0.0, 0.0, 0.0, 1.7103951631665056E9, 0.0, 2024-03-13 22:46:03.166
28.0, -30.753197335638106, -32.90737971011549, -39.45968443248421, -40.076767925173044, 0.6720000319182873, 0.6880000326782465, 0.43200002051889896, 0.0, 0.0, 0.0, 0.0, 0.0, 1.7103951631665056E9, 0.0, 2024-03-13 22:46:03.166
29.0, -44.58708727173507, -37.42143895663321, -47.78470173384994, -53.327233468182385, 0.6720000319182873, 0.6880000326782465, 0.43200002051889896, 0.0, 0.0, 0.0, 0.0, 0.0, 1.7103951631674979E9, 0.0, 2024-03-13 22:46:03.167
29.0, -35.00920348521322, -29.76212384738028, -42.80315499287099, -42.25338969938457, 0.6720000319182873, 0.6880000326782465, 0.43200002051889896, 0.0, 0.0, 0.0, 0.0, 0.0, 1.7103951631674979E9, 0.0, 2024-03-13 22:46:03.167
30.0, -51.84623308572918, -46.935744443908334, -58.40227770805359, -55.1373450467363, 0.6720000319182873, 0.6880000326782465, 0.41600001975893974, 0.0, 0.0, 0.0, 0.0, 0.0, 1.710395163168349E9, 0.0, 2024-03-13 22:46:03.168
30.0, -25.29668330028653, -19.74293186608702, -16.709873002022505, -22.746071530506015, 0.6720000319182873, 0.6880000326782465, 0.41600001975893974, 0.0, 0.0, 0.0, 0.0, 0.0, 1.710395163168349E9, 0.0, 2024-03-13 22:46:03.168
31.0, -32.15191991906613, -19.570896468125284, -30.9401923334226, -29.81074254680425, 0.6720000319182873, 0.6880000326782465, 0.41600001975893974, 0.0, 0.0, 0.0, 0.0, 0.0, 1.710395163178898E9, 0.0, 2024-03-13 22:46:03.178
31.0, -24.391627511009574, -20.99579835124314, -32.19305881857872, -28.348441664129496, 0.6720000319182873, 0.6880000326782465, 0.41600001975893974, 0.0, 0.0, 0.0, 0.0, 0.0, 1.710395163178898E9, 0.0, 2024-03-13 22:46:03.178
32.0, -19.70553286653012, -18.250711783766747, -32.51469021476805, -28.830888758413494, 0.6560000311583281, 0.6880000326782465, 0.41600001975893974, 0.0, 0.0, 0.0, 0.0, 0.0, 1.7103951632101755E9, 0.0, 2024-03-13 22:46:03.210
32.0, -32.754043811932206, -19.74667176604271, -31.519876826554537, -24.56366290897131, 0.6560000311583281, 0.6880000326782465, 0.41600001975893974, 0.0, 0.0, 0.0, 0.0, 0.0, 1.7103951632101755E9, 0.0, 2024-03-13 22:46:03.210
33.0, -30.259530541487038, -17.69720659032464, -30.25205074157566, -21.627841443754733, 0.6560000311583281, 0.6880000326782465, 0.41600001975893974, 0.0, 0.0, 0.0, 0.0, 0.0, 1.7103951632108445E9, 0.0, 2024-03-13 22:46:03.210
33.0, -21.66150054335594, -17.487772192806005, -27.862254669889808, -24.52252400945872, 0.6560000311583281, 0.6880000326782465, 0.41600001975893974, 0.0, 0.0, 0.0, 0.0, 0.0, 1.7103951632108445E9, 0.0, 2024-03-13 22:46:03.210
34.0, -17.472812592983246, -7.954767205752432, -15.053097321651876, -11.182300867512822, 0.6560000311583281, 0.6880000326782465, 0.41600001975893974, 0.0, 0.0, 0.0, 0.0, 0.0, 1.7103951632116108E9, 0.0, 2024-03-13 22:46:03.211
34.0, 1.4286417830735445, 14.720246225595474, 3.825917654670775, 14.256498631089926, 0.6560000311583281, 0.6880000326782465, 0.41600001975893974, 0.0, 0.0, 0.0, 0.0, 0.0, 1.7103951632116108E9, 0.0, 2024-03-13 22:46:03.211
35.0, -13.549657539464533, -5.2246402380988, -16.10026930924505, -11.014005369506776, 0.6560000311583281, 0.6880000326782465, 0.41600001975893974, 0.0, 0.0, 0.0, 0.0, 0.0, 1.7103951632238495E9, 0.0, 2024-03-13 22:46:03.223
35.0, -44.20935737621039, -40.61905341874808, -40.17774522397667, -39.37740663345903, 0.6560000311583281, 0.6880000326782465, 0.41600001975893974, 0.0, 0.0, 0.0, 0.0, 0.0, 1.7103951632238495E9, 0.0, 2024-03-13 22:46:03.223
36.0, -50.44003070238978, -34.27244319394231, -41.05288181360811, -35.588887978345156, 0.6560000311583281, 0.6880000326782465, 0.41600001975893974, 0.0, 0.0, 0.0, 0.0, 0.0, 1.710395163239777E9, 0.0, 2024-03-13 22:46:03.239
36.0, -33.89471329841763, -32.028503220528364, -43.04624848999083, -34.56789529044181, 0.6560000311583281, 0.6880000326782465, 0.41600001975893974, 0.0, 0.0, 0.0, 0.0, 0.0, 1.710395163239777E9, 0.0, 2024-03-13 22:46:03.239
37.0, -31.893866822123528, -26.725325083360076, -25.835228893905878, -28.703732159920037, 0.6560000311583281, 0.6880000326782465, 0.41600001975893974, 0.0, 0.0, 0.0, 0.0, 0.0, 1.7103951632402952E9, 0.0, 2024-03-13 22:46:03.240
37.0, -47.35087333898991, -36.99135046172887, -31.250604029744864, -36.11247397214174, 0.6560000311583281, 0.6880000326782465, 0.41600001975893974, 0.0, 0.0, 0.0, 0.0, 0.0, 1.7103951632402952E9, 0.0, 2024-03-13 22:46:03.240
38.0, -40.050588625483215, -31.4600384272635, -34.444478591904044, -31.41515962779522, 0.6560000311583281, 0.6880000326782465, 0.41600001975893974, 0.0, 0.0, 0.0, 0.0, 0.0, 1.7103951632539396E9, 0.0, 2024-03-13 22:46:03.253
38.0, -28.299822964705527, -28.314782564528286, -29.74342434760183, -32.54086951445788, 0.6560000311583281, 0.6880000326782465, 0.41600001975893974, 0.0, 0.0, 0.0, 0.0, 0.0, 1.7103951632539396E9, 0.0, 2024-03-13 22:46:03.253
39.0, -39.09691413678229, -27.907133469358087, -29.706025348044932, -33.13551360741258, 0.6560000311583281, 0.6880000326782465, 0.41600001975893974, 0.0, 0.0, 0.0, 0.0, 0.0, 1.7103951632696176E9, 0.0, 2024-03-13 22:46:03.269
39.0, -33.217791406437755, -26.762724082916975, -35.12140048388392, -33.11681410763413, 0.6560000311583281, 0.6880000326782465, 0.41600001975893974, 0.0, 0.0, 0.0, 0.0, 0.0, 1.7103951632696176E9, 0.0, 2024-03-13 22:46:03.269
40.0, -41.77842240501195, -35.39815308060497, -49.86408610921353, -46.95818384364247, 0.6560000311583281, 0.6880000326782465, 0.41600001975893974, 0.0, 0.0, 0.0, 0.0, 0.0, 1.710395163270184E9, 0.0, 2024-03-13 22:46:03.270
40.0, -56.27427463326603, -45.60434005968273, -45.731496658176184, -49.14228541776538, 0.6560000311583281, 0.6880000326782465, 0.41600001975893974, 0.0, 0.0, 0.0, 0.0, 0.0, 1.710395163270184E9, 0.0, 2024-03-13 22:46:03.270
41.0, -56.2854943331331, -47.4668102376163, -47.635105735622346, -47.4294112380594, 0.6560000311583281, 0.6880000326782465, 0.41600001975893974, 0.0, 0.0, 0.0, 0.0, 0.0, 1.710395163283877E9, 0.0, 2024-03-13 22:46:03.283
41.0, -55.45149664301425, -49.284401616081595, -57.295267321169376, -54.516521654091775, 0.6560000311583281, 0.6880000326782465, 0.41600001975893974, 0.0, 0.0, 0.0, 0.0, 0.0, 1.710395163283877E9, 0.0, 2024-03-13 22:46:03.283
42.0, -50.496129201725125, -48.125032629817724, -40.70507111772895, -46.81606764532626, 0.6720000319182873, 0.6880000326782465, 0.41600001975893974, 0.0, 0.0, 0.0, 0.0, 0.0, 1.710395163299733E9, 0.0, 2024-03-13 22:46:03.299
42.0, -61.54379367083311, -45.84743355680257, -41.91305880341679, -38.6481261420995, 0.6720000319182873, 0.6880000326782465, 0.41600001975893974, 0.0, 0.0, 0.0, 0.0, 0.0, 1.710395163299733E9, 0.0, 2024-03-13 22:46:03.299
43.0, -57.53462091833353, -45.42482486180961, -37.275582858361304, -35.985317373648286, 0.6720000319182873, 0.6880000326782465, 0.41600001975893974, 0.0, 0.0, 0.0, 0.0, 0.0, 1.7103951633008273E9, 0.0, 2024-03-13 22:46:03.300
43.0, -61.49517497140914, -55.746948739513755, -50.38393220305443, -55.84792603831738, 0.6720000319182873, 0.6880000326782465, 0.41600001975893974, 0.0, 0.0, 0.0, 0.0, 0.0, 1.7103951633008273E9, 0.0, 2024-03-13 22:46:03.300
44.0, -62.08607916440815, -43.685771382413805, -41.95045780297369, -44.94237776752561, 0.6720000319182873, 0.6880000326782465, 0.41600001975893974, 0.0, 0.0, 0.0, 0.0, 0.0, 1.710395163313748E9, 0.0, 2024-03-13 22:46:03.313
44.0, -58.978222301229835, -46.890865644440055, -55.0625470476225, -50.58588680066168, 0.6720000319182873, 0.6880000326782465, 0.41600001975893974, 0.0, 0.0, 0.0, 0.0, 0.0, 1.710395163313748E9, 0.0, 2024-03-13 22:46:03.313
45.0, -46.524355448782444, -36.26954977028072, -46.26256245188415, -46.834767145104706, 0.6720000319182873, 0.6880000326782465, 0.41600001975893974, 0.0, 0.0, 0.0, 0.0, 0.0, 1.710395163329536E9, 0.0, 2024-03-13 22:46:03.329
45.0, -74.2968525197357, -55.03262784797698, -52.45209687855095, -55.746948739513755, 0.6720000319182873, 0.6880000326782465, 0.41600001975893974, 0.0, 0.0, 0.0, 0.0, 0.0, 1.710395163329536E9, 0.0, 2024-03-13 22:46:03.329
46.0, -61.94022306613624, -42.825594392605126, -41.243616711348295, -41.262316211126745, 0.6720000319182873, 0.6880000326782465, 0.41600001975893974, 0.0, 0.0, 0.0, 0.0, 0.0, 1.710395163330279E9, 0.0, 2024-03-13 22:46:03.330
46.0, -44.478630173020065, -31.45255862735212, -36.88663326296955, -32.28655631747097, 0.6720000319182873, 0.6880000326782465, 0.41600001975893974, 0.0, 0.0, 0.0, 0.0, 0.0, 1.710395163330279E9, 0.0, 2024-03-13 22:46:03.330
47.0, -36.59866096638143, -25.838968793861568, -28.9393458571285, -29.941639045253396, 0.6720000319182873, 0.6880000326782465, 0.41600001975893974, 0.0, 0.0, 0.0, 0.0, 0.0, 1.7103951633437817E9, 0.0, 2024-03-13 22:46:03.343
47.0, -60.399384284392, -43.49503648467362, -51.752735586836934, -46.69265094678849, 0.6720000319182873, 0.6880000326782465, 0.41600001975893974, 0.0, 0.0, 0.0, 0.0, 0.0, 1.7103951633437817E9, 0.0, 2024-03-13 22:46:03.343
48.0, -36.94647166226059, -29.919199645519257, -50.929957596585155, -41.640046106651425, 0.6720000319182873, 0.6880000326782465, 0.41600001975893974, 0.0, 0.0, 0.0, 0.0, 0.0, 1.7103951633594604E9, 0.0, 2024-03-13 22:46:03.359
48.0, -25.910026893019676, -32.769003411754966, -35.86564057506621, -35.39067328069359, 0.6720000319182873, 0.6880000326782465, 0.41600001975893974, 0.0, 0.0, 0.0, 0.0, 0.0, 1.7103951633594604E9, 0.0, 2024-03-13 22:46:03.359
49.0, -47.347133439034224, -34.1639860952273, -34.769849888049066, -39.291388934478164, 0.6720000319182873, 0.6880000326782465, 0.41600001975893974, 0.0, 0.0, 0.0, 0.0, 0.0, 1.7103951633601785E9, 0.0, 2024-03-13 22:46:03.360
49.0, -59.62896489351988, -46.00076945498586, -48.22600992862135, -50.22685640491545, 0.6720000319182873, 0.6880000326782465, 0.41600001975893974, 0.0, 0.0, 0.0, 0.0, 0.0, 1.7103951633601785E9, 0.0, 2024-03-13 22:46:03.360
50.0, -35.248557082377374, -35.28221618197858, -33.76381679996848, -39.31756823416799, 0.6720000319182873, 0.6880000326782465, 0.41600001975893974, 0.0, 0.0, 0.0, 0.0, 0.0, 1.710395163373793E9, 0.0, 2024-03-13 22:46:03.373
50.0, -60.8444323791191, -49.86408610921353, -41.07158131338656, -51.356306191533804, 0.6720000319182873, 0.6880000326782465, 0.41600001975893974, 0.0, 0.0, 0.0, 0.0, 0.0, 1.710395163373793E9, 0.0, 2024-03-13 22:46:03.373
51.0, -65.89329731930047, -52.25762208085507, -50.72052319906652, -50.77662169840187, 0.6720000319182873, 0.7040000334382057, 0.41600001975893974, 0.0, 0.0, 0.0, 0.0, 0.0, 1.7103951633898203E9, 0.0, 2024-03-13 22:46:03.389
51.0, -71.11419765744358, -57.59819921758026, -60.90053087845445, -61.26330117415637, 0.6720000319182873, 0.7040000334382057, 0.41600001975893974, 0.0, 0.0, 0.0, 0.0, 0.0, 1.7103951633898203E9, 0.0, 2024-03-13 22:46:03.389
52.0, -46.36727965064347, -43.90642547979951, -31.538576326332986, -36.23215077072382, 0.6560000311583281, 0.7040000334382057, 0.41600001975893974, 0.0, 0.0, 0.0, 0.0, 0.0, 1.7103951633902507E9, 0.0, 2024-03-13 22:46:03.390
52.0, -83.86725650634617, -59.49058859515935, -54.101392759010196, -47.93055783212185, 0.6560000311583281, 0.7040000334382057, 0.41600001975893974, 0.0, 0.0, 0.0, 0.0, 0.0, 1.7103951633902507E9, 0.0, 2024-03-13 22:46:03.390
53.0, -89.56686403881758, -66.84323190804571, -59.09789909981191, -56.42387063149363, 0.6560000311583281, 0.7040000334382057, 0.41600001975893974, 0.0, 0.0, 0.0, 0.0, 0.0, 1.7103951634037857E9, 0.0, 2024-03-13 22:46:03.403
53.0, -61.61111187003553, -54.535221153870225, -47.04794144257903, -53.323493568226695, 0.6560000311583281, 0.7040000334382057, 0.41600001975893974, 0.0, 0.0, 0.0, 0.0, 0.0, 1.7103951634037857E9, 0.0, 2024-03-13 22:46:03.403
54.0, -64.15798373986036, -50.33157360367477, -50.1707579055801, -50.529788301326334, 0.6560000311583281, 0.7040000334382057, 0.41600001975893974, 0.0, 0.0, 0.0, 0.0, 0.0, 1.7103951634198043E9, 0.0, 2024-03-13 22:46:03.419
54.0, -76.59689099248499, -61.57745277043432, -55.50011534243822, -56.33037313260138, 0.6560000311583281, 0.7040000334382057, 0.41600001975893974, 0.0, 0.0, 0.0, 0.0, 0.0, 1.7103951634198043E9, 0.0, 2024-03-13 22:46:03.419
55.0, -48.35316652711481, -43.04998838994652, -41.696144605986774, -41.56898800749332, 0.6560000311583281, 0.7040000334382057, 0.41600001975893974, 0.0, 0.0, 0.0, 0.0, 0.0, 1.7103951634202507E9, 0.0, 2024-03-13 22:46:03.420
55.0, -50.8401999976486, -44.022362378425896, -50.937437396496534, -50.114659406244755, 0.6560000311583281, 0.7040000334382057, 0.41600001975893974, 0.0, 0.0, 0.0, 0.0, 0.0, 1.7103951634202507E9, 0.0, 2024-03-13 22:46:03.420
56.0, -47.4668102376163, -39.0931742368266, -40.92572521511465, -35.68612537719309, 0.6560000311583281, 0.7040000334382057, 0.41600001975893974, 0.0, 0.0, 0.0, 0.0, 0.0, 1.7103951634341428E9, 0.0, 2024-03-13 22:46:03.434
56.0, -77.04193908721209, -58.46959590725601, -54.942870249040425, -54.76335505116731, 0.6560000311583281, 0.7040000334382057, 0.41600001975893974, 0.0, 0.0, 0.0, 0.0, 0.0, 1.7103951634341428E9, 0.0, 2024-03-13 22:46:03.434
57.0, -62.198276163078845, -60.42182368412614, -58.40227770805359, -59.16147739905864, 0.6560000311583281, 0.7040000334382057, 0.41600001975893974, 0.0, 0.0, 0.0, 0.0, 0.0, 1.710395163449515E9, 0.0, 2024-03-13 22:46:03.449
57.0, -59.87579829059541, -54.894251549616456, -50.7280029989779, -55.739468939602375, 0.6560000311583281, 0.7040000334382057, 0.41600001975893974, 0.0, 0.0, 0.0, 0.0, 0.0, 1.710395163449515E9, 0.0, 2024-03-13 22:46:03.449
58.0, -51.47972289007157, -50.56718730088323, -65.66516342200339, -63.55959974694997, 0.6560000311583281, 0.7040000334382057, 0.41600001975893974, 0.0, 0.0, 0.0, 0.0, 0.0, 1.710395163450446E9, 0.0, 2024-03-13 22:46:03.450
58.0, -65.39589062519372, -67.43039620108902, -60.00295488908887, -69.82393217273057, 0.6560000311583281, 0.7040000334382057, 0.41600001975893974, 0.0, 0.0, 0.0, 0.0, 0.0, 1.710395163450446E9, 0.0, 2024-03-13 22:46:03.450
59.0, -76.95592138823122, -65.71378212142736, -44.35895337443799, -59.25497489795089, 0.6560000311583281, 0.7040000334382057, 0.41600001975893974, 0.0, 0.0, 0.0, 0.0, 0.0, 1.7103951634638164E9, 0.0, 2024-03-13 22:46:03.463
59.0, -80.73322034347802, -71.66022305097431, -65.51930732373148, -66.20744891557842, 0.6560000311583281, 0.7040000334382057, 0.41600001975893974, 0.0, 0.0, 0.0, 0.0, 0.0, 1.7103951634638164E9, 0.0, 2024-03-13 22:46:03.463
60.0, -84.60027689766139, -81.2231472376734, -64.19912263937294, -64.1804231395945, 0.6560000311583281, 0.7040000334382057, 0.41600001975893974, 0.0, 0.0, 0.0, 0.0, 0.0, 1.7103951634795082E9, 0.0, 2024-03-13 22:46:03.479
60.0, -72.33714494295418, -67.23592140339315, -45.39864556211978, -53.80968056246638, 0.6560000311583281, 0.7040000334382057, 0.41600001975893974, 0.0, 0.0, 0.0, 0.0, 0.0, 1.7103951634795082E9, 0.0, 2024-03-13 22:46:03.479
61.0, -72.38576364237815, -56.992335424758494, -45.60434005968273, -49.707010311074555, 0.6560000311583281, 0.6880000326782465, 0.41600001975893974, 0.0, 0.0, 0.0, 0.0, 0.0, 1.710395163480233E9, 0.0, 2024-03-13 22:46:03.480
61.0, -52.75876867491752, -52.511935277841985, -49.40033851470798, -48.947810620069504, 0.6560000311583281, 0.6880000326782465, 0.41600001975893974, 0.0, 0.0, 0.0, 0.0, 0.0, 1.710395163480233E9, 0.0, 2024-03-13 22:46:03.480
62.0, -58.578053005971014, -49.45269711408764, -34.048049196600914, -41.98785680253059, 0.6720000319182873, 0.6880000326782465, 0.41600001975893974, 0.0, 0.0, 0.0, 0.0, 0.0, 1.710395163493856E9, 0.0, 2024-03-13 22:46:03.493
62.0, -69.36018457822502, -57.796413915231824, -40.70133121777326, -49.299361215904355, 0.6720000319182873, 0.6880000326782465, 0.41600001975893974, 0.0, 0.0, 0.0, 0.0, 0.0, 1.710395163493856E9, 0.0, 2024-03-13 22:46:03.493
63.0, -75.10467091016471, -65.30613302625716, -56.06858013570309, -58.37609840836376, 0.6720000319182873, 0.6880000326782465, 0.41600001975893974, 0.0, 0.0, 0.0, 0.0, 0.0, 1.7103951635095217E9, 0.0, 2024-03-13 22:46:03.509
63.0, -53.45065016672015, -49.21708341687918, -38.73040394112468, -41.83078100439161, 0.6720000319182873, 0.6880000326782465, 0.41600001975893974, 0.0, 0.0, 0.0, 0.0, 0.0, 1.7103951635095217E9, 0.0, 2024-03-13 22:46:03.509
64.0, -54.524001454003155, -48.461623625829816, -38.34893414564431, -39.74017692916095, 0.6720000319182873, 0.6880000326782465, 0.41600001975893974, 0.0, 0.0, 0.0, 0.0, 0.0, 1.7103951635102372E9, 0.0, 2024-03-13 22:46:03.510
64.0, -51.97338968422264, -43.214543987996876, -44.3552134744823, -37.978684050031006, 0.6720000319182873, 0.6880000326782465, 0.41600001975893974, 0.0, 0.0, 0.0, 0.0, 0.0, 1.7103951635102372E9, 0.0, 2024-03-13 22:46:03.510
65.0, -61.98884176556021, -61.334359273314476, -56.20695643406361, -51.360046091489494, 0.6720000319182873, 0.6880000326782465, 0.41600001975893974, 0.0, 0.0, 0.0, 0.0, 0.0, 1.7103951635238004E9, 0.0, 2024-03-13 22:46:03.523
65.0, -51.53956128936261, -48.34568672720343, -34.19390529487282, -37.208264659158885, 0.6720000319182873, 0.6880000326782465, 0.41600001975893974, 0.0, 0.0, 0.0, 0.0, 0.0, 1.7103951635238004E9, 0.0, 2024-03-13 22:46:03.523
66.0, -72.09405144583434, -65.11165822856128, -52.03696798346937, -57.50470171868801, 0.6720000319182873, 0.6880000326782465, 0.41600001975893974, 0.0, 0.0, 0.0, 0.0, 0.0, 1.7103951635397809E9, 0.0, 2024-03-13 22:46:03.539
66.0, -56.0274412361905, -56.73802222777158, -52.575513577088714, -51.655498187989, 0.6720000319182873, 0.6880000326782465, 0.41600001975893974, 0.0, 0.0, 0.0, 0.0, 0.0, 1.7103951635397809E9, 0.0, 2024-03-13 22:46:03.539
67.0, -42.088834101334214, -38.064701749011874, -12.88021544739604, -28.258684065192938, 0.6720000319182873, 0.6880000326782465, 0.41600001975893974, 0.0, 0.0, 0.0, 0.0, 0.0, 1.7103951635403676E9, 0.0, 2024-03-13 22:46:03.540
67.0, -74.22579442057759, -57.85251241456717, -35.80954207573086, -49.77806841023266, 0.6720000319182873, 0.6880000326782465, 0.41600001975893974, 0.0, 0.0, 0.0, 0.0, 0.0, 1.7103951635403676E9, 0.0, 2024-03-13 22:46:03.540
68.0, -56.528587830252945, -48.454143825918436, -39.699038029648364, -40.36100032180548, 0.6720000319182873, 0.6880000326782465, 0.41600001975893974, 0.0, 0.0, 0.0, 0.0, 0.0, 1.7103951635537477E9, 0.0, 2024-03-13 22:46:03.553
68.0, -54.76335505116731, -53.704963363707066, -38.883739839307964, -49.78928811009973, 0.6720000319182873, 0.6880000326782465, 0.41600001975893974, 0.0, 0.0, 0.0, 0.0, 0.0, 1.7103951635537477E9, 0.0, 2024-03-13 22:46:03.553
69.0, -77.30373208411038, -64.02334734145552, -52.25388218089938, -51.87989218533039, 0.6720000319182873, 0.6880000326782465, 0.41600001975893974, 0.0, 0.0, 0.0, 0.0, 0.0, 1.7103951635700192E9, 0.0, 2024-03-13 22:46:03.570
69.0, -69.59205837547779, -55.26076174527407, -43.55487488396466, -38.479830644093454, 0.6720000319182873, 0.6880000326782465, 0.41600001975893974, 0.0, 0.0, 0.0, 0.0, 0.0, 1.7103951635700192E9, 0.0, 2024-03-13 22:46:03.570
70.0, -52.36981907952577, -44.8002615692094, -35.10270098410547, -38.416252344846725, 0.6720000319182873, 0.6880000326782465, 0.41600001975893974, 0.0, 0.0, 0.0, 0.0, 0.0, 1.710395163570361E9, 0.0, 2024-03-13 22:46:03.570
70.0, -41.18377831205726, -36.067595172673464, -32.813882211223245, -35.78336277604103, 0.6720000319182873, 0.6880000326782465, 0.41600001975893974, 0.0, 0.0, 0.0, 0.0, 0.0, 1.710395163570361E9, 0.0, 2024-03-13 22:46:03.570
71.0, -69.35644467826933, -51.15061169397086, -49.78180831018835, -46.445817549712956, 0.6720000319182873, 0.6880000326782465, 0.41600001975893974, 0.0, 0.0, 0.0, 0.0, 0.0, 1.7103951635847523E9, 0.0, 2024-03-13 22:46:03.584
71.0, -48.01283563114703, -39.261469734832644, -44.056021478027105, -36.61736046615988, 0.6720000319182873, 0.6880000326782465, 0.41600001975893974, 0.0, 0.0, 0.0, 0.0, 0.0, 1.7103951635847523E9, 0.0, 2024-03-13 22:46:03.584
72.0, -39.49708343204111, -35.52904957905412, -27.293789876624942, -32.813882211223245, 0.6720000319182873, 0.6880000326782465, 0.41600001975893974, 0.0, 0.0, 0.0, 0.0, 0.0, 1.710395163599904E9, 0.0, 2024-03-13 22:46:03.599
72.0, -49.755629010498524, -43.296821787022054, -43.319261186756194, -38.76406304072589, 0.6720000319182873, 0.6880000326782465, 0.41600001975893974, 0.0, 0.0, 0.0, 0.0, 0.0, 1.710395163599904E9, 0.0, 2024-03-13 22:46:03.599
73.0, -45.735236558131874, -44.897498968057334, -56.77168132737279, -47.665024935267866, 0.6720000319182873, 0.6880000326782465, 0.41600001975893974, 0.0, 0.0, 0.0, 0.0, 0.0, 1.7103951636004248E9, 0.0, 2024-03-13 22:46:03.600
73.0, -52.81860707420856, -51.677937587723136, -55.25702184531838, -52.04818768333644, 0.6720000319182873, 0.6880000326782465, 0.41600001975893974, 0.0, 0.0, 0.0, 0.0, 0.0, 1.7103951636004248E9, 0.0, 2024-03-13 22:46:03.600
74.0, -55.97134273685515, -52.485755978152156, -49.98002300783992, -54.65863785240799, 0.6720000319182873, 0.6880000326782465, 0.41600001975893974, 0.0, 0.0, 0.0, 0.0, 0.0, 1.7103951636139157E9, 0.0, 2024-03-13 22:46:03.613
74.0, -50.21189680509269, -36.385486668907106, -38.13201994821429, -43.03876869007945, 0.6720000319182873, 0.6880000326782465, 0.41600001975893974, 0.0, 0.0, 0.0, 0.0, 0.0, 1.7103951636139157E9, 0.0, 2024-03-13 22:46:03.613
75.0, -55.05880714766681, -51.670457787811756, -62.209495862945914, -58.133004911243916, 0.6720000319182873, 0.6880000326782465, 0.41600001975893974, 0.0, 0.0, 0.0, 0.0, 0.0, 1.7103951636295643E9, 0.0, 2024-03-13 22:46:03.629
75.0, -42.915351991541684, -44.93489796761423, -49.52375521324575, -49.92392450850457, 0.6720000319182873, 0.6880000326782465, 0.41600001975893974, 0.0, 0.0, 0.0, 0.0, 0.0, 1.7103951636295643E9, 0.0, 2024-03-13 22:46:03.629
76.0, -67.31445930246264, -56.45004993118346, -49.18716421723366, -53.04300107154995, 0.6720000319182873, 0.6880000326782465, 0.41600001975893974, 0.0, 0.0, 0.0, 0.0, 0.0, 1.7103951636304233E9, 0.0, 2024-03-13 22:46:03.630
76.0, -64.90970363095403, -56.910057625733316, -56.63330502901226, -56.03118113614619, 0.6720000319182873, 0.6880000326782465, 0.41600001975893974, 0.0, 0.0, 0.0, 0.0, 0.0, 1.7103951636304233E9, 0.0, 2024-03-13 22:46:03.630
77.0, -48.532681724987924, -41.307195010595024, -36.24711037054658, -43.255682887509465, 0.6720000319182873, 0.6880000326782465, 0.41600001975893974, 0.0, 0.0, 0.0, 0.0, 0.0, 1.7103951636439097E9, 0.0, 2024-03-13 22:46:03.643
77.0, -60.593859082087874, -39.08943433687091, -38.28909574635327, -41.77842240501195, 0.6720000319182873, 0.6880000326782465, 0.41600001975893974, 0.0, 0.0, 0.0, 0.0, 0.0, 1.7103951636439097E9, 0.0, 2024-03-13 22:46:03.643
78.0, -55.11116574704647, -49.60603301227093, -56.42387063149363, -50.67564439959824, 0.6720000319182873, 0.6880000326782465, 0.41600001975893974, 0.0, 0.0, 0.0, 0.0, 0.0, 1.710395163659504E9, 0.0, 2024-03-13 22:46:03.659
78.0, -40.13660632446408, -37.36908035725355, -40.34230082202703, -39.10065403673798, 0.6720000319182873, 0.6880000326782465, 0.41600001975893974, 0.0, 0.0, 0.0, 0.0, 0.0, 1.710395163659504E9, 0.0, 2024-03-13 22:46:03.659
79.0, -48.125032629817724, -33.595521301962435, -30.106194643303752, -32.88120041042566, 0.6720000319182873, 0.6880000326782465, 0.41600001975893974, 0.0, 0.0, 0.0, 0.0, 0.0, 1.7103951636602266E9, 0.0, 2024-03-13 22:46:03.660
79.0, -38.2778760464862, -31.635813725180924, -34.436998791992664, -29.081462055444717, 0.6720000319182873, 0.6880000326782465, 0.41600001975893974, 0.0, 0.0, 0.0, 0.0, 0.0, 1.7103951636602266E9, 0.0, 2024-03-13 22:46:03.660
80.0, -32.29029621742666, -28.827148858457804, -36.026456273160875, -35.48417077958584, 0.6720000319182873, 0.6880000326782465, 0.43200002051889896, 0.0, 0.0, 0.0, 0.0, 0.0, 1.7103951636739752E9, 0.0, 2024-03-13 22:46:03.673
80.0, -40.70133121777326, -35.618807177990675, -37.76176985260099, -39.295128834433854, 0.6720000319182873, 0.6880000326782465, 0.43200002051889896, 0.0, 0.0, 0.0, 0.0, 0.0, 1.7103951636739752E9, 0.0, 2024-03-13 22:46:03.673
81.0, -48.22227002866566, -30.94393223337829, -42.38802609778941, -35.644986477680504, 0.6720000319182873, 0.7040000334382057, 0.43200002051889896, 0.0, 0.0, 0.0, 0.0, 0.0, 1.7103951636895175E9, 0.0, 2024-03-13 22:46:03.689
81.0, -33.92837239801884, -29.78082334715873, -49.01138891931623, -37.04370906110853, 0.6720000319182873, 0.7040000334382057, 0.43200002051889896, 0.0, 0.0, 0.0, 0.0, 0.0, 1.7103951636895175E9, 0.0, 2024-03-13 22:46:03.689
82.0, -40.94068481493741, -35.28221618197858, -49.710750211030245, -47.11151974182576, 0.6720000319182873, 0.7040000334382057, 0.43200002051889896, 0.0, 0.0, 0.0, 0.0, 0.0, 1.710395163690251E9, 0.0, 2024-03-13 22:46:03.690
82.0, -49.318060715682805, -38.63690644223243, -51.5433011893183, -44.123339677229524, 0.6720000319182873, 0.7040000334382057, 0.43200002051889896, 0.0, 0.0, 0.0, 0.0, 0.0, 1.710395163690251E9, 0.0, 2024-03-13 22:46:03.690
83.0, -59.8795381905511, -49.38911881484091, -63.22300875093788, -55.765648239292204, 0.6720000319182873, 0.7040000334382057, 0.43200002051889896, 0.0, 0.0, 0.0, 0.0, 0.0, 1.710395163704363E9, 0.0, 2024-03-13 22:46:03.704
83.0, -47.07412074226886, -48.3195074275136, -51.62557898834348, -54.40806455537677, 0.6720000319182873, 0.7040000334382057, 0.43200002051889896, 0.0, 0.0, 0.0, 0.0, 0.0, 1.710395163704363E9, 0.0, 2024-03-13 22:46:03.704
84.0, -54.43050395511091, -42.54136199597269, -39.642939530313015, -45.37620616238564, 0.6720000319182873, 0.7040000334382057, 0.43200002051889896, 0.0, 0.0, 0.0, 0.0, 0.0, 1.7103951637198868E9, 0.0, 2024-03-13 22:46:03.719
84.0, -45.92223155591637, -35.91051937453449, -39.75513652898371, -37.38030005712062, 0.6720000319182873, 0.7040000334382057, 0.43200002051889896, 0.0, 0.0, 0.0, 0.0, 0.0, 1.7103951637198868E9, 0.0, 2024-03-13 22:46:03.719
85.0, -22.667533631436527, -19.888787964358926, -19.481138869188726, -19.78407076559961, 0.6720000319182873, 0.7040000334382057, 0.43200002051889896, 0.0, 0.0, 0.0, 0.0, 0.0, 1.7103951637202463E9, 0.0, 2024-03-13 22:46:03.720
85.0, -41.00052321422845, -32.13696031924337, -34.19016539491713, -34.22382449451834, 0.6720000319182873, 0.7040000334382057, 0.43200002051889896, 0.0, 0.0, 0.0, 0.0, 0.0, 1.7103951637202463E9, 0.0, 2024-03-13 22:46:03.720
86.0, -41.681185006164014, -33.154213107191026, -34.30610229354352, -31.157106530852616, 0.6720000319182873, 0.7040000334382057, 0.43200002051889896, 0.0, 0.0, 0.0, 0.0, 0.0, 1.710395163734275E9, 0.0, 2024-03-13 22:46:03.734
86.0, -38.31901494599879, -35.9067794745788, -49.83416690956801, -38.58454784285277, 0.6720000319182873, 0.7040000334382057, 0.43200002051889896, 0.0, 0.0, 0.0, 0.0, 0.0, 1.710395163734275E9, 0.0, 2024-03-13 22:46:03.734
87.0, -24.443986110389233, -23.35941512323916, -21.481985345482826, -20.745225054211915, 0.6720000319182873, 0.7040000334382057, 0.43200002051889896, 0.0, 0.0, 0.0, 0.0, 0.0, 1.710395163749804E9, 0.0, 2024-03-13 22:46:03.749
87.0, -35.203678282909095, -28.714951859787107, -27.892173869535327, -27.671519772149622, 0.6720000319182873, 0.7040000334382057, 0.43200002051889896, 0.0, 0.0, 0.0, 0.0, 0.0, 1.710395163749804E9, 0.0, 2024-03-13 22:46:03.749
88.0, -45.48840316105634, -44.27293567545712, -45.37246626242995, -39.93839162681252, 0.6720000319182873, 0.7040000334382057, 0.43200002051889896, 0.0, 0.0, 0.0, 0.0, 0.0, 1.7103951637503877E9, 0.0, 2024-03-13 22:46:03.750
88.0, -13.848849535919726, -27.118014578707516, -32.33891491685063, -29.575128849595785, 0.6720000319182873, 0.7040000334382057, 0.43200002051889896, 0.0, 0.0, 0.0, 0.0, 0.0, 1.7103951637503877E9, 0.0, 2024-03-13 22:46:03.750
89.0, -33.46462480351329, -27.159153478220105, -36.93899186234921, -32.761523611843586, 0.6720000319182873, 0.7040000334382057, 0.43200002051889896, 0.0, 0.0, 0.0, 0.0, 0.0, 1.710395163763873E9, 0.0, 2024-03-13 22:46:03.763
89.0, -41.45679100882262, -34.53049629088491, -47.49298953730613, -33.625440501607955, 0.6720000319182873, 0.7040000334382057, 0.43200002051889896, 0.0, 0.0, 0.0, 0.0, 0.0, 1.710395163763873E9, 0.0, 2024-03-13 22:46:03.763
90.0, -24.99001150391996, -27.207772177644074, -41.213697511702776, -29.44423235114664, 0.6720000319182873, 0.7040000334382057, 0.41600001975893974, 0.0, 0.0, 0.0, 0.0, 0.0, 1.7103951637794564E9, 0.0, 2024-03-13 22:46:03.779
90.0, -39.97205072641373, -34.58659479022026, -38.820161540061235, -39.280169234611094, 0.6720000319182873, 0.7040000334382057, 0.41600001975893974, 0.0, 0.0, 0.0, 0.0, 0.0, 1.7103951637794564E9, 0.0, 2024-03-13 22:46:03.779
91.0, -57.744055315852165, -46.834767145104706, -49.22082331683487, -46.071827554143965, 0.6720000319182873, 0.6880000326782465, 0.41600001975893974, 0.0, 0.0, 0.0, 0.0, 0.0, 1.7103951637801998E9, 0.0, 2024-03-13 22:46:03.780
91.0, -50.81402069795877, -47.10403994191438, -38.13575984816998, -41.8719199039042, 0.6720000319182873, 0.6880000326782465, 0.41600001975893974, 0.0, 0.0, 0.0, 0.0, 0.0, 1.7103951637801998E9, 0.0, 2024-03-13 22:46:03.780
92.0, -60.04035388864577, -55.50011534243822, -39.257729834876955, -43.18088488839567, 0.6720000319182873, 0.6880000326782465, 0.41600001975893974, 0.0, 0.0, 0.0, 0.0, 0.0, 1.7103951637942264E9, 0.0, 2024-03-13 22:46:03.794
92.0, -73.28333963174373, -55.5449941419065, -48.65609842352569, -48.540161524899304, 0.6720000319182873, 0.6880000326782465, 0.41600001975893974, 0.0, 0.0, 0.0, 0.0, 0.0, 1.7103951637942264E9, 0.0, 2024-03-13 22:46:03.794
93.0, -46.39719885028899, -40.061808325350285, -39.38114653341472, -32.776483211666346, 0.6720000319182873, 0.6880000326782465, 0.41600001975893974, 0.0, 0.0, 0.0, 0.0, 0.0, 1.7103951638094935E9, 0.0, 2024-03-13 22:46:03.809
93.0, -41.04166211374104, -43.255682887509465, -35.87312037497759, -38.390073045156896, 0.6720000319182873, 0.6880000326782465, 0.41600001975893974, 0.0, 0.0, 0.0, 0.0, 0.0, 1.7103951638094935E9, 0.0, 2024-03-13 22:46:03.809
94.0, -52.100546282716095, -49.59107341244817, -47.81462093349546, -48.28584832791239, 0.6720000319182873, 0.6880000326782465, 0.41600001975893974, 0.0, 0.0, 0.0, 0.0, 0.0, 1.7103951638102376E9, 0.0, 2024-03-13 22:46:03.810
94.0, -72.98788753524423, -66.82827230822295, -62.74804145656526, -60.4741822835058, 0.6720000319182873, 0.6880000326782465, 0.41600001975893974, 0.0, 0.0, 0.0, 0.0, 0.0, 1.7103951638102376E9, 0.0, 2024-03-13 22:46:03.810
95.0, -60.09271248802543, -55.89654473774135, -51.659238087944686, -51.38622539117932, 0.6720000319182873, 0.6880000326782465, 0.41600001975893974, 0.0, 0.0, 0.0, 0.0, 0.0, 1.7103951638239064E9, 0.0, 2024-03-13 22:46:03.823
95.0, -55.64597144071013, -47.37331273872405, -42.97145049087703, -44.074720977805555, 0.6720000319182873, 0.6880000326782465, 0.41600001975893974, 0.0, 0.0, 0.0, 0.0, 0.0, 1.7103951638239064E9, 0.0, 2024-03-13 22:46:03.823
96.0, -54.23228925745934, -40.66393221821636, -38.53966904338449, -36.74825696460903, 0.6720000319182873, 0.6880000326782465, 0.41600001975893974, 0.0, 0.0, 0.0, 0.0, 0.0, 1.7103951638395207E9, 0.0, 2024-03-13 22:46:03.839
96.0, -48.917891420423985, -39.49334353208542, -40.020669425837696, -35.91425927449018, 0.6720000319182873, 0.6880000326782465, 0.41600001975893974, 0.0, 0.0, 0.0, 0.0, 0.0, 1.7103951638395207E9, 0.0, 2024-03-13 22:46:03.839
97.0, -41.45679100882262, -39.89725272729993, -47.11151974182576, -43.02754899021238, 0.6720000319182873, 0.6880000326782465, 0.41600001975893974, 0.0, 0.0, 0.0, 0.0, 0.0, 1.7103951638401797E9, 0.0, 2024-03-13 22:46:03.840
97.0, -44.62448627129197, -41.05288181360811, -55.27946124505252, -46.430857949890196, 0.6720000319182873, 0.6880000326782465, 0.41600001975893974, 0.0, 0.0, 0.0, 0.0, 0.0, 1.7103951638401797E9, 0.0, 2024-03-13 22:46:03.840
98.0, -50.82150049787015, -48.26714882813394, -67.90162359550595, -51.763955286704004, 0.6720000319182873, 0.6880000326782465, 0.41600001975893974, 0.0, 0.0, 0.0, 0.0, 0.0, 1.7103951638539076E9, 0.0, 2024-03-13 22:46:03.853
98.0, -46.33736045099795, -49.04878791887313, -56.01248163636774, -53.82838006224483, 0.6720000319182873, 0.6880000326782465, 0.41600001975893974, 0.0, 0.0, 0.0, 0.0, 0.0, 1.7103951638539076E9, 0.0, 2024-03-13 22:46:03.853
99.0, -65.08547892887145, -57.07835312373936, -56.82777982670814, -57.93479021359235, 0.6720000319182873, 0.6880000326782465, 0.41600001975893974, 0.0, 0.0, 0.0, 0.0, 0.0, 1.7103951638695028E9, 0.0, 2024-03-13 22:46:03.869
99.0, -68.26065399125218, -56.43135043140501, -67.43413610104471, -62.4750287597999, 0.6720000319182873, 0.6880000326782465, 0.41600001975893974, 0.0, 0.0, 0.0, 0.0, 0.0, 1.7103951638695028E9, 0.0, 2024-03-13 22:46:03.869
100.0, -36.5724816666916, -43.40527888573706, -44.77408226951957, -48.454143825918436, 0.6720000319182873, 0.6880000326782465, 0.41600001975893974, 0.0, 0.0, 0.0, 0.0, 0.0, 1.7103951638701854E9, 0.0, 2024-03-13 22:46:03.870
100.0, -35.7945824759081, -38.31153514608741, -28.14274716656655, -42.97893029078841, 0.6720000319182873, 0.6880000326782465, 0.41600001975893974, 0.0, 0.0, 0.0, 0.0, 0.0, 1.7103951638701854E9, 0.0, 2024-03-13 22:46:03.870
0.0, -852.8561356454156, -446.8694260055199, -528.0084254941903, -503.794443231076, 0.6720000319182873, 0.6880000326782465, 0.41600001975893974, 0.0, 0.0, 0.0, 0.0, 0.0, 1.7103951638848968E9, 0.0, 2024-03-13 22:46:03.884
1.0, -839.994619697798, -437.59821401536465, -536.224985696841, -501.22139206156135, 0.6720000319182873, 0.6880000326782465, 0.41600001975893974, 0.0, 0.0, 0.0, 0.0, 0.0, 1.710395163885748E9, 0.0, 2024-03-13 22:46:03.885
1.0, -840.2040540953167, -446.072827314958, -544.6995989964344, -509.3631542650983, 0.6720000319182873, 0.6880000326782465, 0.41600001975893974, 0.0, 0.0, 0.0, 0.0, 0.0, 1.710395163885748E9, 0.0, 2024-03-13 22:46:03.885
2.0, -827.7501872428693, -425.00597086455673, -525.5326117235236, -486.17951443977654, 0.6720000319182873, 0.6880000326782465, 0.41600001975893974, 0.0, 0.0, 0.0, 0.0, 0.0, 1.710395163899237E9, 0.0, 2024-03-13 22:46:03.899
2.0, -825.9026766647585, -427.15267343912274, -530.110249269288, -492.5971827637404, 0.6720000319182873, 0.6880000326782465, 0.41600001975893974, 0.0, 0.0, 0.0, 0.0, 0.0, 1.710395163899237E9, 0.0, 2024-03-13 22:46:03.899
3.0, -820.0310337343253, -421.66998010408133, -506.2496875519864, -475.95088806096464, 0.6720000319182873, 0.6880000326782465, 0.41600001975893974, 0.0, 0.0, 0.0, 0.0, 0.0, 1.710395163914494E9, 0.0, 2024-03-13 22:46:03.914
3.0, -840.3386904937215, -438.26765610743314, -527.3539430019446, -493.80891034938395, 0.6720000319182873, 0.6880000326782465, 0.41600001975893974, 0.0, 0.0, 0.0, 0.0, 0.0, 1.710395163914494E9, 0.0, 2024-03-13 22:46:03.914
4.0, -842.4479940687306, -450.317613764666, -550.7844162243418, -507.4558052876964, 0.6720000319182873, 0.6880000326782465, 0.41600001975893974, 0.0, 0.0, 0.0, 0.0, 0.0, 1.7103951639152892E9, 0.0, 2024-03-13 22:46:03.915
4.0, -829.0067936279811, -437.89366611186415, -540.1481407503597, -499.85632857773453, 0.6720000319182873, 0.6880000326782465, 0.41600001975893974, 0.0, 0.0, 0.0, 0.0, 0.0, 1.7103951639152892E9, 0.0, 2024-03-13 22:46:03.915
5.0, -824.3805373827927, -424.4225464714691, -526.9201146070845, -487.66425472218543, 0.6720000319182873, 0.6880000326782465, 0.41600001975893974, 0.0, 0.0, 0.0, 0.0, 0.0, 1.7103951639288678E9, 0.0, 2024-03-13 22:46:03.928
5.0, -828.610364232678, -423.6409073807299, -540.0621230513789, -489.1190758049488, 0.6720000319182873, 0.6880000326782465, 0.41600001975893974, 0.0, 0.0, 0.0, 0.0, 0.0, 1.7103951639288678E9, 0.0, 2024-03-13 22:46:03.928
6.0, -809.7051699566655, -421.0080178119242, -534.8374828132801, -492.0810765698552, 0.6720000319182873, 0.6880000326782465, 0.41600001975893974, 0.0, 0.0, 0.0, 0.0, 0.0, 1.7103951639445262E9, 0.0, 2024-03-13 22:46:03.944
6.0, -814.9260702948086, -425.7539508556947, -522.4696336598136, -488.06816391739994, 0.6720000319182873, 0.6880000326782465, 0.41600001975893974, 0.0, 0.0, 0.0, 0.0, 0.0, 1.7103951639445262E9, 0.0, 2024-03-13 22:46:03.944
7.0, -841.4830998801626, -432.26511667855084, -528.4983523883857, -491.4976521767676, 0.6720000319182873, 0.6880000326782465, 0.41600001975893974, 0.0, 0.0, 0.0, 0.0, 0.0, 1.7103951639452012E9, 0.0, 2024-03-13 22:46:03.945
7.0, -843.1099563608877, -438.8697800002992, -544.1647933027707, -500.4958514701575, 0.6720000319182873, 0.6880000326782465, 0.41600001975893974, 0.0, 0.0, 0.0, 0.0, 0.0, 1.7103951639452012E9, 0.0, 2024-03-13 22:46:03.945
8.0, -832.5559586859308, -438.78002240136266, -532.6571211391129, -498.8577752895653, 0.6720000319182873, 0.6880000326782465, 0.41600001975893974, 0.0, 0.0, 0.0, 0.0, 0.0, 1.7103951639588156E9, 0.0, 2024-03-13 22:46:03.958
8.0, -821.5643927161582, -421.3446088079363, -520.4613073836081, -483.43816777225584, 0.6720000319182873, 0.6880000326782465, 0.41600001975893974, 0.0, 0.0, 0.0, 0.0, 0.0, 1.7103951639588156E9, 0.0, 2024-03-13 22:46:03.958
9.0, -832.312865188811, -426.1391605511308, -525.7607456208207, -486.8601762317121, 0.6720000319182873, 0.6880000326782465, 0.41600001975893974, 0.0, 0.0, 0.0, 0.0, 0.0, 1.7103951639744887E9, 0.0, 2024-03-13 22:46:03.974
9.0, -789.8986597913317, -407.58551687095314, -515.7864324389957, -477.31969144474715, 0.6720000319182873, 0.6880000326782465, 0.41600001975893974, 0.0, 0.0, 0.0, 0.0, 0.0, 1.7103951639744887E9, 0.0, 2024-03-13 22:46:03.974
10.0, -815.9358432828449, -413.4459401015192, -514.009979960043, -477.7123809400946, 0.6720000319182873, 0.6880000326782465, 0.41600001975893974, 0.0, 0.0, 0.0, 0.0, 0.0, 1.710395163975211E9, 0.0, 2024-03-13 22:46:03.975
10.0, -814.4585828003474, -411.36655572615564, -523.9543739422224, -481.17178839910775, 0.6720000319182873, 0.6880000326782465, 0.41600001975893974, 0.0, 0.0, 0.0, 0.0, 0.0, 1.710395163975211E9, 0.0, 2024-03-13 22:46:03.975
11.0, -803.0668475353159, -413.9807457951829, -517.5628849179484, -475.7489334633574, 0.6720000319182873, 0.6880000326782465, 0.41600001975893974, 0.0, 0.0, 0.0, 0.0, 0.0, 1.7103951639888136E9, 0.0, 2024-03-13 22:46:03.988
11.0, -813.6993831093423, -416.8716884609312, -507.412796438206, -476.49691345449537, 0.6720000319182873, 0.6880000326782465, 0.41600001975893974, 0.0, 0.0, 0.0, 0.0, 0.0, 1.7103951639888136E9, 0.0, 2024-03-13 22:46:03.988
12.0, -819.8963973359205, -417.51869115326554, -511.43318889057264, -475.09819087106735, 0.6720000319182873, 0.6880000326782465, 0.41600001975893974, 0.0, 0.0, 0.0, 0.0, 0.0, 1.7103951640044749E9, 0.0, 2024-03-13 22:46:04.004
12.0, -815.3449390898459, -415.5702032763511, -531.9278406477533, -491.5761900758371, 0.6720000319182873, 0.6880000326782465, 0.41600001975893974, 0.0, 0.0, 0.0, 0.0, 0.0, 1.7103951640044749E9, 0.0, 2024-03-13 22:46:04.004
13.0, -801.8364204498939, -420.92574001289904, -527.903708295431, -490.03161139413714, 0.6720000319182873, 0.6880000326782465, 0.41600001975893974, 0.0, 0.0, 0.0, 0.0, 0.0, 1.7103951640052195E9, 0.0, 2024-03-13 22:46:04.005
13.0, -816.6127651748247, -418.5696030408144, -520.7492796801962, -482.51441248320043, 0.6720000319182873, 0.6880000326782465, 0.41600001975893974, 0.0, 0.0, 0.0, 0.0, 0.0, 1.7103951640052195E9, 0.0, 2024-03-13 22:46:04.005
14.0, -818.5500333518721, -416.5388373648748, -531.6922269505449, -486.95367373060435, 0.6720000319182873, 0.6880000326782465, 0.41600001975893974, 0.0, 0.0, 0.0, 0.0, 0.0, 1.7103951640190873E9, 0.0, 2024-03-13 22:46:04.019
14.0, -808.3775054723956, -414.77360458578914, -532.7992373374291, -487.40620162524283, 0.6720000319182873, 0.6880000326782465, 0.41600001975893974, 0.0, 0.0, 0.0, 0.0, 0.0, 1.7103951640190873E9, 0.0, 2024-03-13 22:46:04.019
15.0, -822.5779056041501, -422.99390468839556, -522.4733735597692, -485.51381224766374, 0.6720000319182873, 0.6880000326782465, 0.41600001975893974, 0.0, 0.0, 0.0, 0.0, 0.0, 1.7103951640351133E9, 0.0, 2024-03-13 22:46:04.035
15.0, -826.6469167559408, -422.54511669371277, -527.5184985999949, -488.58427011128515, 0.6720000319182873, 0.6880000326782465, 0.41600001975893974, 0.0, 0.0, 0.0, 0.0, 0.0, 1.7103951640351133E9, 0.0, 2024-03-13 22:46:04.035
16.0, -817.0278940699063, -414.77734448574483, -523.5841238466091, -490.4093412896618, 0.6720000319182873, 0.6880000326782465, 0.41600001975893974, 0.0, 0.0, 0.0, 0.0, 0.0, 1.710395164035368E9, 0.0, 2024-03-13 22:46:04.035
16.0, -798.6575054875575, -413.4646396012977, -523.6925809453242, -482.9332812782377, 0.6720000319182873, 0.6880000326782465, 0.41600001975893974, 0.0, 0.0, 0.0, 0.0, 0.0, 1.710395164035368E9, 0.0, 2024-03-13 22:46:04.035
17.0, -807.6145658814348, -408.6813075579703, -520.7081407806836, -475.94714816100895, 0.6720000319182873, 0.6880000326782465, 0.41600001975893974, 0.0, 0.0, 0.0, 0.0, 0.0, 1.7103951640488155E9, 0.0, 2024-03-13 22:46:04.048
17.0, -819.1820764443837, -421.1725734099746, -534.7140661147423, -489.0816768053919, 0.6720000319182873, 0.6880000326782465, 0.41600001975893974, 0.0, 0.0, 0.0, 0.0, 0.0, 1.7103951640488155E9, 0.0, 2024-03-13 22:46:04.048
18.0, -810.3933115485124, -422.84430869016796, -531.9166209478863, -496.1987064210698, 0.6720000319182873, 0.6880000326782465, 0.41600001975893974, 0.0, 0.0, 0.0, 0.0, 0.0, 1.7103951640645704E9, 0.0, 2024-03-13 22:46:04.064
18.0, -817.4617224647664, -420.9033006131649, -519.8367440910079, -482.929541378282, 0.6720000319182873, 0.6880000326782465, 0.41600001975893974, 0.0, 0.0, 0.0, 0.0, 0.0, 1.7103951640645704E9, 0.0, 2024-03-13 22:46:04.064
19.0, -833.5245927744545, -433.70123826153576, -537.1225616862066, -492.0810765698552, 0.6720000319182873, 0.6880000326782465, 0.41600001975893974, 0.0, 0.0, 0.0, 0.0, 0.0, 1.7103951640652344E9, 0.0, 2024-03-13 22:46:04.065
19.0, -798.9753969837911, -412.02851801831275, -508.6731427232735, -470.83470492158085, 0.6720000319182873, 0.6880000326782465, 0.41600001975893974, 0.0, 0.0, 0.0, 0.0, 0.0, 1.7103951640652344E9, 0.0, 2024-03-13 22:46:04.065
20.0, -811.7172361328267, -417.8739816490561, -515.9547279370017, -476.21268105786294, 0.6720000319182873, 0.6880000326782465, 0.41600001975893974, 0.0, 0.0, 0.0, 0.0, 0.0, 1.7103951640788064E9, 0.0, 2024-03-13 22:46:04.078
20.0, -816.8932576715015, -419.72897202707827, -529.8110572728328, -479.2943586213514, 0.6720000319182873, 0.6880000326782465, 0.41600001975893974, 0.0, 0.0, 0.0, 0.0, 0.0, 1.7103951640788064E9, 0.0, 2024-03-13 22:46:04.078
21.0, -810.5092484471388, -420.80980311427265, -531.4566132533364, -489.4220077013597, 0.6720000319182873, 0.6880000326782465, 0.41600001975893974, 0.0, 0.0, 0.0, 0.0, 0.0, 1.7103951640945735E9, 0.0, 2024-03-13 22:46:04.094
21.0, -816.392111077439, -422.7844702908769, -519.0551050002687, -480.31909120921046, 0.6720000319182873, 0.6880000326782465, 0.41600001975893974, 0.0, 0.0, 0.0, 0.0, 0.0, 1.7103951640945735E9, 0.0, 2024-03-13 22:46:04.094
22.0, -827.9671014402993, -429.5836084103212, -531.497752152849, -493.76777144987136, 0.6720000319182873, 0.6880000326782465, 0.41600001975893974, 0.0, 0.0, 0.0, 0.0, 0.0, 1.7103951640952675E9, 0.0, 2024-03-13 22:46:04.095
22.0, -822.5592061043717, -425.1181678632274, -538.7307186671533, -494.7588449381292, 0.6720000319182873, 0.6880000326782465, 0.41600001975893974, 0.0, 0.0, 0.0, 0.0, 0.0, 1.7103951640952675E9, 0.0, 2024-03-13 22:46:04.095
23.0, -812.9813223178498, -435.6048473389819, -537.8967209770344, -501.47570525854826, 0.6720000319182873, 0.6880000326782465, 0.41600001975893974, 0.0, 0.0, 0.0, 0.0, 0.0, 1.7103951641089485E9, 0.0, 2024-03-13 22:46:04.108
23.0, -808.6467782692052, -424.302869672887, -515.8088718387298, -486.572203935124, 0.6720000319182873, 0.6880000326782465, 0.41600001975893974, 0.0, 0.0, 0.0, 0.0, 0.0, 1.7103951641089485E9, 0.0, 2024-03-13 22:46:04.108
24.0, -826.3963434589095, -436.56226172763854, -541.4533658348955, -499.7852704785764, 0.6720000319182873, 0.6880000326782465, 0.41600001975893974, 0.0, 0.0, 0.0, 0.0, 0.0, 1.710395164124529E9, 0.0, 2024-03-13 22:46:04.124
24.0, -806.948863689322, -428.8356284191832, -533.5584370284341, -495.6751204272732, 0.6720000319182873, 0.6880000326782465, 0.41600001975893974, 0.0, 0.0, 0.0, 0.0, 0.0, 1.710395164124529E9, 0.0, 2024-03-13 22:46:04.124
25.0, -821.9533423115499, -430.6457399977371, -542.9755051168613, -500.03210387565196, 0.6720000319182873, 0.6880000326782465, 0.41600001975893974, 0.0, 0.0, 0.0, 0.0, 0.0, 1.710395164125304E9, 0.0, 2024-03-13 22:46:04.125
25.0, -832.9449082813226, -429.63596700970083, -545.9636851814575, -499.84136897791177, 0.6720000319182873, 0.6880000326782465, 0.41600001975893974, 0.0, 0.0, 0.0, 0.0, 0.0, 1.710395164125304E9, 0.0, 2024-03-13 22:46:04.125
26.0, -808.9048313661478, -420.84720211382955, -531.5501107522286, -484.1225694641471, 0.6720000319182873, 0.6880000326782465, 0.41600001975893974, 0.0, 0.0, 0.0, 0.0, 0.0, 1.7103951641388297E9, 0.0, 2024-03-13 22:46:04.138
26.0, -802.7975747385062, -420.2450782209635, -512.9441084726714, -482.14042248763144, 0.6720000319182873, 0.6880000326782465, 0.41600001975893974, 0.0, 0.0, 0.0, 0.0, 0.0, 1.7103951641388297E9, 0.0, 2024-03-13 22:46:04.138
27.0, -807.2630152856, -416.65851416345686, -520.5361053827219, -478.5538584301248, 0.6720000319182873, 0.6880000326782465, 0.41600001975893974, 0.0, 0.0, 0.0, 0.0, 0.0, 1.7103951641547947E9, 0.0, 2024-03-13 22:46:04.154
27.0, -802.3712261435576, -411.3889951258898, -516.1043239352293, -472.1137507064268, 0.6720000319182873, 0.6880000326782465, 0.41600001975893974, 0.0, 0.0, 0.0, 0.0, 0.0, 1.7103951641547947E9, 0.0, 2024-03-13 22:46:04.154
28.0, -801.4362511546351, -414.6389681873843, -508.20565522881225, -473.8565440857783, 0.6720000319182873, 0.6880000326782465, 0.41600001975893974, 0.0, 0.0, 0.0, 0.0, 0.0, 1.71039516415531E9, 0.0, 2024-03-13 22:46:04.155
28.0, -786.3906336328946, -397.5663248896599, -493.67614390095696, -457.8422924755141, 0.6720000319182873, 0.6880000326782465, 0.41600001975893974, 0.0, 0.0, 0.0, 0.0, 0.0, 1.71039516415531E9, 0.0, 2024-03-13 22:46:04.155
29.0, -810.0305412528105, -411.9275407195091, -523.0156590533443, -470.46445482596755, 0.6720000319182873, 0.6880000326782465, 0.41600001975893974, 0.0, 0.0, 0.0, 0.0, 0.0, 1.7103951641690423E9, 0.0, 2024-03-13 22:46:04.169
29.0, -799.9215916725807, -421.0940355109051, -532.3167902431451, -485.88406234327704, 0.6720000319182873, 0.6880000326782465, 0.41600001975893974, 0.0, 0.0, 0.0, 0.0, 0.0, 1.7103951641690423E9, 0.0, 2024-03-13 22:46:04.169
30.0, -810.374612048734, -426.65900664497167, -527.8476097960956, -485.50633244775236, 0.6720000319182873, 0.6880000326782465, 0.41600001975893974, 0.0, 0.0, 0.0, 0.0, 0.0, 1.7103951641848965E9, 0.0, 2024-03-13 22:46:04.184
30.0, -819.6420841389336, -426.03070345241576, -541.6964593320154, -490.1625078925863, 0.6720000319182873, 0.6880000326782465, 0.41600001975893974, 0.0, 0.0, 0.0, 0.0, 0.0, 1.7103951641848965E9, 0.0, 2024-03-13 22:46:04.184
31.0, -809.1329652634449, -423.26317748520523, -537.515251181554, -493.8650088487193, 0.6720000319182873, 0.6880000326782465, 0.41600001975893974, 0.0, 0.0, 0.0, 0.0, 0.0, 1.7103951641854804E9, 0.0, 2024-03-13 22:46:04.185
31.0, -804.1738579222001, -420.491911618039, -516.3361977324821, -483.6438622698188, 0.6720000319182873, 0.6880000326782465, 0.41600001975893974, 0.0, 0.0, 0.0, 0.0, 0.0, 1.7103951641854804E9, 0.0, 2024-03-13 22:46:04.185
32.0, -810.6962434449233, -415.37198857869953, -510.53561290120706, -479.0886641237885, 0.6720000319182873, 0.6880000326782465, 0.41600001975893974, 0.0, 0.0, 0.0, 0.0, 0.0, 1.710395164199087E9, 0.0, 2024-03-13 22:46:04.199
32.0, -811.8593523311429, -418.62196164019406, -516.9869403247721, -480.2555129099637, 0.6720000319182873, 0.6880000326782465, 0.41600001975893974, 0.0, 0.0, 0.0, 0.0, 0.0, 1.710395164199087E9, 0.0, 2024-03-13 22:46:04.199
33.0, -821.8224458131008, -437.0596684217453, -535.7200992028229, -495.5666633285582, 0.6720000319182873, 0.6880000326782465, 0.41600001975893974, 0.0, 0.0, 0.0, 0.0, 0.0, 1.710395164214809E9, 0.0, 2024-03-13 22:46:04.214
33.0, -818.202222655993, -424.351488372311, -526.08237701701, -482.43961448408663, 0.6720000319182873, 0.6880000326782465, 0.41600001975893974, 0.0, 0.0, 0.0, 0.0, 0.0, 1.710395164214809E9, 0.0, 2024-03-13 22:46:04.214
34.0, -819.6271245391108, -419.25774463266134, -530.7086332621984, -479.3392374208197, 0.6720000319182873, 0.6880000326782465, 0.41600001975893974, 0.0, 0.0, 0.0, 0.0, 0.0, 1.710395164215378E9, 0.0, 2024-03-13 22:46:04.215
34.0, -796.0283558187075, -406.58322368282825, -517.7760592154227, -476.12666335888207, 0.6720000319182873, 0.6880000326782465, 0.41600001975893974, 0.0, 0.0, 0.0, 0.0, 0.0, 1.710395164215378E9, 0.0, 2024-03-13 22:46:04.215
35.0, -793.8891330440529, -401.28752534557134, -499.0316806375049, -460.79681344050914, 0.6720000319182873, 0.6880000326782465, 0.41600001975893974, 0.0, 0.0, 0.0, 0.0, 0.0, 1.71039516422881E9, 0.0, 2024-03-13 22:46:04.228
35.0, -808.8449929668568, -410.5325580360368, -519.3655166965909, -474.68306197598577, 0.6720000319182873, 0.6880000326782465, 0.41600001975893974, 0.0, 0.0, 0.0, 0.0, 0.0, 1.71039516422881E9, 0.0, 2024-03-13 22:46:04.228
36.0, -807.9548967774026, -410.5362979359925, -526.7892181086354, -477.94799463730305, 0.6720000319182873, 0.6880000326782465, 0.41600001975893974, 0.0, 0.0, 0.0, 0.0, 0.0, 1.7103951642445848E9, 0.0, 2024-03-13 22:46:04.244
36.0, -797.939444696065, -405.5547511950135, -512.4429618786089, -471.2236545169726, 0.6720000319182873, 0.6880000326782465, 0.41600001975893974, 0.0, 0.0, 0.0, 0.0, 0.0, 1.7103951642445848E9, 0.0, 2024-03-13 22:46:04.244
37.0, -810.0679402523674, -403.40056882053614, -518.5090796067379, -467.046186266467, 0.6720000319182873, 0.6880000326782465, 0.41600001975893974, 0.0, 0.0, 0.0, 0.0, 0.0, 1.710395164245304E9, 0.0, 2024-03-13 22:46:04.245
37.0, -808.661737869028, -413.02333140652627, -526.1496952162124, -477.6301031410694, 0.6720000319182873, 0.6880000326782465, 0.41600001975893974, 0.0, 0.0, 0.0, 0.0, 0.0, 1.710395164245304E9, 0.0, 2024-03-13 22:46:04.245
38.0, -803.8933654255234, -413.7825310975313, -526.9350742069073, -487.596936522983, 0.6720000319182873, 0.6880000326782465, 0.41600001975893974, 0.0, 0.0, 0.0, 0.0, 0.0, 1.7103951642752368E9, 0.0, 2024-03-13 22:46:04.275
38.0, -830.1549429143779, -424.3888873718679, -535.1217152099125, -490.17372759245336, 0.6720000319182873, 0.6880000326782465, 0.41600001975893974, 0.0, 0.0, 0.0, 0.0, 0.0, 1.7103951642752368E9, 0.0, 2024-03-13 22:46:04.275
39.0, -821.3661780185066, -426.3560747485608, -537.5900491806678, -491.83798307273537, 0.6720000319182873, 0.6880000326782465, 0.41600001975893974, 0.0, 0.0, 0.0, 0.0, 0.0, 1.710395164275938E9, 0.0, 2024-03-13 22:46:04.275
39.0, -820.3451853306033, -425.1705264626071, -525.64854862215, -489.3472097022459, 0.6720000319182873, 0.6880000326782465, 0.41600001975893974, 0.0, 0.0, 0.0, 0.0, 0.0, 1.710395164275938E9, 0.0, 2024-03-13 22:46:04.275
40.0, -808.0035154768266, -410.87288893200457, -509.35006461525336, -477.61888344120234, 0.6720000319182873, 0.6880000326782465, 0.4000000189989805, 0.0, 0.0, 0.0, 0.0, 0.0, 1.7103951642766416E9, 0.0, 2024-03-13 22:46:04.276
40.0, -814.0883327047341, -415.21117288060486, -537.6087486804463, -489.22005310375243, 0.6720000319182873, 0.6880000326782465, 0.4000000189989805, 0.0, 0.0, 0.0, 0.0, 0.0, 1.7103951642766416E9, 0.0, 2024-03-13 22:46:04.276
41.0, -812.9401834183373, -419.10814863443375, -534.549510516692, -485.341776849702, 0.6720000319182873, 0.6880000326782465, 0.4000000189989805, 0.0, 0.0, 0.0, 0.0, 0.0, 1.7103951642893112E9, 0.0, 2024-03-13 22:46:04.289
41.0, -811.0365743408911, -414.5005918890238, -524.1638083397411, -484.5189988594502, 0.6720000319182873, 0.6880000326782465, 0.4000000189989805, 0.0, 0.0, 0.0, 0.0, 0.0, 1.7103951642893112E9, 0.0, 2024-03-13 22:46:04.289
42.0, -806.5860933936201, -397.9702340848744, -514.8701569498517, -471.7696799105033, 0.6720000319182873, 0.6880000326782465, 0.4000000189989805, 0.0, 0.0, 0.0, 0.0, 0.0, 1.7103951643045154E9, 0.0, 2024-03-13 22:46:04.304
42.0, -788.0548891131766, -390.27725987602025, -508.1757360291667, -457.9320500744507, 0.6720000319182873, 0.6880000326782465, 0.4000000189989805, 0.0, 0.0, 0.0, 0.0, 0.0, 1.7103951643045154E9, 0.0, 2024-03-13 22:46:04.304
43.0, -807.1395985870622, -410.48019943665713, -528.2141199917533, -482.6415690816939, 0.6720000319182873, 0.6880000326782465, 0.4000000189989805, 0.0, 0.0, 0.0, 0.0, 0.0, 1.7103951643052275E9, 0.0, 2024-03-13 22:46:04.305
43.0, -826.8600910534151, -427.5790220340714, -538.5250241695903, -493.4573597535491, 0.6720000319182873, 0.6880000326782465, 0.4000000189989805, 0.0, 0.0, 0.0, 0.0, 0.0, 1.7103951643052275E9, 0.0, 2024-03-13 22:46:04.305
44.0, -817.8581518600695, -416.8268096614629, -535.2750511080958, -483.06417777668685, 0.6720000319182873, 0.6880000326782465, 0.4000000189989805, 0.0, 0.0, 0.0, 0.0, 0.0, 1.710395164319367E9, 0.0, 2024-03-13 22:46:04.319
44.0, -806.8852853900753, -418.0834160465747, -535.5555436047725, -485.61478954646736, 0.6720000319182873, 0.6880000326782465, 0.4000000189989805, 0.0, 0.0, 0.0, 0.0, 0.0, 1.710395164319367E9, 0.0, 2024-03-13 22:46:04.319
45.0, -812.7120495210402, -423.6745664803311, -530.2785447672941, -483.62142287008464, 0.6720000319182873, 0.6880000326782465, 0.4000000189989805, 0.0, 0.0, 0.0, 0.0, 0.0, 1.710395164334795E9, 0.0, 2024-03-13 22:46:04.334
45.0, -838.0984904202633, -431.9360054824501, -537.2609379845671, -495.3460092311725, 0.6720000319182873, 0.6880000326782465, 0.4000000189989805, 0.0, 0.0, 0.0, 0.0, 0.0, 1.710395164334795E9, 0.0, 2024-03-13 22:46:04.334
46.0, -817.730995261576, -427.0554360402748, -539.3739814595319, -500.62674796860665, 0.6720000319182873, 0.6880000326782465, 0.4000000189989805, 0.0, 0.0, 0.0, 0.0, 0.0, 1.710395164335458E9, 0.0, 2024-03-13 22:46:04.335
46.0, -818.2171822558157, -427.18259263876826, -541.0270172399469, -502.9716652408242, 0.6720000319182873, 0.6880000326782465, 0.4000000189989805, 0.0, 0.0, 0.0, 0.0, 0.0, 1.710395164335458E9, 0.0, 2024-03-13 22:46:04.335
47.0, -840.3237308938988, -424.085955475457, -541.8385755303316, -501.9057937534526, 0.6720000319182873, 0.6880000326782465, 0.4000000189989805, 0.0, 0.0, 0.0, 0.0, 0.0, 1.7103951643492477E9, 0.0, 2024-03-13 22:46:04.349
47.0, -834.9981133569963, -439.55792159214616, -555.6986447661184, -511.8090488361195, 0.6720000319182873, 0.6880000326782465, 0.4000000189989805, 0.0, 0.0, 0.0, 0.0, 0.0, 1.7103951643492477E9, 0.0, 2024-03-13 22:46:04.349
48.0, -805.2995678088628, -424.5384833700955, -525.5251319236122, -492.3466094667092, 0.6720000319182873, 0.6880000326782465, 0.4000000189989805, 0.0, 0.0, 0.0, 0.0, 0.0, 1.710395164364785E9, 0.0, 2024-03-13 22:46:04.364
48.0, -810.5840464462526, -417.18584005720913, -512.8506109737791, -481.02967220079154, 0.6720000319182873, 0.6880000326782465, 0.4000000189989805, 0.0, 0.0, 0.0, 0.0, 0.0, 1.710395164364785E9, 0.0, 2024-03-13 22:46:04.364
49.0, -811.1038925400935, -419.55693662911654, -531.7558052497916, -487.4136814251542, 0.6720000319182873, 0.6880000326782465, 0.4000000189989805, 0.0, 0.0, 0.0, 0.0, 0.0, 1.7103951643652377E9, 0.0, 2024-03-13 22:46:04.365
49.0, -799.3643465791829, -414.73994548618793, -526.4114882131107, -482.4059553844854, 0.6720000319182873, 0.6880000326782465, 0.4000000189989805, 0.0, 0.0, 0.0, 0.0, 0.0, 1.7103951643652377E9, 0.0, 2024-03-13 22:46:04.365
50.0, -833.1393830790184, -427.51544373482466, -524.2722654384561, -492.3802685663104, 0.6720000319182873, 0.6880000326782465, 0.41600001975893974, 0.0, 0.0, 0.0, 0.0, 0.0, 1.7103951643788948E9, 0.0, 2024-03-13 22:46:04.378
50.0, -834.0444388682954, -434.4192990530282, -525.768225420732, -490.8917883839458, 0.6720000319182873, 0.6880000326782465, 0.41600001975893974, 0.0, 0.0, 0.0, 0.0, 0.0, 1.7103951643788948E9, 0.0, 2024-03-13 22:46:04.378
51.0, -817.8431922602467, -422.0551897995174, -522.3985755606554, -490.5738968877122, 0.6720000319182873, 0.6880000326782465, 0.41600001975893974, 0.0, 0.0, 0.0, 0.0, 0.0, 1.710395164394625E9, 0.0, 2024-03-13 22:46:04.394
51.0, -836.6324496376328, -450.14931826666, -554.4756974806078, -516.0201761862263, 0.6720000319182873, 0.6880000326782465, 0.41600001975893974, 0.0, 0.0, 0.0, 0.0, 0.0, 1.710395164394625E9, 0.0, 2024-03-13 22:46:04.394
52.0, -849.9128343802877, -444.75264263059944, -562.0078559913673, -515.9678175868466, 0.6720000319182873, 0.6880000326782465, 0.41600001975893974, 0.0, 0.0, 0.0, 0.0, 0.0, 1.7103951643952134E9, 0.0, 2024-03-13 22:46:04.395
52.0, -814.9709490942769, -428.17740602698177, -555.9978367625736, -503.7869634311646, 0.6720000319182873, 0.6880000326782465, 0.41600001975893974, 0.0, 0.0, 0.0, 0.0, 0.0, 1.7103951643952134E9, 0.0, 2024-03-13 22:46:04.395
53.0, -791.9556047669612, -411.9275407195091, -525.3269172259606, -486.57968373503536, 0.6720000319182873, 0.6880000326782465, 0.41600001975893974, 0.0, 0.0, 0.0, 0.0, 0.0, 1.7103951644089117E9, 0.0, 2024-03-13 22:46:04.408
53.0, -820.6518571269698, -424.8675945661962, -537.6424077800475, -492.51116506475955, 0.6720000319182873, 0.6880000326782465, 0.41600001975893974, 0.0, 0.0, 0.0, 0.0, 0.0, 1.7103951644089117E9, 0.0, 2024-03-13 22:46:04.408
54.0, -830.431695511099, -432.8635006714612, -547.2053319667466, -499.62445478048176, 0.6720000319182873, 0.6880000326782465, 0.41600001975893974, 0.0, 0.0, 0.0, 0.0, 0.0, 1.7103951644244876E9, 0.0, 2024-03-13 22:46:04.424
54.0, -811.1487713395618, -417.0175445592031, -535.2077329088934, -492.4924655649811, 0.6720000319182873, 0.6880000326782465, 0.41600001975893974, 0.0, 0.0, 0.0, 0.0, 0.0, 1.7103951644244876E9, 0.0, 2024-03-13 22:46:04.424
55.0, -833.2590598776005, -428.22602472640574, -534.6916267150082, -497.7619846025482, 0.6720000319182873, 0.6880000326782465, 0.41600001975893974, 0.0, 0.0, 0.0, 0.0, 0.0, 1.7103951644252453E9, 0.0, 2024-03-13 22:46:04.425
55.0, -830.0165666160174, -428.74213092029095, -531.015305058565, -496.0977291222662, 0.6720000319182873, 0.6880000326782465, 0.41600001975893974, 0.0, 0.0, 0.0, 0.0, 0.0, 1.7103951644252453E9, 0.0, 2024-03-13 22:46:04.425
56.0, -819.1858163443394, -432.3436545776203, -532.6870403387584, -491.7145663741976, 0.6720000319182873, 0.6880000326782465, 0.41600001975893974, 0.0, 0.0, 0.0, 0.0, 0.0, 1.7103951644389708E9, 0.0, 2024-03-13 22:46:04.438
56.0, -827.922222640831, -437.04096892196685, -531.7969441493042, -496.2697645202279, 0.6720000319182873, 0.6880000326782465, 0.41600001975893974, 0.0, 0.0, 0.0, 0.0, 0.0, 1.7103951644389708E9, 0.0, 2024-03-13 22:46:04.438
57.0, -840.2825919943862, -439.643939291127, -540.4922115462832, -504.92389301769435, 0.6720000319182873, 0.6880000326782465, 0.41600001975893974, 0.0, 0.0, 0.0, 0.0, 0.0, 1.710395164454506E9, 0.0, 2024-03-13 22:46:04.454
57.0, -822.1141580096446, -428.0165903288871, -542.6688333204947, -500.6155282687396, 0.6720000319182873, 0.6880000326782465, 0.41600001975893974, 0.0, 0.0, 0.0, 0.0, 0.0, 1.710395164454506E9, 0.0, 2024-03-13 22:46:04.454
58.0, -810.6251853457652, -427.5752821341157, -526.8939353073947, -491.6771673746407, 0.6720000319182873, 0.6880000326782465, 0.41600001975893974, 0.0, 0.0, 0.0, 0.0, 0.0, 1.7103951644552436E9, 0.0, 2024-03-13 22:46:04.455
58.0, -820.9323496236466, -425.85492815449834, -535.622861803975, -495.0879561342299, 0.6720000319182873, 0.6880000326782465, 0.41600001975893974, 0.0, 0.0, 0.0, 0.0, 0.0, 1.7103951644552436E9, 0.0, 2024-03-13 22:46:04.455
59.0, -829.1713492260315, -435.2158977435902, -559.5096028209664, -511.25554364267737, 0.6720000319182873, 0.6880000326782465, 0.41600001975893974, 0.0, 0.0, 0.0, 0.0, 0.0, 1.7103951644690576E9, 0.0, 2024-03-13 22:46:04.469
59.0, -826.8114723539911, -442.03747526276857, -549.2697567422874, -510.3991065528244, 0.6720000319182873, 0.6880000326782465, 0.41600001975893974, 0.0, 0.0, 0.0, 0.0, 0.0, 1.7103951644690576E9, 0.0, 2024-03-13 22:46:04.469
60.0, -820.0684327338822, -428.36440102476627, -531.280837955419, -499.17566678579897, 0.6720000319182873, 0.6880000326782465, 0.41600001975893974, 0.0, 0.0, 0.0, 0.0, 0.0, 1.7103951645013075E9, 0.0, 2024-03-13 22:46:04.501
60.0, -829.369563923683, -430.55224249884486, -545.2157051903196, -499.62819468043745, 0.6720000319182873, 0.6880000326782465, 0.41600001975893974, 0.0, 0.0, 0.0, 0.0, 0.0, 1.7103951645013075E9, 0.0, 2024-03-13 22:46:04.501
61.0, -810.5803065462969, -422.6498338924721, -543.7459245077334, -492.06611697003245, 0.6720000319182873, 0.6880000326782465, 0.41600001975893974, 0.0, 0.0, 0.0, 0.0, 0.0, 1.7103951645019715E9, 0.0, 2024-03-13 22:46:04.501
61.0, -814.1930499034934, -427.03673654049635, -541.6441007326357, -505.58959520980716, 0.6720000319182873, 0.6880000326782465, 0.41600001975893974, 0.0, 0.0, 0.0, 0.0, 0.0, 1.7103951645019715E9, 0.0, 2024-03-13 22:46:04.501
62.0, -823.5540194925852, -433.8022155603394, -552.3813535054214, -512.2914959304035, 0.6720000319182873, 0.6880000326782465, 0.41600001975893974, 0.0, 0.0, 0.0, 0.0, 0.0, 1.7103951645025656E9, 0.0, 2024-03-13 22:46:04.502
62.0, -821.0520264222287, -427.5453629344702, -547.0669556683861, -505.1969057144597, 0.6720000319182873, 0.6880000326782465, 0.41600001975893974, 0.0, 0.0, 0.0, 0.0, 0.0, 1.7103951645025656E9, 0.0, 2024-03-13 22:46:04.502
63.0, -817.465462364722, -438.3162748068571, -541.6665401323698, -507.7288179844618, 0.6720000319182873, 0.6880000326782465, 0.41600001975893974, 0.0, 0.0, 0.0, 0.0, 0.0, 1.7103951645031056E9, 0.0, 2024-03-13 22:46:04.503
63.0, -830.1586828143336, -432.4296722766012, -540.7091257437132, -499.717952279374, 0.6720000319182873, 0.6880000326782465, 0.41600001975893974, 0.0, 0.0, 0.0, 0.0, 0.0, 1.7103951645031056E9, 0.0, 2024-03-13 22:46:04.503
64.0, -836.6623688372783, -443.6082332441583, -553.2639698949642, -509.8717806590721, 0.6720000319182873, 0.6880000326782465, 0.41600001975893974, 0.0, 0.0, 0.0, 0.0, 0.0, 1.7103951645140169E9, 0.0, 2024-03-13 22:46:04.514
64.0, -816.4669090765528, -423.03504358790815, -518.9616075013764, -490.3869018899277, 0.6720000319182873, 0.6880000326782465, 0.41600001975893974, 0.0, 0.0, 0.0, 0.0, 0.0, 1.7103951645140169E9, 0.0, 2024-03-13 22:46:04.514
65.0, -821.4035770180635, -428.88798701856285, -534.1568210213445, -498.7979368902743, 0.6720000319182873, 0.6880000326782465, 0.41600001975893974, 0.0, 0.0, 0.0, 0.0, 0.0, 1.710395164528914E9, 0.0, 2024-03-13 22:46:04.528
65.0, -819.9637155351229, -427.44064573571086, -538.7007994675077, -497.85548210144043, 0.6720000319182873, 0.6880000326782465, 0.41600001975893974, 0.0, 0.0, 0.0, 0.0, 0.0, 1.710395164528914E9, 0.0, 2024-03-13 22:46:04.528
66.0, -818.4602757529356, -424.9012536657974, -549.7222846369259, -496.340822619386, 0.6720000319182873, 0.6880000326782465, 0.41600001975893974, 0.0, 0.0, 0.0, 0.0, 0.0, 1.710395164544721E9, 0.0, 2024-03-13 22:46:04.544
66.0, -808.5682403701358, -418.128294846043, -530.8245701608248, -492.9749126592651, 0.6720000319182873, 0.6880000326782465, 0.41600001975893974, 0.0, 0.0, 0.0, 0.0, 0.0, 1.710395164544721E9, 0.0, 2024-03-13 22:46:04.544
67.0, -820.951049123425, -416.4490797659382, -533.2031465326436, -487.51091882400215, 0.6720000319182873, 0.6880000326782465, 0.41600001975893974, 0.0, 0.0, 0.0, 0.0, 0.0, 1.7103951645455227E9, 0.0, 2024-03-13 22:46:04.545
67.0, -812.5287944232114, -422.07762919925153, -538.9663323643617, -492.047417470254, 0.6720000319182873, 0.6880000326782465, 0.41600001975893974, 0.0, 0.0, 0.0, 0.0, 0.0, 1.7103951645455227E9, 0.0, 2024-03-13 22:46:04.545
68.0, -794.3379210387357, -409.3507496500388, -526.6284024105407, -488.43841401301324, 0.6720000319182873, 0.6880000326782465, 0.41600001975893974, 0.0, 0.0, 0.0, 0.0, 0.0, 1.7103951645589757E9, 0.0, 2024-03-13 22:46:04.558
68.0, -802.704077239614, -406.6692413818091, -527.7092334977351, -490.92544748354703, 0.6720000319182873, 0.6880000326782465, 0.41600001975893974, 0.0, 0.0, 0.0, 0.0, 0.0, 1.7103951645589757E9, 0.0, 2024-03-13 22:46:04.558
69.0, -813.8190599079244, -414.7062863865867, -531.4042546539567, -493.9398068478331, 0.6720000319182873, 0.6880000326782465, 0.41600001975893974, 0.0, 0.0, 0.0, 0.0, 0.0, 1.710395164574638E9, 0.0, 2024-03-13 22:46:04.574
69.0, -813.2954739141278, -424.73669806774706, -534.8823616127484, -495.02437783498317, 0.6720000319182873, 0.6880000326782465, 0.41600001975893974, 0.0, 0.0, 0.0, 0.0, 0.0, 1.710395164574638E9, 0.0, 2024-03-13 22:46:04.574
70.0, -817.8020533607341, -419.9047473249957, -520.0686178882606, -483.9019153667614, 0.6720000319182873, 0.6880000326782465, 0.41600001975893974, 0.0, 0.0, 0.0, 0.0, 0.0, 1.710395164575591E9, 0.0, 2024-03-13 22:46:04.575
70.0, -825.1696562734433, -425.9446857534349, -534.4709726176225, -494.59428934007883, 0.6720000319182873, 0.6880000326782465, 0.41600001975893974, 0.0, 0.0, 0.0, 0.0, 0.0, 1.710395164575591E9, 0.0, 2024-03-13 22:46:04.575
71.0, -814.1593908038922, -423.5062709823251, -537.3731349832378, -496.8008303139359, 0.6720000319182873, 0.6880000326782465, 0.41600001975893974, 0.0, 0.0, 0.0, 0.0, 0.0, 1.7103951645888677E9, 0.0, 2024-03-13 22:46:04.588
71.0, -818.6809298503213, -434.81198854837567, -533.8202300253324, -497.414173906669, 0.6720000319182873, 0.6880000326782465, 0.41600001975893974, 0.0, 0.0, 0.0, 0.0, 0.0, 1.7103951645888677E9, 0.0, 2024-03-13 22:46:04.588
72.0, -823.3146658954211, -428.4728581234813, -539.433819858823, -497.5749896047637, 0.6720000319182873, 0.6880000326782465, 0.41600001975893974, 0.0, 0.0, 0.0, 0.0, 0.0, 1.710395164604555E9, 0.0, 2024-03-13 22:46:04.604
72.0, -844.3104642466642, -437.00730982236564, -541.3037698366679, -499.6356744803488, 0.6720000319182873, 0.6880000326782465, 0.41600001975893974, 0.0, 0.0, 0.0, 0.0, 0.0, 1.710395164604555E9, 0.0, 2024-03-13 22:46:04.604
73.0, -826.0522726629861, -438.40603240579367, -526.6396221104078, -492.43262716569006, 0.6720000319182873, 0.6880000326782465, 0.41600001975893974, 0.0, 0.0, 0.0, 0.0, 0.0, 1.7103951646055992E9, 0.0, 2024-03-13 22:46:04.605
73.0, -834.0519186682068, -430.4550050999969, -530.8245701608248, -495.4208072302863, 0.6720000319182873, 0.6880000326782465, 0.41600001975893974, 0.0, 0.0, 0.0, 0.0, 0.0, 1.7103951646055992E9, 0.0, 2024-03-13 22:46:04.605
74.0, -827.9858009400778, -430.2380909025669, -537.4778521819972, -493.4536198535934, 0.6720000319182873, 0.6880000326782465, 0.41600001975893974, 0.0, 0.0, 0.0, 0.0, 0.0, 1.7103951646194963E9, 0.0, 2024-03-13 22:46:04.619
74.0, -809.7724881558679, -425.36500126030296, -534.9048010124825, -497.9788987999782, 0.6720000319182873, 0.6880000326782465, 0.41600001975893974, 0.0, 0.0, 0.0, 0.0, 0.0, 1.7103951646194963E9, 0.0, 2024-03-13 22:46:04.619
75.0, -817.573919463437, -430.70183849707246, -539.5572365573607, -499.5982754807919, 0.6720000319182873, 0.6880000326782465, 0.41600001975893974, 0.0, 0.0, 0.0, 0.0, 0.0, 1.7103951646348517E9, 0.0, 2024-03-13 22:46:04.634
75.0, -842.1862010718323, -438.15919900871813, -554.774889477063, -508.60021467413753, 0.6720000319182873, 0.6880000326782465, 0.41600001975893974, 0.0, 0.0, 0.0, 0.0, 0.0, 1.7103951646348517E9, 0.0, 2024-03-13 22:46:04.634
76.0, -824.5899717803113, -432.63162687420845, -543.4392527113669, -497.0177445113659, 0.6720000319182873, 0.6880000326782465, 0.41600001975893974, 0.0, 0.0, 0.0, 0.0, 0.0, 1.7103951646354396E9, 0.0, 2024-03-13 22:46:04.635
76.0, -827.9334423406981, -439.52052259258926, -533.958606323693, -503.91785992961377, 0.6720000319182873, 0.6880000326782465, 0.41600001975893974, 0.0, 0.0, 0.0, 0.0, 0.0, 1.7103951646354396E9, 0.0, 2024-03-13 22:46:04.635
77.0, -841.5803372790106, -440.6237930795178, -550.0925347325392, -510.2382908547297, 0.6720000319182873, 0.6880000326782465, 0.41600001975893974, 0.0, 0.0, 0.0, 0.0, 0.0, 1.710395164649423E9, 0.0, 2024-03-13 22:46:04.649
77.0, -846.0457778261043, -444.5058092335239, -548.719991448801, -512.6131273265928, 0.6720000319182873, 0.6880000326782465, 0.41600001975893974, 0.0, 0.0, 0.0, 0.0, 0.0, 1.710395164649423E9, 0.0, 2024-03-13 22:46:04.649
78.0, -822.0804989100434, -431.07208859268576, -530.7348125618882, -501.28871026076376, 0.6720000319182873, 0.6880000326782465, 0.41600001975893974, 0.0, 0.0, 0.0, 0.0, 0.0, 1.710395164664509E9, 0.0, 2024-03-13 22:46:04.664
78.0, -832.529779386241, -434.55767535138875, -533.3153435313143, -500.5631696693599, 0.6720000319182873, 0.6880000326782465, 0.41600001975893974, 0.0, 0.0, 0.0, 0.0, 0.0, 1.710395164664509E9, 0.0, 2024-03-13 22:46:04.664
79.0, -814.9410298946314, -424.18319287430495, -523.0642777527682, -486.8227772321552, 0.6720000319182873, 0.6880000326782465, 0.41600001975893974, 0.0, 0.0, 0.0, 0.0, 0.0, 1.7103951646653905E9, 0.0, 2024-03-13 22:46:04.665
79.0, -826.3963434589095, -436.51738292817026, -535.9856320996769, -499.74413157906383, 0.6720000319182873, 0.6880000326782465, 0.41600001975893974, 0.0, 0.0, 0.0, 0.0, 0.0, 1.7103951646653905E9, 0.0, 2024-03-13 22:46:04.665
80.0, -833.7976054712199, -446.0204687155783, -534.3812150186859, -504.52372372243553, 0.6720000319182873, 0.6880000326782465, 0.41600001975893974, 0.0, 0.0, 0.0, 0.0, 0.0, 1.710395164678938E9, 0.0, 2024-03-13 22:46:04.678
80.0, -839.7851853002794, -440.1787449847907, -539.8526886538602, -500.66040706820786, 0.6720000319182873, 0.6880000326782465, 0.41600001975893974, 0.0, 0.0, 0.0, 0.0, 0.0, 1.710395164678938E9, 0.0, 2024-03-13 22:46:04.678
81.0, -821.4596755173989, -429.235797714442, -530.2411457677372, -495.07673643436283, 0.6720000319182873, 0.6880000326782465, 0.41600001975893974, 0.0, 0.0, 0.0, 0.0, 0.0, 1.7103951646945548E9, 0.0, 2024-03-13 22:46:04.694
81.0, -817.6150583629496, -432.3174752779305, -528.917221183423, -498.1210149982944, 0.6720000319182873, 0.6880000326782465, 0.41600001975893974, 0.0, 0.0, 0.0, 0.0, 0.0, 1.7103951646945548E9, 0.0, 2024-03-13 22:46:04.694
82.0, -822.7200218024664, -428.9852244174108, -540.2304185493849, -503.6037083333358, 0.6720000319182873, 0.6880000326782465, 0.41600001975893974, 0.0, 0.0, 0.0, 0.0, 0.0, 1.71039516469533E9, 0.0, 2024-03-13 22:46:04.695
82.0, -820.083392333705, -434.0266095576808, -549.359514341224, -510.22333125490695, 0.6720000319182873, 0.6880000326782465, 0.41600001975893974, 0.0, 0.0, 0.0, 0.0, 0.0, 1.71039516469533E9, 0.0, 2024-03-13 22:46:04.695
83.0, -827.1555431499146, -444.74516283068806, -544.6360206971876, -517.4263785695657, 0.6720000319182873, 0.6880000326782465, 0.41600001975893974, 0.0, 0.0, 0.0, 0.0, 0.0, 1.7103951647088983E9, 0.0, 2024-03-13 22:46:04.708
83.0, -845.7204065299593, -452.9542432334274, -554.520576280076, -520.2238237364218, 0.6720000319182873, 0.6880000326782465, 0.41600001975893974, 0.0, 0.0, 0.0, 0.0, 0.0, 1.7103951647088983E9, 0.0, 2024-03-13 22:46:04.708
84.0, -841.8084711763076, -446.6899108076468, -556.3718267581426, -517.4375982694328, 0.6720000319182873, 0.6880000326782465, 0.41600001975893974, 0.0, 0.0, 0.0, 0.0, 0.0, 1.7103951647247863E9, 0.0, 2024-03-13 22:46:04.724
84.0, -836.3332576411776, -457.86099197529256, -549.0154435453005, -520.0143893389031, 0.6720000319182873, 0.6880000326782465, 0.41600001975893974, 0.0, 0.0, 0.0, 0.0, 0.0, 1.7103951647247863E9, 0.0, 2024-03-13 22:46:04.724
85.0, -836.7895254357718, -448.70945678371936, -530.809610561002, -505.5409765103832, 0.6720000319182873, 0.6880000326782465, 0.41600001975893974, 0.0, 0.0, 0.0, 0.0, 0.0, 1.710395164726012E9, 0.0, 2024-03-13 22:46:04.726
85.0, -848.5178516968153, -455.12338520772755, -543.4205532115884, -514.950564798899, 0.6720000319182873, 0.6880000326782465, 0.41600001975893974, 0.0, 0.0, 0.0, 0.0, 0.0, 1.710395164726012E9, 0.0, 2024-03-13 22:46:04.726
86.0, -833.9023226699792, -445.64273882005364, -551.3117421180941, -515.8257013885304, 0.6720000319182873, 0.6880000326782465, 0.41600001975893974, 0.0, 0.0, 0.0, 0.0, 0.0, 1.7103951647389095E9, 0.0, 2024-03-13 22:46:04.738
86.0, -820.8276324248873, -435.5824079392478, -527.4773597004823, -504.5723424218595, 0.6720000319182873, 0.6880000326782465, 0.41600001975893974, 0.0, 0.0, 0.0, 0.0, 0.0, 1.7103951647389095E9, 0.0, 2024-03-13 22:46:04.738
87.0, -835.2898255535401, -442.37406625878066, -544.3817075002007, -509.2883562659845, 0.6720000319182873, 0.6880000326782465, 0.41600001975893974, 0.0, 0.0, 0.0, 0.0, 0.0, 1.7103951647544863E9, 0.0, 2024-03-13 22:46:04.754
87.0, -824.4441156820394, -444.4422309342772, -558.3838929343037, -520.2799222357571, 0.6720000319182873, 0.6880000326782465, 0.41600001975893974, 0.0, 0.0, 0.0, 0.0, 0.0, 1.7103951647544863E9, 0.0, 2024-03-13 22:46:04.754
88.0, -835.7797524477355, -451.0768134556711, -552.4262323048897, -520.0106494389474, 0.6720000319182873, 0.6880000326782465, 0.41600001975893974, 0.0, 0.0, 0.0, 0.0, 0.0, 1.7103951647553227E9, 0.0, 2024-03-13 22:46:04.755
88.0, -838.6258163140155, -449.8426464702934, -550.3169287298806, -516.3044085828587, 0.6720000319182873, 0.6880000326782465, 0.41600001975893974, 0.0, 0.0, 0.0, 0.0, 0.0, 1.7103951647553227E9, 0.0, 2024-03-13 22:46:04.755
89.0, -830.2484404132701, -440.92672497592866, -544.0226771044545, -504.25819082558155, 0.6720000319182873, 0.6880000326782465, 0.41600001975893974, 0.0, 0.0, 0.0, 0.0, 0.0, 1.710395164769189E9, 0.0, 2024-03-13 22:46:04.769
89.0, -823.2211683965288, -440.5863940799609, -540.0509033515118, -507.25385069008917, 0.6720000319182873, 0.6880000326782465, 0.41600001975893974, 0.0, 0.0, 0.0, 0.0, 0.0, 1.710395164769189E9, 0.0, 2024-03-13 22:46:04.769
90.0, -824.8442849772982, -440.6611920790747, -526.6471019103192, -501.1316344626248, 0.6720000319182873, 0.6880000326782465, 0.41600001975893974, 0.0, 0.0, 0.0, 0.0, 0.0, 1.7103951647850935E9, 0.0, 2024-03-13 22:46:04.785
90.0, -844.2805450470187, -448.49628248624504, -556.7420768537559, -520.4220384340733, 0.6720000319182873, 0.6880000326782465, 0.41600001975893974, 0.0, 0.0, 0.0, 0.0, 0.0, 1.7103951647850935E9, 0.0, 2024-03-13 22:46:04.785
91.0, -840.0768974968232, -448.7767749829218, -553.1293334965594, -515.9790372867137, 0.6720000319182873, 0.6880000326782465, 0.41600001975893974, 0.0, 0.0, 0.0, 0.0, 0.0, 1.7103951647853663E9, 0.0, 2024-03-13 22:46:04.785
91.0, -828.0568590392359, -447.48276959825307, -540.6829464440234, -512.0484024332836, 0.6720000319182873, 0.6880000326782465, 0.41600001975893974, 0.0, 0.0, 0.0, 0.0, 0.0, 1.7103951647853663E9, 0.0, 2024-03-13 22:46:04.785
92.0, -824.1262241858058, -441.9925964633003, -536.4680791939609, -503.80940283089876, 0.6720000319182873, 0.6880000326782465, 0.41600001975893974, 0.0, 0.0, 0.0, 0.0, 0.0, 1.7103951647992566E9, 0.0, 2024-03-13 22:46:04.799
92.0, -815.3150198902003, -437.29528211895376, -533.6668941271491, -503.54760983400047, 0.6720000319182873, 0.6880000326782465, 0.41600001975893974, 0.0, 0.0, 0.0, 0.0, 0.0, 1.7103951647992566E9, 0.0, 2024-03-13 22:46:04.799
93.0, -817.2859471668489, -439.66637869086117, -528.4871326885186, -503.33817543648183, 0.6720000319182873, 0.6880000326782465, 0.41600001975893974, 0.0, 0.0, 0.0, 0.0, 0.0, 1.7103951648313844E9, 0.0, 2024-03-13 22:46:04.831
93.0, -824.1262241858058, -432.44463187642395, -523.5803839466535, -498.0162977995351, 0.6720000319182873, 0.6880000326782465, 0.41600001975893974, 0.0, 0.0, 0.0, 0.0, 0.0, 1.7103951648313844E9, 0.0, 2024-03-13 22:46:04.831
94.0, -826.3477247594856, -437.9909035107121, -540.7614843430929, -503.41297343559563, 0.6720000319182873, 0.6880000326782465, 0.41600001975893974, 0.0, 0.0, 0.0, 0.0, 0.0, 1.7103951648318343E9, 0.0, 2024-03-13 22:46:04.831
94.0, -827.3836770472117, -449.6556514725089, -541.6515805325471, -508.14768677949905, 0.6720000319182873, 0.6880000326782465, 0.41600001975893974, 0.0, 0.0, 0.0, 0.0, 0.0, 1.7103951648318343E9, 0.0, 2024-03-13 22:46:04.831
95.0, -828.5056470339186, -435.67216553818434, -531.5388910523616, -502.5378368459642, 0.6720000319182873, 0.6880000326782465, 0.41600001975893974, 0.0, 0.0, 0.0, 0.0, 0.0, 1.7103951648324773E9, 0.0, 2024-03-13 22:46:04.832
95.0, -822.1777363088913, -427.0217769406736, -543.4055936117657, -502.1937660500407, 0.6720000319182873, 0.6880000326782465, 0.41600001975893974, 0.0, 0.0, 0.0, 0.0, 0.0, 1.7103951648324773E9, 0.0, 2024-03-13 22:46:04.832
96.0, -822.7761203018017, -437.33268111851066, -546.730364672374, -507.3174289893359, 0.6720000319182873, 0.6880000326782465, 0.41600001975893974, 0.0, 0.0, 0.0, 0.0, 0.0, 1.7103951648331113E9, 0.0, 2024-03-13 22:46:04.833
96.0, -819.9375362354331, -423.92513977736235, -529.2612919793464, -498.7605378907174, 0.6720000319182873, 0.6880000326782465, 0.41600001975893974, 0.0, 0.0, 0.0, 0.0, 0.0, 1.7103951648331113E9, 0.0, 2024-03-13 22:46:04.833
97.0, -835.6226766495965, -436.4388450291008, -537.3095566839911, -503.7981831310317, 0.6720000319182873, 0.6880000326782465, 0.41600001975893974, 0.0, 0.0, 0.0, 0.0, 0.0, 1.7103951648437903E9, 0.0, 2024-03-13 22:46:04.843
97.0, -820.0048544346355, -432.7550435727462, -542.2462246255018, -506.1244009034708, 0.6720000319182873, 0.6880000326782465, 0.41600001975893974, 0.0, 0.0, 0.0, 0.0, 0.0, 1.7103951648437903E9, 0.0, 2024-03-13 22:46:04.843
98.0, -806.7506489916705, -431.03094969317317, -528.5656705875881, -498.30053019616753, 0.6720000319182873, 0.6880000326782465, 0.41600001975893974, 0.0, 0.0, 0.0, 0.0, 0.0, 1.7103951648588564E9, 0.0, 2024-03-13 22:46:04.858
98.0, -812.4988752235658, -418.21057264506817, -521.5496182707138, -486.25431243889034, 0.6720000319182873, 0.6880000326782465, 0.41600001975893974, 0.0, 0.0, 0.0, 0.0, 0.0, 1.7103951648588564E9, 0.0, 2024-03-13 22:46:04.858
99.0, -818.1461241566576, -416.57997626438737, -537.6012688805349, -497.37303500715643, 0.6720000319182873, 0.6880000326782465, 0.41600001975893974, 0.0, 0.0, 0.0, 0.0, 0.0, 1.710395164875111E9, 0.0, 2024-03-13 22:46:04.875
99.0, -799.9402911723591, -416.8604687610641, -530.6562746628188, -495.6452012276277, 0.6720000319182873, 0.6880000326782465, 0.41600001975893974, 0.0, 0.0, 0.0, 0.0, 0.0, 1.710395164875111E9, 0.0, 2024-03-13 22:46:04.875
100.0, -817.5664396635257, -423.1734198862687, -524.9043085309677, -488.5580908115953, 0.6720000319182873, 0.6880000326782465, 0.41600001975893974, 0.0, 0.0, 0.0, 0.0, 0.0, 1.7103951648754342E9, 0.0, 2024-03-13 22:46:04.875
100.0, -818.4527959530242, -414.62026868760586, -526.9836929063313, -485.2781985504553, 0.6720000319182873, 0.6880000326782465, 0.41600001975893974, 0.0, 0.0, 0.0, 0.0, 0.0, 1.7103951648754342E9, 0.0, 2024-03-13 22:46:04.875
0.0, -789.3320649480447, -402.63949917955324, -509.77454326022416, -471.8444779096171, 0.6720000319182873, 0.6880000326782465, 0.41600001975893974, 0.0, 0.0, 0.0, 0.0, 0.0, 1.7103951648897643E9, 0.0, 2024-03-13 22:46:04.889
1.0, -784.070025710389, -394.26586317876354, -506.3562747007236, -470.58039172459394, 0.6720000319182873, 0.6880000326782465, 0.41600001975893974, 0.0, 0.0, 0.0, 0.0, 0.0, 1.710395164890309E9, 0.0, 2024-03-13 22:46:04.890
1.0, -793.1093639032915, -398.27129603130743, -507.8372750831768, -468.31401235144585, 0.6720000319182873, 0.6880000326782465, 0.41600001975893974, 0.0, 0.0, 0.0, 0.0, 0.0, 1.710395164890309E9, 0.0, 2024-03-13 22:46:04.890
2.0, -813.413280762732, -416.4322502161376, -528.7732350351289, -482.6827079812065, 0.6720000319182873, 0.6880000326782465, 0.41600001975893974, 0.0, 0.0, 0.0, 0.0, 0.0, 1.7103951649037848E9, 0.0, 2024-03-13 22:46:04.903
2.0, -833.3394677266479, -425.64736370695755, -541.5412534838542, -501.1989526618272, 0.6720000319182873, 0.6880000326782465, 0.41600001975893974, 0.0, 0.0, 0.0, 0.0, 0.0, 1.7103951649037848E9, 0.0, 2024-03-13 22:46:04.903
3.0, -829.7304642694071, -422.98081503855065, -543.8749510562047, -500.7202454674989, 0.6720000319182873, 0.6880000326782465, 0.41600001975893974, 0.0, 0.0, 0.0, 0.0, 0.0, 1.710395164919988E9, 0.0, 2024-03-13 22:46:04.919
3.0, -815.548763637431, -417.5841394024901, -537.6592373298481, -493.69671335071325, 0.6720000319182873, 0.6880000326782465, 0.41600001975893974, 0.0, 0.0, 0.0, 0.0, 0.0, 1.710395164919988E9, 0.0, 2024-03-13 22:46:04.919
4.0, -805.6118494551629, -420.16841027187183, -531.099452807568, -494.2988372435793, 0.6720000319182873, 0.6880000326782465, 0.41600001975893974, 0.0, 0.0, 0.0, 0.0, 0.0, 1.710395164920404E9, 0.0, 2024-03-13 22:46:04.920
4.0, -804.2093869717792, -426.34672499867156, -528.0663939435035, -491.6322885751724, 0.6720000319182873, 0.6880000326782465, 0.41600001975893974, 0.0, 0.0, 0.0, 0.0, 0.0, 1.710395164920404E9, 0.0, 2024-03-13 22:46:04.920
5.0, -822.748071052134, -427.86512438068166, -536.309133445844, -498.0125578995794, 0.6720000319182873, 0.6880000326782465, 0.41600001975893974, 0.0, 0.0, 0.0, 0.0, 0.0, 1.7103951649345455E9, 0.0, 2024-03-13 22:46:04.934
5.0, -818.7650775993243, -433.2991990162991, -537.864931827411, -498.54736359324306, 0.6720000319182873, 0.6880000326782465, 0.41600001975893974, 0.0, 0.0, 0.0, 0.0, 0.0, 1.7103951649345455E9, 0.0, 2024-03-13 22:46:04.934
6.0, -813.0093715675175, -431.08891814248636, -530.4561900151893, -498.58850249275565, 0.6720000319182873, 0.6880000326782465, 0.41600001975893974, 0.0, 0.0, 0.0, 0.0, 0.0, 1.7103951649495804E9, 0.0, 2024-03-13 22:46:04.949
6.0, -823.1818994469941, -420.79297356447205, -528.9116113334894, -495.10291573405266, 0.6720000319182873, 0.6880000326782465, 0.41600001975893974, 0.0, 0.0, 0.0, 0.0, 0.0, 1.7103951649495804E9, 0.0, 2024-03-13 22:46:04.949
7.0, -827.7109182933345, -435.3411843921058, -543.3476251624525, -500.21909887343645, 0.6720000319182873, 0.6880000326782465, 0.41600001975893974, 0.0, 0.0, 0.0, 0.0, 0.0, 1.7103951649503436E9, 0.0, 2024-03-13 22:46:04.950
7.0, -818.8211760986596, -434.1967750056647, -537.6218383302912, -500.2751973727718, 0.6720000319182873, 0.6880000326782465, 0.41600001975893974, 0.0, 0.0, 0.0, 0.0, 0.0, 1.7103951649503436E9, 0.0, 2024-03-13 22:46:04.950
8.0, -811.4460933860391, -429.0095337671228, -518.0995605615899, -489.32103040255606, 0.6720000319182873, 0.6880000326782465, 0.41600001975893974, 0.0, 0.0, 0.0, 0.0, 0.0, 1.7103951649639015E9, 0.0, 2024-03-13 22:46:04.963
8.0, -821.0052776727825, -436.8483640742488, -544.5144739486277, -502.8968672417104, 0.6720000319182873, 0.6880000326782465, 0.41600001975893974, 0.0, 0.0, 0.0, 0.0, 0.0, 1.7103951649639015E9, 0.0, 2024-03-13 22:46:04.963
9.0, -817.2691176170483, -438.7482332517393, -527.0940199550241, -501.4981446582824, 0.6720000319182873, 0.6880000326782465, 0.41600001975893974, 0.0, 0.0, 0.0, 0.0, 0.0, 1.7103951649796388E9, 0.0, 2024-03-13 22:46:04.979
9.0, -823.81020263955, -444.4814998838119, -527.6961438478902, -496.6811535153538, 0.6720000319182873, 0.6880000326782465, 0.41600001975893974, 0.0, 0.0, 0.0, 0.0, 0.0, 1.7103951649796388E9, 0.0, 2024-03-13 22:46:04.979
10.0, -831.1329267527908, -444.818090879824, -543.5981984594837, -507.5792219862342, 0.6720000319182873, 0.6880000326782465, 0.41600001975893974, 0.0, 0.0, 0.0, 0.0, 0.0, 1.7103951649805727E9, 0.0, 2024-03-13 22:46:04.980
10.0, -816.1471476303414, -438.90904894983396, -547.513873713091, -504.10485492739826, 0.6720000319182873, 0.6880000326782465, 0.41600001975893974, 0.0, 0.0, 0.0, 0.0, 0.0, 1.7103951649805727E9, 0.0, 2024-03-13 22:46:04.980
11.0, -824.24403103441, -452.21935289213434, -535.972542449832, -506.9808379933238, 0.6720000319182873, 0.6880000326782465, 0.41600001975893974, 0.0, 0.0, 0.0, 0.0, 0.0, 1.7103951649941957E9, 0.0, 2024-03-13 22:46:04.994
11.0, -833.5676016239449, -435.35240409197286, -534.3980445684865, -502.9754051407799, 0.6720000319182873, 0.6880000326782465, 0.41600001975893974, 0.0, 0.0, 0.0, 0.0, 0.0, 1.7103951649941957E9, 0.0, 2024-03-13 22:46:04.994
12.0, -817.2840772168711, -425.8941971040331, -541.4701953846961, -499.4187602829188, 0.6720000319182873, 0.6880000326782465, 0.41600001975893974, 0.0, 0.0, 0.0, 0.0, 0.0, 1.7103951650099325E9, 0.0, 2024-03-13 22:46:05.009
12.0, -817.1531807184219, -432.9588681203313, -541.9563823789358, -504.6097414214164, 0.6720000319182873, 0.6880000326782465, 0.41600001975893974, 0.0, 0.0, 0.0, 0.0, 0.0, 1.7103951650099325E9, 0.0, 2024-03-13 22:46:05.009
13.0, -832.9804373309016, -440.2741124336608, -536.72052244097, -508.6039545740932, 0.6720000319182873, 0.6880000326782465, 0.41600001975893974, 0.0, 0.0, 0.0, 0.0, 0.0, 1.7103951650104396E9, 0.0, 2024-03-13 22:46:05.010
13.0, -818.1255547069013, -431.7097415351309, -534.0128348730505, -495.6751204272732, 0.6720000319182873, 0.6880000326782465, 0.41600001975893974, 0.0, 0.0, 0.0, 0.0, 0.0, 1.7103951650104396E9, 0.0, 2024-03-13 22:46:05.010
14.0, -818.6528806006536, -429.30872576357797, -535.7892873520032, -501.1353743625805, 0.6720000319182873, 0.6880000326782465, 0.41600001975893974, 0.0, 0.0, 0.0, 0.0, 0.0, 1.7103951650240123E9, 0.0, 2024-03-13 22:46:05.024
14.0, -835.3926728023216, -440.40126903215423, -532.1952434945852, -505.6456937091425, 0.6720000319182873, 0.6880000326782465, 0.41600001975893974, 0.0, 0.0, 0.0, 0.0, 0.0, 1.7103951650240123E9, 0.0, 2024-03-13 22:46:05.024
15.0, -824.2103719348088, -434.97841409640387, -541.3841776857153, -500.7127656675875, 0.6720000319182873, 0.6880000326782465, 0.41600001975893974, 0.0, 0.0, 0.0, 0.0, 0.0, 1.710395165055897E9, 0.0, 2024-03-13 22:46:05.055
15.0, -811.8911414807662, -430.176382553298, -542.5435466719791, -504.84909501858056, 0.6720000319182873, 0.6880000326782465, 0.41600001975893974, 0.0, 0.0, 0.0, 0.0, 0.0, 1.710395165055897E9, 0.0, 2024-03-13 22:46:05.055
16.0, -826.7198448050767, -442.7574060042389, -535.4788756556809, -502.1339276507497, 0.6720000319182873, 0.6880000326782465, 0.41600001975893974, 0.0, 0.0, 0.0, 0.0, 0.0, 1.7103951650566485E9, 0.0, 2024-03-13 22:46:05.056
16.0, -826.6300872061402, -430.4045164505951, -537.6330580301583, -496.96164601203054, 0.6720000319182873, 0.6880000326782465, 0.41600001975893974, 0.0, 0.0, 0.0, 0.0, 0.0, 1.7103951650566485E9, 0.0, 2024-03-13 22:46:05.056
17.0, -839.2447697566822, -440.28159223357216, -555.1470095226541, -506.3226156011224, 0.6720000319182873, 0.6880000326782465, 0.41600001975893974, 0.0, 0.0, 0.0, 0.0, 0.0, 1.7103951650573742E9, 0.0, 2024-03-13 22:46:05.057
17.0, -824.7302180286497, -430.8981832447462, -545.8832773324102, -503.6186679331586, 0.6720000319182873, 0.6880000326782465, 0.41600001975893974, 0.0, 0.0, 0.0, 0.0, 0.0, 1.7103951650573742E9, 0.0, 2024-03-13 22:46:05.057
18.0, -840.6210529403761, -438.4527811552398, -549.0621922947466, -509.8418614594266, 0.6720000319182873, 0.6880000326782465, 0.41600001975893974, 0.0, 0.0, 0.0, 0.0, 0.0, 1.71039516505813E9, 0.0, 2024-03-13 22:46:05.058
18.0, -820.5938886776567, -430.3409381513484, -550.6890487754717, -502.89312734175473, 0.6720000319182873, 0.6880000326782465, 0.41600001975893974, 0.0, 0.0, 0.0, 0.0, 0.0, 1.71039516505813E9, 0.0, 2024-03-13 22:46:05.058
19.0, -810.615835595876, -441.58307741815224, -533.1563977831975, -497.96393920015544, 0.6720000319182873, 0.6880000326782465, 0.41600001975893974, 0.0, 0.0, 0.0, 0.0, 0.0, 1.7103951650694213E9, 0.0, 2024-03-13 22:46:05.069
19.0, -793.1467629028484, -412.8344664587639, -506.6105878977105, -479.0811843238771, 0.6720000319182873, 0.6880000326782465, 0.41600001975893974, 0.0, 0.0, 0.0, 0.0, 0.0, 1.7103951650694213E9, 0.0, 2024-03-13 22:46:05.069
20.0, -828.9750044783577, -433.87514360947534, -541.1448240885511, -497.5637699048966, 0.6720000319182873, 0.6880000326782465, 0.41600001975893974, 0.0, 0.0, 0.0, 0.0, 0.0, 1.7103951650844085E9, 0.0, 2024-03-13 22:46:05.084
20.0, -826.3869937090203, -435.5169596900232, -540.8344123922288, -499.2392450850457, 0.6720000319182873, 0.6880000326782465, 0.41600001975893974, 0.0, 0.0, 0.0, 0.0, 0.0, 1.7103951650844085E9, 0.0, 2024-03-13 22:46:05.084
21.0, -818.6528806006536, -435.0457322956063, -534.4092642683536, -498.9811919881031, 0.6720000319182873, 0.6880000326782465, 0.41600001975893974, 0.0, 0.0, 0.0, 0.0, 0.0, 1.710395165099515E9, 0.0, 2024-03-13 22:46:05.099
21.0, -824.5394831309095, -431.7022617352195, -531.2752281054854, -495.54796382877976, 0.6720000319182873, 0.6880000326782465, 0.41600001975893974, 0.0, 0.0, 0.0, 0.0, 0.0, 1.710395165099515E9, 0.0, 2024-03-13 22:46:05.099
22.0, -810.1408683015034, -425.31077271094546, -523.4588371980935, -488.50199231226, 0.6720000319182873, 0.6880000326782465, 0.41600001975893974, 0.0, 0.0, 0.0, 0.0, 0.0, 1.7103951651002724E9, 0.0, 2024-03-13 22:46:05.100
22.0, -797.589764050208, -419.87295817537233, -509.1312804678455, -481.8599299909547, 0.6720000319182873, 0.6880000326782465, 0.41600001975893974, 0.0, 0.0, 0.0, 0.0, 0.0, 1.7103951651002724E9, 0.0, 2024-03-13 22:46:05.100
23.0, -827.5875015947968, -433.071065119002, -532.5692334901541, -496.4941585175693, 0.6720000319182873, 0.6880000326782465, 0.41600001975893974, 0.0, 0.0, 0.0, 0.0, 0.0, 1.710395165113978E9, 0.0, 2024-03-13 22:46:05.113
23.0, -829.1657393760979, -436.01436638412997, -546.223608228378, -505.3203224129975, 0.6720000319182873, 0.6880000326782465, 0.41600001975893974, 0.0, 0.0, 0.0, 0.0, 0.0, 1.710395165113978E9, 0.0, 2024-03-13 22:46:05.113
24.0, -799.7963050240651, -419.79068037634715, -524.0048625916243, -489.2275329036638, 0.6720000319182873, 0.6880000326782465, 0.41600001975893974, 0.0, 0.0, 0.0, 0.0, 0.0, 1.7103951651295123E9, 0.0, 2024-03-13 22:46:05.129
24.0, -813.7797909583896, -427.8800839805044, -522.9128118045628, -493.70045325066894, 0.6720000319182873, 0.6880000326782465, 0.41600001975893974, 0.0, 0.0, 0.0, 0.0, 0.0, 1.7103951651295123E9, 0.0, 2024-03-13 22:46:05.129
25.0, -821.7495177639648, -429.4059631624259, -538.9345432147384, -501.21765216160566, 0.6720000319182873, 0.6880000326782465, 0.41600001975893974, 0.0, 0.0, 0.0, 0.0, 0.0, 1.7103951651304777E9, 0.0, 2024-03-13 22:46:05.130
25.0, -828.7468705810606, -441.0407919245772, -563.7039006212726, -514.8944662995636, 0.6720000319182873, 0.6880000326782465, 0.41600001975893974, 0.0, 0.0, 0.0, 0.0, 0.0, 1.7103951651304777E9, 0.0, 2024-03-13 22:46:05.130
26.0, -815.8292561341077, -439.4775137430988, -544.4396759495139, -510.07747515663505, 0.6720000319182873, 0.6880000326782465, 0.41600001975893974, 0.0, 0.0, 0.0, 0.0, 0.0, 1.7103951651439435E9, 0.0, 2024-03-13 22:46:05.143
26.0, -817.0335039198399, -432.38666342711076, -541.821745980531, -503.70842553209513, 0.6720000319182873, 0.6880000326782465, 0.41600001975893974, 0.0, 0.0, 0.0, 0.0, 0.0, 1.7103951651439435E9, 0.0, 2024-03-13 22:46:05.143
27.0, -824.9658317258582, -441.73267341637984, -556.945901401341, -510.47764445189387, 0.6720000319182873, 0.6880000326782465, 0.41600001975893974, 0.0, 0.0, 0.0, 0.0, 0.0, 1.710395165159557E9, 0.0, 2024-03-13 22:46:05.159
27.0, -813.5628767609596, -433.75920671084896, -536.4699491439387, -504.3554282244295, 0.6720000319182873, 0.6880000326782465, 0.41600001975893974, 0.0, 0.0, 0.0, 0.0, 0.0, 1.710395165159557E9, 0.0, 2024-03-13 22:46:05.159
28.0, -811.5769898844883, -435.90590928541496, -538.3548587216064, -504.43770602345467, 0.6720000319182873, 0.6880000326782465, 0.41600001975893974, 0.0, 0.0, 0.0, 0.0, 0.0, 1.7103951651602635E9, 0.0, 2024-03-13 22:46:05.160
28.0, -810.1857471009716, -428.7739200699143, -539.5478868074715, -501.2288718614727, 0.6720000319182873, 0.6880000326782465, 0.41600001975893974, 0.0, 0.0, 0.0, 0.0, 0.0, 1.7103951651602635E9, 0.0, 2024-03-13 22:46:05.160
29.0, -803.3940887814388, -422.87235793983564, -519.4234851459041, -489.1863940041512, 0.6720000319182873, 0.6880000326782465, 0.41600001975893974, 0.0, 0.0, 0.0, 0.0, 0.0, 1.7103951651739028E9, 0.0, 2024-03-13 22:46:05.173
29.0, -809.8267167052254, -424.4879947206937, -511.307902242057, -487.4436006247997, 0.6720000319182873, 0.6880000326782465, 0.41600001975893974, 0.0, 0.0, 0.0, 0.0, 0.0, 1.7103951651739028E9, 0.0, 2024-03-13 22:46:05.173
30.0, -812.7887174701318, -430.61769074806944, -537.6592373298481, -500.043323575519, 0.6720000319182873, 0.6880000326782465, 0.41600001975893974, 0.0, 0.0, 0.0, 0.0, 0.0, 1.710395165189561E9, 0.0, 2024-03-13 22:46:05.189
30.0, -807.2349660359323, -427.38641718635336, -544.0245470544323, -503.8617614302784, 0.6720000319182873, 0.6880000326782465, 0.41600001975893974, 0.0, 0.0, 0.0, 0.0, 0.0, 1.710395165189561E9, 0.0, 2024-03-13 22:46:05.189
31.0, -810.1296486016363, -427.58089198404923, -536.5821461426094, -505.11088801547885, 0.6720000319182873, 0.6880000326782465, 0.41600001975893974, 0.0, 0.0, 0.0, 0.0, 0.0, 1.7103951651903405E9, 0.0, 2024-03-13 22:46:05.190
31.0, -828.9413453787565, -432.2931659282185, -545.4980676369742, -500.8025232665241, 0.6720000319182873, 0.6880000326782465, 0.41600001975893974, 0.0, 0.0, 0.0, 0.0, 0.0, 1.7103951651903405E9, 0.0, 2024-03-13 22:46:05.190
32.0, -814.6549275480211, -430.57281194860116, -549.2828463921323, -502.0591296516359, 0.6720000319182873, 0.6880000326782465, 0.41600001975893974, 0.0, 0.0, 0.0, 0.0, 0.0, 1.7103951652039216E9, 0.0, 2024-03-13 22:46:05.203
32.0, -802.8742426875979, -420.72565536526963, -525.3474866757169, -489.44070720113814, 0.6720000319182873, 0.6880000326782465, 0.41600001975893974, 0.0, 0.0, 0.0, 0.0, 0.0, 1.7103951652039216E9, 0.0, 2024-03-13 22:46:05.203
33.0, -819.1802064944059, -421.6531505542807, -527.7672019470483, -489.87827549595386, 0.6720000319182873, 0.6880000326782465, 0.41600001975893974, 0.0, 0.0, 0.0, 0.0, 0.0, 1.710395165219812E9, 0.0, 2024-03-13 22:46:05.219
33.0, -809.6359818074852, -422.9957746383734, -530.6207456132397, -487.54083802364767, 0.6720000319182873, 0.6880000326782465, 0.41600001975893974, 0.0, 0.0, 0.0, 0.0, 0.0, 1.710395165219812E9, 0.0, 2024-03-13 22:46:05.219
34.0, -798.5995370382443, -418.6724502895959, -524.3489333875477, -482.2264401866123, 0.6720000319182873, 0.6880000326782465, 0.41600001975893974, 0.0, 0.0, 0.0, 0.0, 0.0, 1.7103951652203288E9, 0.0, 2024-03-13 22:46:05.220
34.0, -812.2127728769556, -417.59909900231287, -524.65934508387, -484.8294105557725, 0.6720000319182873, 0.6880000326782465, 0.41600001975893974, 0.0, 0.0, 0.0, 0.0, 0.0, 1.7103951652203288E9, 0.0, 2024-03-13 22:46:05.220
35.0, -813.0205912673846, -421.64567075436935, -536.5522269429639, -492.54482416436076, 0.6720000319182873, 0.6880000326782465, 0.41600001975893974, 0.0, 0.0, 0.0, 0.0, 0.0, 1.7103951652342677E9, 0.0, 2024-03-13 22:46:05.234
35.0, -818.6827998002991, -428.9908342673443, -530.2093566181138, -497.3917345069349, 0.6720000319182873, 0.6880000326782465, 0.41600001975893974, 0.0, 0.0, 0.0, 0.0, 0.0, 1.7103951652342677E9, 0.0, 2024-03-13 22:46:05.234
36.0, -830.0146966660395, -442.95562070189044, -534.3980445684865, -508.6151742739603, 0.6720000319182873, 0.6880000326782465, 0.41600001975893974, 0.0, 0.0, 0.0, 0.0, 0.0, 1.7103951652497652E9, 0.0, 2024-03-13 22:46:05.249
36.0, -836.6156200878322, -440.8238777271472, -534.2484485702589, -504.7967364192009, 0.6720000319182873, 0.6880000326782465, 0.41600001975893974, 0.0, 0.0, 0.0, 0.0, 0.0, 1.7103951652497652E9, 0.0, 2024-03-13 22:46:05.249
37.0, -832.5466089360416, -437.846917362418, -545.2287948401645, -508.56281567458063, 0.6720000319182873, 0.6880000326782465, 0.41600001975893974, 0.0, 0.0, 0.0, 0.0, 0.0, 1.710395165250334E9, 0.0, 2024-03-13 22:46:05.250
37.0, -823.5745889423415, -441.57559761824086, -539.084139212966, -508.74981067236513, 0.6720000319182873, 0.6880000326782465, 0.41600001975893974, 0.0, 0.0, 0.0, 0.0, 0.0, 1.710395165250334E9, 0.0, 2024-03-13 22:46:05.250
38.0, -832.8158817328513, -437.4916268666275, -526.2974212644622, -497.32441630773246, 0.6720000319182873, 0.6880000326782465, 0.41600001975893974, 0.0, 0.0, 0.0, 0.0, 0.0, 1.710395165263922E9, 0.0, 2024-03-13 22:46:05.263
38.0, -837.2140040807426, -446.8937353552319, -547.513873713091, -508.2711034780368, 0.6720000319182873, 0.6880000326782465, 0.41600001975893974, 0.0, 0.0, 0.0, 0.0, 0.0, 1.710395165263922E9, 0.0, 2024-03-13 22:46:05.263
39.0, -832.7373438337818, -450.65607471065596, -551.4183292668313, -517.2693027714267, 0.6720000319182873, 0.6880000326782465, 0.41600001975893974, 0.0, 0.0, 0.0, 0.0, 0.0, 1.7103951652797592E9, 0.0, 2024-03-13 22:46:05.279
39.0, -825.8372284155339, -441.58681731810793, -543.7590141575783, -510.3504878534004, 0.6720000319182873, 0.6880000326782465, 0.41600001975893974, 0.0, 0.0, 0.0, 0.0, 0.0, 1.7103951652797592E9, 0.0, 2024-03-13 22:46:05.279
40.0, -828.8740271795541, -441.72145371651277, -539.2337352111936, -505.4325194116682, 0.6720000319182873, 0.6880000326782465, 0.41600001975893974, 0.0, 0.0, 0.0, 0.0, 0.0, 1.7103951652802904E9, 0.0, 2024-03-13 22:46:05.280
40.0, -809.1759741129354, -428.2914729756303, -525.6616382719949, -496.8644086131826, 0.6720000319182873, 0.6880000326782465, 0.41600001975893974, 0.0, 0.0, 0.0, 0.0, 0.0, 1.7103951652802904E9, 0.0, 2024-03-13 22:46:05.280
41.0, -830.6916185580194, -438.49765995470807, -538.5867325188592, -504.11233472730964, 0.6720000319182873, 0.6880000326782465, 0.41600001975893974, 0.0, 0.0, 0.0, 0.0, 0.0, 1.7103951652940154E9, 0.0, 2024-03-13 22:46:05.294
41.0, -848.6281787455082, -447.7950512445532, -554.7879791269079, -516.4689641809091, 0.6720000319182873, 0.6880000326782465, 0.41600001975893974, 0.0, 0.0, 0.0, 0.0, 0.0, 1.7103951652940154E9, 0.0, 2024-03-13 22:46:05.294
42.0, -830.8337347563356, -442.0056861131452, -551.1752357697114, -510.017636757344, 0.6720000319182873, 0.6880000326782465, 0.41600001975893974, 0.0, 0.0, 0.0, 0.0, 0.0, 1.710395165309555E9, 0.0, 2024-03-13 22:46:05.309
42.0, -828.4551583845168, -441.3437238209881, -533.8707186747342, -504.759337419644, 0.6720000319182873, 0.6880000326782465, 0.41600001975893974, 0.0, 0.0, 0.0, 0.0, 0.0, 1.710395165309555E9, 0.0, 2024-03-13 22:46:05.309
43.0, -829.7790829688311, -445.9026618669741, -541.713288881816, -509.0265632690862, 0.6720000319182873, 0.6880000326782465, 0.41600001975893974, 0.0, 0.0, 0.0, 0.0, 0.0, 1.7103951653102765E9, 0.0, 2024-03-13 22:46:05.310
43.0, -838.4930498655885, -445.0911035765894, -545.4718883372843, -510.81049554795027, 0.6720000319182873, 0.6880000326782465, 0.41600001975893974, 0.0, 0.0, 0.0, 0.0, 0.0, 1.7103951653102765E9, 0.0, 2024-03-13 22:46:05.310
44.0, -827.355627797544, -444.4254013844766, -544.9034235440195, -512.4036929290742, 0.6720000319182873, 0.6880000326782465, 0.41600001975893974, 0.0, 0.0, 0.0, 0.0, 0.0, 1.7103951653238988E9, 0.0, 2024-03-13 22:46:05.323
44.0, -837.329940979369, -444.3431235854514, -534.9665093617514, -509.32949516549706, 0.6720000319182873, 0.6880000326782465, 0.41600001975893974, 0.0, 0.0, 0.0, 0.0, 0.0, 1.7103951653238988E9, 0.0, 2024-03-13 22:46:05.323
45.0, -824.834935227409, -427.93992237979546, -526.7499491591007, -493.7079330505803, 0.6720000319182873, 0.6880000326782465, 0.41600001975893974, 0.0, 0.0, 0.0, 0.0, 0.0, 1.7103951653395991E9, 0.0, 2024-03-13 22:46:05.339
45.0, -824.2814300339669, -434.8549973978661, -534.2484485702589, -500.55568986944854, 0.6720000319182873, 0.6880000326782465, 0.41600001975893974, 0.0, 0.0, 0.0, 0.0, 0.0, 1.7103951653395991E9, 0.0, 2024-03-13 22:46:05.339
46.0, -827.2022918993607, -439.9637007373385, -534.4504031678662, -505.66439320892096, 0.6720000319182873, 0.6880000326782465, 0.41600001975893974, 0.0, 0.0, 0.0, 0.0, 0.0, 1.7103951653402843E9, 0.0, 2024-03-13 22:46:05.340
46.0, -837.5767743764445, -448.6066095349379, -545.5504262363538, -507.7961361836642, 0.6720000319182873, 0.6880000326782465, 0.41600001975893974, 0.0, 0.0, 0.0, 0.0, 0.0, 1.7103951653402843E9, 0.0, 2024-03-13 22:46:05.340
47.0, -818.080675907433, -434.1556361061521, -537.322646333836, -503.9851781288162, 0.6720000319182873, 0.6880000326782465, 0.41600001975893974, 0.0, 0.0, 0.0, 0.0, 0.0, 1.7103951653538666E9, 0.0, 2024-03-13 22:46:05.353
47.0, -820.1563203828409, -438.0713113597594, -526.3684793636203, -497.81060330197215, 0.6720000319182873, 0.6880000326782465, 0.41600001975893974, 0.0, 0.0, 0.0, 0.0, 0.0, 1.7103951653538666E9, 0.0, 2024-03-13 22:46:05.353
48.0, -840.5051160417497, -448.87962223170325, -545.946855631657, -506.2104186024517, 0.6720000319182873, 0.6880000326782465, 0.41600001975893974, 0.0, 0.0, 0.0, 0.0, 0.0, 1.7103951653692508E9, 0.0, 2024-03-13 22:46:05.369
48.0, -843.1866243099794, -444.88540907902643, -546.8070326214656, -506.40115350019187, 0.6720000319182873, 0.6880000326782465, 0.41600001975893974, 0.0, 0.0, 0.0, 0.0, 0.0, 1.7103951653692508E9, 0.0, 2024-03-13 22:46:05.369
49.0, -825.9382057143375, -433.90880270907655, -536.200676347129, -501.15033396240324, 0.6720000319182873, 0.6880000326782465, 0.41600001975893974, 0.0, 0.0, 0.0, 0.0, 0.0, 1.71039516538504E9, 0.0, 2024-03-13 22:46:05.385
49.0, -823.7092253407463, -428.50090737314895, -523.0287487031892, -490.4953589886427, 0.6720000319182873, 0.6880000326782465, 0.41600001975893974, 0.0, 0.0, 0.0, 0.0, 0.0, 1.71039516538504E9, 0.0, 2024-03-13 22:46:05.385
50.0, -828.2906027864665, -434.46604780247435, -545.427009537816, -500.3761746715754, 0.6720000319182873, 0.6880000326782465, 0.41600001975893974, 0.0, 0.0, 0.0, 0.0, 0.0, 1.7103951653853748E9, 0.0, 2024-03-13 22:46:05.385
50.0, -821.39796716813, -433.493673813995, -539.6675636060536, -501.6440007565543, 0.6720000319182873, 0.6880000326782465, 0.41600001975893974, 0.0, 0.0, 0.0, 0.0, 0.0, 1.7103951653853748E9, 0.0, 2024-03-13 22:46:05.385
51.0, -827.729617793113, -438.2919654571451, -541.9489025790244, -507.22393149044365, 0.6720000319182873, 0.6880000326782465, 0.41600001975893974, 0.0, 0.0, 0.0, 0.0, 0.0, 1.7103951654000068E9, 0.0, 2024-03-13 22:46:05.400
51.0, -847.3304334608838, -455.8208765494637, -558.7410533800721, -517.4600376691669, 0.6720000319182873, 0.6880000326782465, 0.41600001975893974, 0.0, 0.0, 0.0, 0.0, 0.0, 1.7103951654000068E9, 0.0, 2024-03-13 22:46:05.400
52.0, -825.268763622269, -438.27700585732237, -552.27850625664, -507.58670178614557, 0.6880000326782465, 0.6880000326782465, 0.41600001975893974, 0.0, 0.0, 0.0, 0.0, 0.0, 1.7103951654004767E9, 0.0, 2024-03-13 22:46:05.400
52.0, -809.6659010071307, -427.9548819796182, -532.2663015937433, -499.7291719792411, 0.6880000326782465, 0.6880000326782465, 0.41600001975893974, 0.0, 0.0, 0.0, 0.0, 0.0, 1.7103951654004767E9, 0.0, 2024-03-13 22:46:05.400
53.0, -830.0296562658623, -436.9755206727423, -531.4435236034915, -498.5249241935089, 0.6880000326782465, 0.6880000326782465, 0.41600001975893974, 0.0, 0.0, 0.0, 0.0, 0.0, 1.7103951654302168E9, 0.0, 2024-03-13 22:46:05.430
53.0, -830.9571514548734, -435.374843491707, -537.37126503326, -502.29474334884435, 0.6880000326782465, 0.6880000326782465, 0.41600001975893974, 0.0, 0.0, 0.0, 0.0, 0.0, 1.7103951654302168E9, 0.0, 2024-03-13 22:46:05.430
54.0, -818.0021380083635, -441.31380462134257, -542.3864708738402, -507.81109578348696, 0.6880000326782465, 0.6880000326782465, 0.41600001975893974, 0.0, 0.0, 0.0, 0.0, 0.0, 1.7103951654311552E9, 0.0, 2024-03-13 22:46:05.431
54.0, -828.1260471884161, -441.88226941460744, -532.606632489711, -502.40694034751505, 0.6880000326782465, 0.6880000326782465, 0.41600001975893974, 0.0, 0.0, 0.0, 0.0, 0.0, 1.7103951654311552E9, 0.0, 2024-03-13 22:46:05.431
55.0, -837.3187212795019, -439.1895414465107, -539.7984601045027, -501.5804224573076, 0.6880000326782465, 0.6880000326782465, 0.41600001975893974, 0.0, 0.0, 0.0, 0.0, 0.0, 1.7103951654318967E9, 0.0, 2024-03-13 22:46:05.431
55.0, -828.537436183542, -437.3719500680454, -538.2127425232902, -506.29643630143255, 0.6880000326782465, 0.6880000326782465, 0.41600001975893974, 0.0, 0.0, 0.0, 0.0, 0.0, 1.7103951654318967E9, 0.0, 2024-03-13 22:46:05.431
56.0, -830.8599140560254, -440.9659939254634, -541.6721499823034, -508.63761367369443, 0.6880000326782465, 0.6880000326782465, 0.41600001975893974, 0.0, 0.0, 0.0, 0.0, 0.0, 1.71039516544398E9, 0.0, 2024-03-13 22:46:05.443
56.0, -824.5507028307766, -435.8198915864341, -536.5933658424765, -496.3557822192088, 0.6880000326782465, 0.6880000326782465, 0.41600001975893974, 0.0, 0.0, 0.0, 0.0, 0.0, 1.71039516544398E9, 0.0, 2024-03-13 22:46:05.443
57.0, -842.4423842187971, -444.709633781109, -558.8308109790087, -512.7515036249533, 0.6880000326782465, 0.6880000326782465, 0.41600001975893974, 0.0, 0.0, 0.0, 0.0, 0.0, 1.7103951654595373E9, 0.0, 2024-03-13 22:46:05.459
57.0, -822.362861356698, -435.4907803903334, -547.1511034173891, -506.6442469973117, 0.6880000326782465, 0.6880000326782465, 0.41600001975893974, 0.0, 0.0, 0.0, 0.0, 0.0, 1.7103951654595373E9, 0.0, 2024-03-13 22:46:05.459
58.0, -827.9502718904987, -429.7836930579506, -544.667809846811, -495.4993451293558, 0.6880000326782465, 0.6880000326782465, 0.41600001975893974, 0.0, 0.0, 0.0, 0.0, 0.0, 1.710395165460251E9, 0.0, 2024-03-13 22:46:05.460
58.0, -834.9401449076831, -438.3854629560374, -563.6403223220259, -511.7529503367841, 0.6880000326782465, 0.6880000326782465, 0.41600001975893974, 0.0, 0.0, 0.0, 0.0, 0.0, 1.710395165460251E9, 0.0, 2024-03-13 22:46:05.460
59.0, -806.4682865450159, -432.72325442312285, -545.6289641354233, -500.0171442758292, 0.6880000326782465, 0.6880000326782465, 0.41600001975893974, 0.0, 0.0, 0.0, 0.0, 0.0, 1.7103951654741068E9, 0.0, 2024-03-13 22:46:05.474
59.0, -826.5253700073808, -434.1481563062407, -538.927063414827, -499.10460868664086, 0.6880000326782465, 0.6880000326782465, 0.41600001975893974, 0.0, 0.0, 0.0, 0.0, 0.0, 1.7103951654741068E9, 0.0, 2024-03-13 22:46:05.474
60.0, -830.5981210591272, -427.53227328462526, -534.0913727721199, -493.29654405545443, 0.6880000326782465, 0.6880000326782465, 0.41600001975893974, 0.0, 0.0, 0.0, 0.0, 0.0, 1.7103951654896545E9, 0.0, 2024-03-13 22:46:05.489
60.0, -827.6249005943537, -434.675482199993, -539.4431696087122, -501.37098805978894, 0.6880000326782465, 0.6880000326782465, 0.41600001975893974, 0.0, 0.0, 0.0, 0.0, 0.0, 1.7103951654896545E9, 0.0, 2024-03-13 22:46:05.489
61.0, -820.7958432752639, -430.7710266462527, -532.2102030944079, -500.89228086546063, 0.6880000326782465, 0.6880000326782465, 0.41600001975893974, 0.0, 0.0, 0.0, 0.0, 0.0, 1.7103951654902728E9, 0.0, 2024-03-13 22:46:05.490
61.0, -831.7537501454353, -425.05271961400285, -518.6829849546775, -488.88720200769603, 0.6880000326782465, 0.6880000326782465, 0.41600001975893974, 0.0, 0.0, 0.0, 0.0, 0.0, 1.7103951654902728E9, 0.0, 2024-03-13 22:46:05.490
62.0, -831.7387905456126, -433.83774460991845, -537.1805301355198, -497.0214844113216, 0.6720000319182873, 0.6880000326782465, 0.41600001975893974, 0.0, 0.0, 0.0, 0.0, 0.0, 1.710395165504238E9, 0.0, 2024-03-13 22:46:05.504
62.0, -808.7608452178538, -423.90831022756174, -526.106686366722, -489.39582840166986, 0.6720000319182873, 0.6880000326782465, 0.41600001975893974, 0.0, 0.0, 0.0, 0.0, 0.0, 1.710395165504238E9, 0.0, 2024-03-13 22:46:05.504
63.0, -823.5895485421643, -427.4013767861761, -529.4314574273303, -491.99131897091866, 0.6720000319182873, 0.6880000326782465, 0.41600001975893974, 0.0, 0.0, 0.0, 0.0, 0.0, 1.710395165519592E9, 0.0, 2024-03-13 22:46:05.519
63.0, -820.4293330796063, -424.27482042321935, -535.549933754839, -488.88720200769603, 0.6720000319182873, 0.6880000326782465, 0.41600001975893974, 0.0, 0.0, 0.0, 0.0, 0.0, 1.710395165519592E9, 0.0, 2024-03-13 22:46:05.519
64.0, -813.6376747600734, -428.0446395785548, -531.5968595016748, -492.9487333595753, 0.6720000319182873, 0.6880000326782465, 0.41600001975893974, 0.0, 0.0, 0.0, 0.0, 0.0, 1.7103951655202563E9, 0.0, 2024-03-13 22:46:05.520
64.0, -805.2266397597268, -418.369518393185, -508.4206994762644, -477.34961064439267, 0.6720000319182873, 0.6880000326782465, 0.41600001975893974, 0.0, 0.0, 0.0, 0.0, 0.0, 1.7103951655202563E9, 0.0, 2024-03-13 22:46:05.520
65.0, -837.0868474822491, -442.31983770942315, -548.53860630095, -501.70757905580103, 0.6720000319182873, 0.6880000326782465, 0.41600001975893974, 0.0, 0.0, 0.0, 0.0, 0.0, 1.7103951655341935E9, 0.0, 2024-03-13 22:46:05.534
65.0, -815.5637232372537, -424.1775830243714, -533.9642161736265, -498.18085339758545, 0.6720000319182873, 0.6880000326782465, 0.41600001975893974, 0.0, 0.0, 0.0, 0.0, 0.0, 1.7103951655341935E9, 0.0, 2024-03-13 22:46:05.534
66.0, -816.6557740243152, -431.1861555413343, -536.9075174387544, -500.65666716825217, 0.6720000319182873, 0.6880000326782465, 0.41600001975893974, 0.0, 0.0, 0.0, 0.0, 0.0, 1.7103951655500112E9, 0.0, 2024-03-13 22:46:05.550
66.0, -839.4841233538464, -441.80747141549364, -552.4655012544245, -502.9529657410458, 0.6720000319182873, 0.6880000326782465, 0.41600001975893974, 0.0, 0.0, 0.0, 0.0, 0.0, 1.7103951655500112E9, 0.0, 2024-03-13 22:46:05.550
67.0, -824.2028921348974, -430.8121655457653, -547.1436236174777, -502.36580144800246, 0.6720000319182873, 0.6880000326782465, 0.41600001975893974, 0.0, 0.0, 0.0, 0.0, 0.0, 1.7103951655505278E9, 0.0, 2024-03-13 22:46:05.550
67.0, -812.9532730681822, -430.8570443452336, -539.5815459070727, -502.5677560456097, 0.6720000319182873, 0.6880000326782465, 0.41600001975893974, 0.0, 0.0, 0.0, 0.0, 0.0, 1.7103951655505278E9, 0.0, 2024-03-13 22:46:05.550
68.0, -819.7224919879809, -422.76390084112063, -529.2108033299446, -487.76149212103337, 0.6720000319182873, 0.6880000326782465, 0.41600001975893974, 0.0, 0.0, 0.0, 0.0, 0.0, 1.7103951655639687E9, 0.0, 2024-03-13 22:46:05.563
68.0, -836.8774130847305, -440.4498877315782, -550.5693719768897, -505.22682491410524, 0.6720000319182873, 0.6880000326782465, 0.41600001975893974, 0.0, 0.0, 0.0, 0.0, 0.0, 1.7103951655639687E9, 0.0, 2024-03-13 22:46:05.563
