%OpenBCI Raw EXG Data
%Number of channels = 4
%Sample Rate = 200 Hz
%Board = OpenBCI_GUI$BoardGanglionBLE
Sample Index, EXG Channel 0, EXG Channel 1, EXG Channel 2, EXG Channel 3, Accel Channel 0, Accel Channel 1, Accel Channel 2, Other, Other, Other, Other, Other, Timestamp, Other, Timestamp (Formatted)
2.0, 183.1616003299132, 111.22462468221784, 224.37903774157166, 50.077260406687856, 0.01600000075995922, 0.0, 0.0, 0.0, 0.0, 0.0, 0.0, 0.0, 1.710387867436643E9, 0.0, 2024-03-13 20:44:27.436
2.0, 331.6636778204702, 255.40711772395298, 351.0812383904122, 262.75602113688365, 0.01600000075995922, 0.0, 0.0, 0.0, 0.0, 0.0, 0.0, 0.0, 1.710387867436643E9, 0.0, 2024-03-13 20:44:27.436
3.0, 190.15147334709764, 189.75130405183882, 197.36948026157916, 142.13489781599492, 0.01600000075995922, 0.0, 0.0, 0.0, 0.0, 0.0, 0.0, 0.0, 1.7103878674508848E9, 0.0, 2024-03-13 20:44:27.450
3.0, 427.80154608143494, 180.98497855570167, -2.2738591730594635, 127.49318948946893, 0.01600000075995922, 0.0, 0.0, 0.0, 0.0, 0.0, 0.0, 0.0, 1.7103878674508848E9, 0.0, 2024-03-13 20:44:27.450
4.0, 234.11960717616603, 54.479122654534876, -225.89743712358177, 60.41808378417045, 0.01600000075995922, 0.0, 0.0, 0.0, 0.0, 0.0, 0.0, 0.0, 1.7103878674516323E9, 0.0, 2024-03-13 20:44:27.451
4.0, 121.63650615885854, 151.31635220721364, -360.40106907999143, 128.3159674797207, 0.01600000075995922, 0.0, 0.0, 0.0, 0.0, 0.0, 0.0, 0.0, 1.7103878674516323E9, 0.0, 2024-03-13 20:44:27.451
5.0, 67.30697950255126, 394.58749457495287, -369.2721117748879, 332.6996301081963, 0.01600000075995922, 0.0, 0.0, 0.0, 0.0, 0.0, 0.0, 0.0, 1.7103878674652474E9, 0.0, 2024-03-13 20:44:27.465
5.0, 223.1243013064377, 458.6201916662976, -213.34259297233075, 445.9120116168633, 0.01600000075995922, 0.0, 0.0, 0.0, 0.0, 0.0, 0.0, 0.0, 1.7103878674652474E9, 0.0, 2024-03-13 20:44:27.465
6.0, -20.15058096125722, 472.6971750995144, -14.783824524842203, 469.72769453469664, 0.01600000075995922, 0.0, 0.0, 0.0, 0.0, 0.0, 0.0, 0.0, 1.710387867480942E9, 0.0, 2024-03-13 20:44:27.480
6.0, 161.15976889058948, 583.7909032832831, 211.38662529550493, 527.9504570448771, 0.01600000075995922, 0.0, 0.0, 0.0, 0.0, 0.0, 0.0, 0.0, 1.710387867480942E9, 0.0, 2024-03-13 20:44:27.480
7.0, 302.5261172656901, 506.22537820227444, 361.87084976257756, 471.5976445125416, 0.01600000075995922, 0.0, 0.0, 0.0, 0.0, 0.0, 0.0, 0.0, 1.7103878674816651E9, 0.0, 2024-03-13 20:44:27.481
7.0, 331.1438317266293, 740.5450700260699, 351.0438393908553, 265.8863173997961, 0.01600000075995922, 0.0, 0.0, 0.0, 0.0, 0.0, 0.0, 0.0, 1.7103878674816651E9, 0.0, 2024-03-13 20:44:27.481
8.0, 181.30287005193532, 680.3121112897061, 213.82504006661475, 150.45617521740496, 0.01600000075995922, 0.0, 0.0, 0.0, 0.0, 0.0, 0.0, 0.0, 1.7103878674954336E9, 0.0, 2024-03-13 20:44:27.495
8.0, -59.03058090060949, 674.7882790551521, 1.529619081877172, 128.18507098127156, 0.01600000075995922, 0.0, 0.0, 0.0, 0.0, 0.0, 0.0, 0.0, 1.7103878674954336E9, 0.0, 2024-03-13 20:44:27.495
9.0, -239.61913006100804, 547.4596451637335, -219.76400119625032, 60.41808378417045, 0.01600000075995922, 0.0, 0.0, 0.0, 0.0, 0.0, 0.0, 0.0, 1.710387867510908E9, 0.0, 2024-03-13 20:44:27.510
9.0, -375.4915654012002, 636.4617843092419, -360.1467558830045, 126.55447460059077, 0.01600000075995922, 0.0, 0.0, 0.0, 0.0, 0.0, 0.0, 0.0, 1.710387867510908E9, 0.0, 2024-03-13 20:44:27.510
10.0, -437.1438161707483, 869.9044695934281, -375.0165981068276, 322.4373446297832, 0.01600000075995922, 0.0, 1.0400000493973494, 0.0, 0.0, 0.0, 0.0, 0.0, 1.710387867511658E9, 0.0, 2024-03-13 20:44:27.511
10.0, -282.6242396514863, 927.0669704661705, -232.28518624790013, 423.6184679809958, 0.01600000075995922, 0.0, 1.0400000493973494, 0.0, 0.0, 0.0, 0.0, 0.0, 1.710387867511658E9, 0.0, 2024-03-13 20:44:27.511
11.0, -513.0787448710762, 963.8563663302921, -1.7053943797945976, 480.13957601133734, 0.01600000075995922, -0.19200000911951065, 1.0400000493973494, 0.0, 0.0, 0.0, 0.0, 0.0, 1.7103878675254986E9, 0.0, 2024-03-13 20:44:27.525
11.0, -324.82714070146903, 1076.8948424910195, 215.5491339461878, 537.1842700354755, 0.01600000075995922, -0.19200000911951065, 1.0400000493973494, 0.0, 0.0, 0.0, 0.0, 0.0, 1.7103878675254986E9, 0.0, 2024-03-13 20:44:27.525
12.0, -199.41520553734154, 989.9159892215393, 351.67962238332257, 464.1477638008073, 0.01600000075995922, -0.19200000911951065, 1.0400000493973494, 0.0, 0.0, 0.0, 0.0, 0.0, 1.7103878675409412E9, 0.0, 2024-03-13 20:44:27.540
12.0, -139.12053845170885, 749.4123728210106, 349.87699060468003, 267.3635778822936, 0.01600000075995922, -0.19200000911951065, 1.0400000493973494, 0.0, 0.0, 0.0, 0.0, 0.0, 1.7103878675409412E9, 0.0, 2024-03-13 20:44:27.540
13.0, -319.3893261658959, 672.0506722875871, 196.70751796942204, 131.8015542384237, 0.01600000075995922, -0.19200000911951065, 1.0400000493973494, 0.0, 0.0, 0.0, 0.0, 0.0, 1.7103878675416677E9, 0.0, 2024-03-13 20:44:27.541
13.0, -547.1529733673669, 674.6555126067251, -12.91387454699725, 119.22801058739424, 0.01600000075995922, -0.19200000911951065, 1.0400000493973494, 0.0, 0.0, 0.0, 0.0, 0.0, 1.7103878675416677E9, 0.0, 2024-03-13 20:44:27.541
14.0, -755.293365501333, 528.6572981365025, -242.13608273118734, 40.26376292295754, 0.01600000075995922, -0.19200000911951065, 1.0400000493973494, 0.0, 0.0, 0.0, 0.0, 0.0, 1.7103878675552204E9, 0.0, 2024-03-13 20:44:27.555
14.0, -882.0516646495089, 621.9865015307441, -378.7452783626504, 111.84918797481805, 0.01600000075995922, -0.19200000911951065, 1.0400000493973494, 0.0, 0.0, 0.0, 0.0, 0.0, 1.7103878675552204E9, 0.0, 2024-03-13 20:44:27.555
15.0, -892.3251698277891, 401.35484354477376, -354.8510575457476, 343.2835469827987, 0.01600000075995922, -0.19200000911951065, 1.0400000493973494, 0.0, 0.0, 0.0, 0.0, 0.0, 1.7103878675709567E9, 0.0, 2024-03-13 20:44:27.570
15.0, -748.3184520839714, 453.4909188770689, -209.2885414203629, 443.08838715031743, 0.01600000075995922, -0.19200000911951065, 1.0400000493973494, 0.0, 0.0, 0.0, 0.0, 0.0, 1.7103878675709567E9, 0.0, 2024-03-13 20:44:27.570
16.0, -982.3857006607577, 481.71220394270495, 2.42345517128706, 485.7569057447836, 0.01600000075995922, -0.19200000911951065, 1.0400000493973494, 0.0, 0.0, 0.0, 0.0, 0.0, 1.7103878675716388E9, 0.0, 2024-03-13 20:44:27.571
16.0, -809.2096332125366, 585.0867786179297, 219.77896079607308, 530.3290334166959, 0.01600000075995922, -0.19200000911951065, 1.0400000493973494, 0.0, 0.0, 0.0, 0.0, 0.0, 1.7103878675716388E9, 0.0, 2024-03-13 20:44:27.571
17.0, -690.4360204697587, 492.48685571504757, 345.1796762603335, 455.48989540338516, 0.01600000075995922, -0.19200000911951065, 1.0400000493973494, 0.0, 0.0, 0.0, 0.0, 0.0, 1.7103878675852127E9, 0.0, 2024-03-13 20:44:27.585
17.0, -638.0325422906317, 259.1227083299309, 354.0806381548755, 268.04797957418486, 0.01600000075995922, -0.19200000911951065, 1.0400000493973494, 0.0, 0.0, 0.0, 0.0, 0.0, 1.7103878675852127E9, 0.0, 2024-03-13 20:44:27.585
18.0, -799.1231230320409, 193.16770266136155, 214.19529016222805, 155.31056535989046, 0.01600000075995922, -0.19200000911951065, 1.0400000493973494, 0.0, 0.0, 0.0, 0.0, 0.0, 1.710387867601014E9, 0.0, 2024-03-13 20:44:27.601
18.0, -1040.2756120748818, 180.88961110683158, 5.153582138940692, 130.77682165056467, 0.01600000075995922, -0.19200000911951065, 1.0400000493973494, 0.0, 0.0, 0.0, 0.0, 0.0, 1.710387867601014E9, 0.0, 2024-03-13 20:44:27.601
19.0, -1234.3315409757197, 52.62600222649053, -217.01143482886255, 65.07799912896007, 0.01600000075995922, -0.19200000911951065, 1.0400000493973494, 0.0, 0.0, 0.0, 0.0, 0.0, 1.7103878676016607E9, 0.0, 2024-03-13 20:44:27.601
19.0, -1340.1763195716776, 160.07706785341725, -354.8809767453931, 138.81386665534228, 0.01600000075995922, -0.19200000911951065, 1.0400000493973494, 0.0, 0.0, 0.0, 0.0, 0.0, 1.7103878676016607E9, 0.0, 2024-03-13 20:44:27.601
20.0, -1411.2942571290769, 393.9012229330838, -364.66081512952223, 333.8477793945931, 0.01600000075995922, -0.19200000911951065, 1.0400000493973494, 0.0, 0.0, 0.0, 0.0, 0.0, 1.7103878676152484E9, 0.0, 2024-03-13 20:44:27.615
20.0, -1241.0858002956957, 455.28981075575575, -206.2442628564313, 449.4686564747244, 0.01600000075995922, -0.19200000911951065, 1.0400000493973494, 0.0, 0.0, 0.0, 0.0, 0.0, 1.7103878676152484E9, 0.0, 2024-03-13 20:44:27.615
21.0, -999.218990361318, 478.237836883869, -2.5917506692931056, 482.8921423787251, 0.01600000075995922, -0.19200000911951065, 1.0400000493973494, 0.0, 0.0, 0.0, 0.0, 0.0, 1.7103878676309724E9, 0.0, 2024-03-13 20:44:27.630
21.0, -822.8191291512921, 580.6063784710132, 206.37141945492476, 525.2764285765588, 0.01600000075995922, -0.19200000911951065, 1.0400000493973494, 0.0, 0.0, 0.0, 0.0, 0.0, 1.7103878676309724E9, 0.0, 2024-03-13 20:44:27.630
22.0, -684.7887715366669, 502.85385839222, 358.8976292978041, 465.46420858521014, 0.01600000075995922, -0.19200000911951065, 1.0400000493973494, 0.0, 0.0, 0.0, 0.0, 0.0, 1.7103878676318724E9, 0.0, 2024-03-13 20:44:27.631
22.0, -647.7301028757356, 743.763253937941, 346.9636085391976, 256.1812770147808, 0.01600000075995922, -0.19200000911951065, 1.0400000493973494, 0.0, 0.0, 0.0, 0.0, 0.0, 1.7103878676318724E9, 0.0, 2024-03-13 20:44:27.631
23.0, -778.7107490738854, 686.3763590678573, 215.08164645172656, 150.76658691372722, 0.01600000075995922, -0.19200000911951065, 1.0400000493973494, 0.0, 0.0, 0.0, 0.0, 0.0, 1.7103878676452377E9, 0.0, 2024-03-13 20:44:27.645
23.0, -572.0906262719072, 651.2250393843278, -15.808557112701237, 105.3829009514302, 0.01600000075995922, -0.19200000911951065, 1.0400000493973494, 0.0, 0.0, 0.0, 0.0, 0.0, 1.7103878676452377E9, 0.0, 2024-03-13 20:44:27.645
24.0, -765.0732038854621, 526.2263631653041, -236.95632129255682, 39.624240030534565, 0.01600000075995922, -0.19200000911951065, 1.0400000493973494, 0.0, 0.0, 0.0, 0.0, 0.0, 1.7103878676610029E9, 0.0, 2024-03-13 20:44:27.661
24.0, -869.9942271923646, 626.6763360751793, -366.182954411488, 119.78525568079203, 0.01600000075995922, -0.19200000911951065, 1.0400000493973494, 0.0, 0.0, 0.0, 0.0, 0.0, 1.7103878676610029E9, 0.0, 2024-03-13 20:44:27.661
25.0, -915.6471859514713, 382.8909574635327, -369.1299955765717, 317.00326999416575, 0.01600000075995922, -0.19200000911951065, 1.0400000493973494, 0.0, 0.0, 0.0, 0.0, 0.0, 1.7103878676616735E9, 0.0, 2024-03-13 20:44:27.661
25.0, -761.1388291320764, 439.8515037386678, -211.59979959297925, 427.74731753207743, 0.01600000075995922, -0.19200000911951065, 1.0400000493973494, 0.0, 0.0, 0.0, 0.0, 0.0, 1.7103878676616735E9, 0.0, 2024-03-13 20:44:27.661
26.0, -986.7464240090922, 471.6144740623422, -10.378222377039492, 468.20929515268654, 0.01600000075995922, -0.19200000911951065, 1.0400000493973494, 0.0, 0.0, 0.0, 0.0, 0.0, 1.7103878676756E9, 0.0, 2024-03-13 20:44:27.675
26.0, -817.2578979171813, 579.2600144869648, 211.29312779661268, 520.2013843366876, 0.01600000075995922, -0.19200000911951065, 1.0400000493973494, 0.0, 0.0, 0.0, 0.0, 0.0, 1.7103878676756E9, 0.0, 2024-03-13 20:44:27.675
27.0, -680.1999142910354, 489.9474636451341, 349.23372781230137, 459.0988988606259, 0.01600000075995922, -0.19200000911951065, 1.0400000493973494, 0.0, 0.0, 0.0, 0.0, 0.0, 1.7103878676909335E9, 0.0, 2024-03-13 20:44:27.690
27.0, -655.939183278475, 724.7009838637896, 344.4840548685752, 254.45344323525205, 0.01600000075995922, -0.19200000911951065, 1.0400000493973494, 0.0, 0.0, 0.0, 0.0, 0.0, 1.7103878676909335E9, 0.0, 2024-03-13 20:44:27.690
28.0, -800.8359972117469, 663.8359820349142, 210.82190040219575, 146.01691397000104, 0.01600000075995922, -0.19200000911951065, 1.0400000493973494, 0.0, 0.0, 0.0, 0.0, 0.0, 1.7103878676916587E9, 0.0, 2024-03-13 20:44:27.691
28.0, -564.2405762649141, 653.7644314542413, -11.571250462904572, 116.45300482027233, 0.01600000075995922, -0.19200000911951065, 1.0400000493973494, 0.0, 0.0, 0.0, 0.0, 0.0, 1.7103878676916587E9, 0.0, 2024-03-13 20:44:27.691
29.0, -742.7347814501263, 534.6635774653405, -219.5882258983329, 59.53920729458332, 0.01600000075995922, -0.19200000911951065, 1.0400000493973494, 0.0, 0.0, 0.0, 0.0, 0.0, 1.7103878677051933E9, 0.0, 2024-03-13 20:44:27.705
29.0, -877.7956584999338, 629.1708493456244, -356.3096185284667, 132.15684473421425, 0.01600000075995922, -0.19200000911951065, 1.0400000493973494, 0.0, 0.0, 0.0, 0.0, 0.0, 1.7103878677051933E9, 0.0, 2024-03-13 20:44:27.705
30.0, -928.9462701939046, 865.9570051901974, -372.87737533217296, 316.47968400036916, 0.01600000075995922, -0.19200000911951065, 1.0400000493973494, 0.0, 0.0, 0.0, 0.0, 0.0, 1.710387867720971E9, 0.0, 2024-03-13 20:44:27.720
30.0, -763.1845544078387, 926.0815068278462, -219.46106929983944, 427.45186543557793, 0.01600000075995922, -0.19200000911951065, 1.0400000493973494, 0.0, 0.0, 0.0, 0.0, 0.0, 1.710387867720971E9, 0.0, 2024-03-13 20:44:27.720
31.0, -994.5254159169272, 959.1796214357018, -2.4645940707996488, 470.0418461309746, 0.01600000075995922, -0.19200000911951065, 1.0400000493973494, 0.0, 0.0, 0.0, 0.0, 0.0, 1.7103878677216692E9, 0.0, 2024-03-13 20:44:27.721
31.0, -818.1330345068127, 1059.8577282428741, 210.59002660494298, 516.5699414797127, 0.01600000075995922, -0.19200000911951065, 1.0400000493973494, 0.0, 0.0, 0.0, 0.0, 0.0, 1.7103878677216692E9, 0.0, 2024-03-13 20:44:27.721
32.0, -702.6056549255736, 963.3757891859859, 338.3618386411108, 439.5691412920132, 0.01600000075995922, -0.19200000911951065, 1.0400000493973494, 0.0, 0.0, 0.0, 0.0, 0.0, 1.710387867735212E9, 0.0, 2024-03-13 20:44:27.735
32.0, -675.6035772454925, 1195.589917334728, 324.04924151068553, 228.22552484599873, 0.01600000075995922, -0.19200000911951065, 1.0400000493973494, 0.0, 0.0, 0.0, 0.0, 0.0, 1.710387867735212E9, 0.0, 2024-03-13 20:44:27.735
33.0, -810.3877016985789, 1156.0872240527533, 203.01672919467092, 137.92377046588808, 0.01600000075995922, -0.19200000911951065, 1.0400000493973494, 0.0, 0.0, 0.0, 0.0, 0.0, 1.7103878677510064E9, 0.0, 2024-03-13 20:44:27.751
33.0, -567.3147740284912, 1139.8859774447046, -10.07155058067292, 112.33911486901343, 0.01600000075995922, -0.19200000911951065, 1.0400000493973494, 0.0, 0.0, 0.0, 0.0, 0.0, 1.7103878677510064E9, 0.0, 2024-03-13 20:44:27.751
34.0, -758.9584674579091, 1008.5519107007422, -232.8499111412093, 40.22636392340064, 0.01600000075995922, -0.19200000911951065, 1.0400000493973494, 0.0, 0.0, 0.0, 0.0, 0.0, 1.7103878677517304E9, 0.0, 2024-03-13 20:44:27.751
34.0, -874.6429228372872, 1113.0970740620978, -367.3385834977962, 122.28350885119289, 0.01600000075995922, -0.19200000911951065, 1.0400000493973494, 0.0, 0.0, 0.0, 0.0, 0.0, 1.7103878677517304E9, 0.0, 2024-03-13 20:44:27.751
35.0, -924.4172513475642, 1358.1484088087454, -376.00019179517403, 318.7984219728969, 0.01600000075995922, -0.19200000911951065, 1.0400000493973494, 0.0, 0.0, 0.0, 0.0, 0.0, 1.7103878677654436E9, 0.0, 2024-03-13 20:44:27.765
35.0, -765.099383185152, 1416.0252305730246, -226.59679841529578, 426.4159131478518, 0.01600000075995922, -0.19200000911951065, 1.0400000493973494, 0.0, 0.0, 0.0, 0.0, 0.0, 1.7103878677654436E9, 0.0, 2024-03-13 20:44:27.765
36.0, -999.5967202568427, 1452.287300543394, -5.0900038396939635, 476.1865017581731, 0.01600000075995922, -0.19200000911951065, 1.0400000493973494, 0.0, 0.0, 0.0, 0.0, 0.0, 1.7103878677809446E9, 0.0, 2024-03-13 20:44:27.780
36.0, -804.2467859713361, 1572.1585739231668, 212.5048553822562, 531.8623923985288, 0.01600000075995922, -0.19200000911951065, 1.0400000493973494, 0.0, 0.0, 0.0, 0.0, 0.0, 1.7103878677809446E9, 0.0, 2024-03-13 20:44:27.780
37.0, -699.0303105679341, 1459.209855361376, 343.219968683552, 444.7302032308653, 0.01600000075995922, -0.19200000911951065, 1.0400000493973494, 0.0, 0.0, 0.0, 0.0, 0.0, 1.7103878677816684E9, 0.0, 2024-03-13 20:44:27.781
37.0, -680.2223536907695, 1684.0825598970987, 330.19015723792836, 231.34086150908843, 0.01600000075995922, -0.19200000911951065, 1.0400000493973494, 0.0, 0.0, 0.0, 0.0, 0.0, 1.7103878677816684E9, 0.0, 2024-03-13 20:44:27.781
38.0, -834.6708721108735, 1622.7164114741609, 182.3051632400602, 118.11726030055434, 0.01600000075995922, -0.19200000911951065, 1.0400000493973494, 0.0, 0.0, 0.0, 0.0, 0.0, 1.7103878677953103E9, 0.0, 2024-03-13 20:44:27.795
38.0, -1066.3576743658632, 1623.316665417049, -19.69431316666305, 99.89272781647742, 0.01600000075995922, -0.19200000911951065, 1.0400000493973494, 0.0, 0.0, 0.0, 0.0, 0.0, 1.7103878677953103E9, 0.0, 2024-03-13 20:44:27.795
39.0, -1244.9378972500563, 1503.0826217415743, -229.1848091846332, 40.6863716179505, 0.01600000075995922, -0.19200000911951065, 1.0400000493973494, 0.0, 0.0, 0.0, 0.0, 0.0, 1.7103878678109117E9, 0.0, 2024-03-13 20:44:27.810
39.0, -1358.5130490544252, 1607.7998205008917, -365.87628261512145, 118.27433609869331, 0.01600000075995922, -0.19200000911951065, 1.0400000493973494, 0.0, 0.0, 0.0, 0.0, 0.0, 1.7103878678109117E9, 0.0, 2024-03-13 20:44:27.810
40.0, -1390.9604210699908, 1382.1604364742525, -350.06024570250884, 341.31635960610583, 0.01600000075995922, -0.19200000911951065, 1.0400000493973494, 0.0, 0.0, 0.0, 0.0, 0.0, 1.7103878678117056E9, 0.0, 2024-03-13 20:44:27.811
40.0, -1240.296681405045, 1430.7323871487752, -212.7292493795976, 438.9969365987927, 0.01600000075995922, -0.19200000911951065, 1.0400000493973494, 0.0, 0.0, 0.0, 0.0, 0.0, 1.7103878678117056E9, 0.0, 2024-03-13 20:44:27.811
41.0, -1001.9827764285728, 1444.809370581992, -14.967079622671008, 469.3312651393935, 0.01600000075995922, -0.19200000911951065, 1.0400000493973494, 0.0, 0.0, 0.0, 0.0, 0.0, 1.7103878678256114E9, 0.0, 2024-03-13 20:44:27.825
41.0, -817.9684789087623, 1566.3037605425343, 200.19310472812504, 524.00860249158, 0.01600000075995922, -0.19200000911951065, 1.0400000493973494, 0.0, 0.0, 0.0, 0.0, 0.0, 1.7103878678256114E9, 0.0, 2024-03-13 20:44:27.825
42.0, -665.610564563889, 1491.0943724336103, 363.8978755385615, 476.8559438502416, 0.01600000075995922, -0.19200000911951065, 1.0400000493973494, 0.0, 0.0, 0.0, 0.0, 0.0, 1.7103878678411465E9, 0.0, 2024-03-13 20:44:27.841
42.0, -651.922530726064, 1705.3831600947306, 334.8912114822306, 247.15689842170104, 0.01600000075995922, -0.19200000911951065, 1.0400000493973494, 0.0, 0.0, 0.0, 0.0, 0.0, 1.7103878678411465E9, 0.0, 2024-03-13 20:44:27.841
43.0, -790.5886713331565, 1664.1114941337146, 211.397844995372, 150.08966502174735, 0.01600000075995922, -0.19200000911951065, 1.0400000493973494, 0.0, 0.0, 0.0, 0.0, 0.0, 1.7103878678417015E9, 0.0, 2024-03-13 20:44:27.841
43.0, -562.4753434858285, 1639.17758112913, -4.9291881415992975, 119.54216218367219, 0.01600000075995922, -0.19200000911951065, 1.0400000493973494, 0.0, 0.0, 0.0, 0.0, 0.0, 1.7103878678417015E9, 0.0, 2024-03-13 20:44:27.841
44.0, -747.8023458900861, 1507.8322946853004, -225.52344712801278, 49.8753058090806, 0.01600000075995922, -0.19200000911951065, 1.0400000493973494, 0.0, 0.0, 0.0, 0.0, 0.0, 1.7103878678552585E9, 0.0, 2024-03-13 20:44:27.855
44.0, -866.3440848356113, 1617.8489316818304, -350.7483872943558, 139.30753344949335, 0.01600000075995922, -0.19200000911951065, 1.0400000493973494, 0.0, 0.0, 0.0, 0.0, 0.0, 1.7103878678552585E9, 0.0, 2024-03-13 20:44:27.855
45.0, -904.5172436833382, 1382.5344264698215, -356.1188836307265, 340.60203871456906, 0.01600000075995922, -0.19200000911951065, 1.0400000493973494, 0.0, 0.0, 0.0, 0.0, 0.0, 1.710387867870939E9, 0.0, 2024-03-13 20:44:27.870
45.0, -775.8777748574503, 1409.9086241954938, -228.34333169460297, 421.3072098083794, 0.01600000075995922, -0.19200000911951065, 1.0400000493973494, 0.0, 0.0, 0.0, 0.0, 0.0, 1.710387867870939E9, 0.0, 2024-03-13 20:44:27.870
46.0, -1003.1683247145265, 1444.6709942836314, -3.2761523611843586, 473.8079253863543, 0.01600000075995922, -0.19200000911951065, 1.0400000493973494, 0.0, 0.0, 0.0, 0.0, 0.0, 1.7103878678718698E9, 0.0, 2024-03-13 20:44:27.871
46.0, -821.023977172561, 1560.3685393128544, 212.5497341817245, 529.158444730565, 0.01600000075995922, -0.19200000911951065, 1.0400000493973494, 0.0, 0.0, 0.0, 0.0, 0.0, 1.7103878678718698E9, 0.0, 2024-03-13 20:44:27.871
47.0, -684.0482713454403, 1480.2150034625083, 362.4542741556652, 464.49557449668646, 0.01600000075995922, -0.19200000911951065, 1.0400000493973494, 0.0, 0.0, 0.0, 0.0, 0.0, 1.7103878678852847E9, 0.0, 2024-03-13 20:44:27.885
47.0, -634.7825692291372, 1720.3016210179776, 355.06049194326624, 255.4332970236428, 0.01600000075995922, -0.19200000911951065, 1.0400000493973494, 0.0, 0.0, 0.0, 0.0, 0.0, 1.7103878678852847E9, 0.0, 2024-03-13 20:44:27.885
48.0, -815.6048621367663, 1643.4859458780847, 198.64104624651372, 135.34323949646205, 0.01600000075995922, -0.19200000911951065, 1.0400000493973494, 0.0, 0.0, 0.0, 0.0, 0.0, 1.7103878679009504E9, 0.0, 2024-03-13 20:44:27.900
48.0, -1043.1590749407187, 1649.7820674534887, 1.3164447844028473, 124.71444382239133, 0.01600000075995922, -0.19200000911951065, 1.0400000493973494, 0.0, 0.0, 0.0, 0.0, 0.0, 1.7103878679009504E9, 0.0, 2024-03-13 20:44:27.900
49.0, -1246.2468622345477, 1503.2864462891594, -235.64735630806535, 36.28824927005917, 0.01600000075995922, -0.19200000911951065, 1.0400000493973494, 0.0, 0.0, 0.0, 0.0, 0.0, 1.710387867901703E9, 0.0, 2024-03-13 20:44:27.901
49.0, -1356.706677375827, 1608.1233218470588, -366.39238880900666, 120.37615987379104, 0.01600000075995922, -0.19200000911951065, 1.0400000493973494, 0.0, 0.0, 0.0, 0.0, 0.0, 1.710387867901703E9, 0.0, 2024-03-13 20:44:27.901
50.0, -1407.7862309706397, 1372.5245842384174, -360.31879128096625, 331.3532661241479, 0.01600000075995922, -0.19200000911951065, 1.0400000493973494, 0.0, 0.0, 0.0, 0.0, 0.0, 1.7103878679153123E9, 0.0, 2024-03-13 20:44:27.915
50.0, -1238.2023374298587, 1421.8033760045655, -219.54334709886461, 429.7294645085931, 0.01600000075995922, -0.19200000911951065, 1.0400000493973494, 0.0, 0.0, 0.0, 0.0, 0.0, 1.7103878679153123E9, 0.0, 2024-03-13 20:44:27.915
51.0, -1474.5359653797932, 1464.73368759593, 4.42056174762547, 487.02099192980677, 0.01600000075995922, -0.19200000911951065, 1.0400000493973494, 0.0, 0.0, 0.0, 0.0, 0.0, 1.7103878679309614E9, 0.0, 2024-03-13 20:44:27.930
51.0, -1288.3936647851951, 1580.7341645215638, 222.87185805942863, 546.706055322662, 0.01600000075995922, -0.19200000911951065, 1.0400000493973494, 0.0, 0.0, 0.0, 0.0, 0.0, 1.7103878679309614E9, 0.0, 2024-03-13 20:44:27.930
52.0, -1161.8373202346265, 1494.0844224481843, 365.76782551640645, 476.5679715536535, 0.01600000075995922, -0.19200000911951065, 1.0400000493973494, 0.0, 0.0, 0.0, 0.0, 0.0, 1.710387867931887E9, 0.0, 2024-03-13 20:44:27.931
52.0, -1141.7353579727933, 1713.3360573505051, 338.30948004173115, 252.86398575408384, 0.01600000075995922, -0.19200000911951065, 1.0400000493973494, 0.0, 0.0, 0.0, 0.0, 0.0, 1.710387867931887E9, 0.0, 2024-03-13 20:44:27.931
53.0, -1288.7489552809857, 1659.1205976428464, 193.6819389052689, 143.8440320957452, 0.01600000075995922, -0.19200000911951065, 1.0400000493973494, 0.0, 0.0, 0.0, 0.0, 0.0, 1.710387867945294E9, 0.0, 2024-03-13 20:44:27.945
53.0, -1529.209562832024, 1661.186892368365, -0.44878799468278885, 125.82145420927554, 0.01600000075995922, -0.19200000911951065, 1.0400000493973494, 0.0, 0.0, 0.0, 0.0, 0.0, 1.710387867945294E9, 0.0, 2024-03-13 20:44:27.945
54.0, -1713.9232216435485, 1523.057427404914, -224.38651754148304, 58.73886870406568, 0.01600000075995922, -0.19200000911951065, 1.0400000493973494, 0.0, 0.0, 0.0, 0.0, 0.0, 1.710387867961182E9, 0.0, 2024-03-13 20:44:27.961
54.0, -1833.1568420808762, 1629.3640836453997, -357.09873741911724, 140.70625603292137, 0.01600000075995922, -0.19200000911951065, 1.0400000493973494, 0.0, 0.0, 0.0, 0.0, 0.0, 1.710387867961182E9, 0.0, 2024-03-13 20:44:27.961
55.0, -1869.5011898502707, 1402.8196438294835, -345.90521685173735, 359.94480128539726, 0.01600000075995922, -0.19200000911951065, 1.0400000493973494, 0.0, 0.0, 0.0, 0.0, 0.0, 1.710387867961766E9, 0.0, 2024-03-13 20:44:27.961
55.0, -1735.2219518912025, 1440.082137038, -205.30554796755314, 444.5469481330365, 0.01600000075995922, -0.19200000911951065, 1.0400000493973494, 0.0, 0.0, 0.0, 0.0, 0.0, 1.710387867961766E9, 0.0, 2024-03-13 20:44:27.961
56.0, -1958.600566394627, 1466.7625833218917, -6.45132742356509, 482.58547058235854, 0.01600000075995922, -0.19200000911951065, 1.0400000493973494, 0.0, 0.0, 0.0, 0.0, 0.0, 1.710387867975541E9, 0.0, 2024-03-13 20:44:27.975
56.0, -1791.2325635775924, 1584.8985431222245, 213.47722937073559, 548.9200760964304, 0.01600000075995922, -0.19200000911951065, 1.0400000493973494, 0.0, 0.0, 0.0, 0.0, 0.0, 1.710387867975541E9, 0.0, 2024-03-13 20:44:27.975
57.0, -1643.4784660781734, 1509.0384124210104, 381.0079178358428, 489.69128049816936, 0.01600000075995922, -0.19200000911951065, 1.0400000493973494, 0.0, 0.0, 0.0, 0.0, 0.0, 1.710387867991176E9, 0.0, 2024-03-13 20:44:27.991
57.0, -1630.504753131885, 1721.8088007001206, 357.3380910162814, 262.1838164436631, 0.01600000075995922, -0.19200000911951065, 1.0400000493973494, 0.0, 0.0, 0.0, 0.0, 0.0, 1.710387867991176E9, 0.0, 2024-03-13 20:44:27.991
58.0, -1786.8793200291693, 1659.6722328863107, 206.30036135576665, 150.2617004197091, 0.01600000075995922, -0.19200000911951065, 1.0400000493973494, 0.0, 0.0, 0.0, 0.0, 0.0, 1.7103878679917753E9, 0.0, 2024-03-13 20:44:27.991
58.0, -1999.511332009919, 1673.814664568752, 20.038383962586522, 151.17610595887527, 0.01600000075995922, -0.19200000911951065, 1.0400000493973494, 0.0, 0.0, 0.0, 0.0, 0.0, 1.7103878679917753E9, 0.0, 2024-03-13 20:44:27.991
59.0, -2214.563059262, 1518.945407403633, -217.13111162744462, 60.22547893645242, 0.01600000075995922, -0.19200000911951065, 1.0400000493973494, 0.0, 0.0, 0.0, 0.0, 0.0, 1.7103878680053017E9, 0.0, 2024-03-13 20:44:28.005
59.0, -2339.6122241304256, 1618.998950918205, -360.7825388754718, 134.95615985104814, 0.01600000075995922, -0.19200000911951065, 1.0400000493973494, 0.0, 0.0, 0.0, 0.0, 0.0, 1.7103878680053017E9, 0.0, 2024-03-13 20:44:28.005
60.0, -2374.9168797121383, 1396.422544955276, -352.4837008737959, 352.5715885227546, 0.01600000075995922, -0.19200000911951065, 1.0400000493973494, 0.0, 0.0, 0.0, 0.0, 0.0, 1.7103878680212283E9, 0.0, 2024-03-13 20:44:28.021
60.0, -2215.550392850302, 1435.6821447401308, -207.59436674043536, 444.80687117995694, 0.01600000075995922, -0.19200000911951065, 1.0400000493973494, 0.0, 0.0, 0.0, 0.0, 0.0, 1.7103878680212283E9, 0.0, 2024-03-13 20:44:28.021
61.0, -1977.7600738676265, 1461.6033913330175, 5.520092334598303, 484.86119970539585, 0.01600000075995922, -0.19200000911951065, 1.0400000493973494, 0.0, 0.0, 0.0, 0.0, 0.0, 1.7103878680218809E9, 0.0, 2024-03-13 20:44:28.021
61.0, -1775.558642863296, 1591.2919020964764, 221.7386683728546, 550.0551357329823, 0.01600000075995922, -0.19200000911951065, 1.0400000493973494, 0.0, 0.0, 0.0, 0.0, 0.0, 1.7103878680218809E9, 0.0, 2024-03-13 20:44:28.021
62.0, -1649.5034449067898, 1502.2935028509237, 368.6101494827308, 478.2901954832487, 0.01600000075995922, -0.19200000911951065, 1.0400000493973494, 0.0, 0.0, 0.0, 0.0, 0.0, 1.7103878680352848E9, 0.0, 2024-03-13 20:44:28.035
62.0, -1630.8937027272768, 1718.0333716948517, 340.0373138212599, 248.4153747567907, 0.01600000075995922, -0.19200000911951065, 1.0400000493973494, 0.0, 0.0, 0.0, 0.0, 0.0, 1.7103878680352848E9, 0.0, 2024-03-13 20:44:28.035
63.0, -1775.6409206623212, 1669.906469115056, 209.68497081566602, 152.5336896427907, 0.01600000075995922, -0.19200000911951065, 1.0400000493973494, 0.0, 0.0, 0.0, 0.0, 0.0, 1.7103878680509677E9, 0.0, 2024-03-13 20:44:28.050
63.0, -1532.369778294582, 1659.1916557420045, 0.8826163895428181, 130.69641380151734, 0.01600000075995922, -0.19200000911951065, 1.0400000493973494, 0.0, 0.0, 0.0, 0.0, 0.0, 1.7103878680509677E9, 0.0, 2024-03-13 20:44:28.050
64.0, -1724.8362497142516, 1511.2599129946902, -229.79067297745496, 42.80128504289314, 0.01600000075995922, -0.19200000911951065, 1.0400000493973494, 0.0, 0.0, 0.0, 0.0, 0.0, 1.7103878680516653E9, 0.0, 2024-03-13 20:44:28.051
64.0, -1848.0453838044778, 1611.8333026031032, -368.8308035801165, 123.95337418140844, 0.01600000075995922, -0.19200000911951065, 1.0400000493973494, 0.0, 0.0, 0.0, 0.0, 0.0, 1.7103878680516653E9, 0.0, 2024-03-13 20:44:28.051
65.0, -1876.6892775651067, 1391.538235613145, -355.58407793706283, 348.3043626733124, 0.01600000075995922, -0.19200000911951065, 1.0400000493973494, 0.0, 0.0, 0.0, 0.0, 0.0, 1.7103878680652874E9, 0.0, 2024-03-13 20:44:28.065
65.0, -1716.4065152141266, 1446.1202055164613, -203.7310500862077, 443.69238099316135, 0.01600000075995922, -0.19200000911951065, 1.0400000493973494, 0.0, 0.0, 0.0, 0.0, 0.0, 1.7103878680652874E9, 0.0, 2024-03-13 20:44:28.065
66.0, -1486.3353497399949, 1449.441236677114, -15.217652919702232, 461.62146138073877, 0.01600000075995922, -0.19200000911951065, 1.0400000493973494, 0.0, 0.0, 0.0, 0.0, 0.0, 1.7103878680806808E9, 0.0, 2024-03-13 20:44:28.080
66.0, -1292.7543881335296, 1575.0345569890924, 200.0622082296759, 530.2860245672055, 0.01600000075995922, -0.19200000911951065, 1.0400000493973494, 0.0, 0.0, 0.0, 0.0, 0.0, 1.7103878680806808E9, 0.0, 2024-03-13 20:44:28.080
67.0, -1176.0227607665583, 1485.3517560516484, 349.8470714050345, 460.66778689203784, 0.01600000075995922, -0.19200000911951065, 1.0400000493973494, 0.0, 0.0, 0.0, 0.0, 0.0, 1.71038786809599E9, 0.0, 2024-03-13 20:44:28.095
67.0, -1153.4188054343686, 1700.2501474055462, 332.2097032140009, 233.58667143248022, 0.01600000075995922, -0.19200000911951065, 1.0400000493973494, 0.0, 0.0, 0.0, 0.0, 0.0, 1.71038786809599E9, 0.0, 2024-03-13 20:44:28.095
68.0, -1288.490902184043, 1659.9545953329653, 208.04689463507384, 148.65915328869596, 0.01600000075995922, -0.19200000911951065, 1.0400000493973494, 0.0, 0.0, 0.0, 0.0, 0.0, 1.7103878680966508E9, 0.0, 2024-03-13 20:44:28.096
68.0, -1507.3049687915482, 1669.0706014749594, 15.875875311903656, 137.57782971998677, 0.01600000075995922, -0.19200000911951065, 1.0400000493973494, 0.0, 0.0, 0.0, 0.0, 0.0, 1.7103878680966508E9, 0.0, 2024-03-13 20:44:28.096
69.0, -1744.9569114758633, 1503.4192127375863, 254.71523623215035, 33.20844165654853, 0.01600000075995922, -0.19200000911951065, 1.0400000493973494, 0.0, 0.0, 0.0, 0.0, 0.0, 1.7103878681112897E9, 0.0, 2024-03-13 20:44:28.111
69.0, -1851.8002433599904, 1614.3222060236149, 118.55108869541436, 119.30093863653019, 0.01600000075995922, -0.19200000911951065, 1.0400000493973494, 0.0, 0.0, 0.0, 0.0, 0.0, 1.7103878681112897E9, 0.0, 2024-03-13 20:44:28.111
70.0, -1867.0964341787621, 1400.328870458994, 134.00061541236937, 348.70453196857125, 0.01600000075995922, -0.19200000911951065, 1.0400000493973494, 0.0, 0.0, 0.0, 0.0, 0.0, 1.7103878681118653E9, 0.0, 2024-03-13 20:44:28.111
70.0, -1734.5338102993555, 1428.0733182802796, 271.72804113058373, 432.28568612830713, 0.01600000075995922, -0.19200000911951065, 1.0400000493973494, 0.0, 0.0, 0.0, 0.0, 0.0, 1.7103878681118653E9, 0.0, 2024-03-13 20:44:28.111
71.0, -1493.112048459705, 1449.1588742304593, 484.37501271115616, 470.66827937355265, 0.01600000075995922, -0.19200000911951065, 1.0400000493973494, 0.0, 0.0, 0.0, 0.0, 0.0, 1.7103878681255329E9, 0.0, 2024-03-13 20:44:28.125
71.0, -1284.8557194271125, 1593.9304015152156, 715.9496179674752, 551.3341815178283, 0.01600000075995922, -0.19200000911951065, 1.0400000493973494, 0.0, 0.0, 0.0, 0.0, 0.0, 1.7103878681255329E9, 0.0, 2024-03-13 20:44:28.125
72.0, -1167.331233269535, 1488.4727025646716, 850.4457701239735, 476.248210107442, 0.01600000075995922, -0.19200000911951065, 1.0400000493973494, 0.0, 0.0, 0.0, 0.0, 0.0, 1.7103878681412492E9, 0.0, 2024-03-13 20:44:28.141
72.0, -1145.2508639311418, 1708.4274386586621, 835.6881248988211, 252.13657521270216, 0.01600000075995922, -0.19200000911951065, 1.0400000493973494, 0.0, 0.0, 0.0, 0.0, 0.0, 1.7103878681412492E9, 0.0, 2024-03-13 20:44:28.141
73.0, -1285.6672777174972, 1663.8758804365061, 697.7811839827336, 160.04340875381604, 0.01600000075995922, -0.19200000911951065, 1.0400000493973494, 0.0, 0.0, 0.0, 0.0, 0.0, 1.710387868141914E9, 0.0, 2024-03-13 20:44:28.141
73.0, -1517.77668866748, 1671.4136487971991, 503.1044316892512, 144.31712944013998, 0.01600000075995922, -0.19200000911951065, 1.0400000493973494, 0.0, 0.0, 0.0, 0.0, 0.0, 1.710387868141914E9, 0.0, 2024-03-13 20:44:28.141
74.0, -1747.5262227454223, 1496.6556036677212, 741.0536964200437, 32.27720656758174, 0.01600000075995922, -0.19200000911951065, 1.0400000493973494, 0.0, 0.0, 0.0, 0.0, 0.0, 1.710387868155484E9, 0.0, 2024-03-13 20:44:28.155
74.0, -1856.123567708768, 1615.285230262205, 612.062676998321, 125.06412446824834, 0.01600000075995922, -0.19200000911951065, 1.0400000493973494, 0.0, 0.0, 0.0, 0.0, 0.0, 1.710387868155484E9, 0.0, 2024-03-13 20:44:28.155
75.0, -1874.2845218935981, 1395.614726564847, 629.6140274903737, 354.0189298056066, 0.01600000075995922, -0.19200000911951065, 1.0400000493973494, 0.0, 0.0, 0.0, 0.0, 0.0, 1.7103878681709387E9, 0.0, 2024-03-13 20:44:28.170
75.0, -1735.034956893418, 1438.3262540088035, 770.9167975662276, 439.0511651481502, 0.01600000075995922, -0.19200000911951065, 1.0400000493973494, 0.0, 0.0, 0.0, 0.0, 0.0, 1.7103878681709387E9, 0.0, 2024-03-13 20:44:28.170
76.0, -1970.7178422510624, 1456.1618368974887, 965.8927418561652, 464.84899504249915, 0.01600000075995922, -0.19200000911951065, 1.0400000493973494, 0.0, 0.0, 0.0, 0.0, 0.0, 1.7103878681716523E9, 0.0, 2024-03-13 20:44:28.171
76.0, -1794.7069306364283, 1583.0753418938257, 1186.6702559404075, 538.9326732647605, 0.01600000075995922, -0.19200000911951065, 1.0400000493973494, 0.0, 0.0, 0.0, 0.0, 0.0, 1.7103878681716523E9, 0.0, 2024-03-13 20:44:28.171
77.0, -1649.2790509094484, 1493.2653843578883, 1335.105015231762, 468.1962055028416, 0.01600000075995922, -0.19200000911951065, 1.0400000493973494, 0.0, 0.0, 0.0, 0.0, 0.0, 1.710387868185307E9, 0.0, 2024-03-13 20:44:28.185
77.0, -1677.7733486718498, 1680.3090008418076, 1297.5938186761923, 713.1372132007964, 0.01600000075995922, -0.19200000911951065, 1.0400000493973494, 0.0, 0.0, 0.0, 0.0, 0.0, 1.710387868185307E9, 0.0, 2024-03-13 20:44:28.185
78.0, -1782.3951799822971, 1658.7353879474103, 1189.909009302035, 644.2015072675422, 0.01600000075995922, -0.19200000911951065, 1.0400000493973494, 0.0, 0.0, 0.0, 0.0, 0.0, 1.7103878682011256E9, 0.0, 2024-03-13 20:44:28.201
78.0, -2021.7599968463182, 1660.7829831731506, 995.142499409616, 627.8394449613988, 0.01600000075995922, -0.19200000911951065, 1.0400000493973494, 0.0, 0.0, 0.0, 0.0, 0.0, 1.7103878682011256E9, 0.0, 2024-03-13 20:44:28.201
79.0, -2206.604552156292, 1512.649285828229, 755.9908568430692, 533.2386755822226, 0.01600000075995922, -0.19200000911951065, 1.0400000493973494, 0.0, 0.0, 0.0, 0.0, 0.0, 1.7103878682016807E9, 0.0, 2024-03-13 20:44:28.201
79.0, -2333.5087074027397, 1623.4812210150994, 617.055443439167, 619.7500413572416, 0.01600000075995922, -0.19200000911951065, 1.0400000493973494, 0.0, 0.0, 0.0, 0.0, 0.0, 1.7103878682016807E9, 0.0, 2024-03-13 20:44:28.201
80.0, -2382.867907017935, 1383.6526565565728, 610.409641217906, 832.432541987393, 0.01600000075995922, -0.19200000911951065, 1.0400000493973494, 0.0, 0.0, 0.0, 0.0, 0.0, 1.7103878682152448E9, 0.0, 2024-03-13 20:44:28.215
80.0, -2228.554024996236, 1427.6170504856855, 754.4238387616351, 914.1213067695498, 0.01600000075995922, -0.19200000911951065, 1.0400000493973494, 0.0, 0.0, 0.0, 0.0, 0.0, 1.7103878682152448E9, 0.0, 2024-03-13 20:44:28.215
81.0, -1984.4021361889318, 1451.7094860002398, 973.8475090619177, 959.9238615268841, 0.01600000075995922, -0.19200000911951065, 1.0400000493973494, 0.0, 0.0, 0.0, 0.0, 0.0, 1.7103878682309134E9, 0.0, 2024-03-13 20:44:28.230
81.0, -1796.9508706098422, 1579.6327639846131, 1193.345977361314, 1030.5593519899994, 0.01600000075995922, -0.19200000911951065, 1.0400000493973494, 0.0, 0.0, 0.0, 0.0, 0.0, 1.7103878682309134E9, 0.0, 2024-03-13 20:44:28.230
82.0, -1663.9057996361516, 1493.8656383007765, 1342.1584665481932, 961.0794906131923, 0.01600000075995922, -0.19200000911951065, 1.0400000493973494, 0.0, 0.0, 0.0, 0.0, 0.0, 1.710387868231679E9, 0.0, 2024-03-13 20:44:28.231
82.0, -1624.3376581049524, 1707.922552164644, 1330.3815215877257, 737.371764913667, 0.01600000075995922, -0.19200000911951065, 1.0400000493973494, 0.0, 0.0, 0.0, 0.0, 0.0, 1.710387868231679E9, 0.0, 2024-03-13 20:44:28.231
83.0, -1784.0070768631995, 1663.685145538766, 1185.0882782591507, 645.5104722520337, 0.01600000075995922, -0.19200000911951065, 1.0400000493973494, 0.0, 0.0, 0.0, 0.0, 0.0, 1.7103878682455575E9, 0.0, 2024-03-13 20:44:28.245
83.0, -2020.0471226666123, 1665.276472969912, 981.7985363677144, 624.5558128003031, 0.01600000075995922, -0.19200000911951065, 1.0400000493973494, 0.0, 0.0, 0.0, 0.0, 0.0, 1.7103878682455575E9, 0.0, 2024-03-13 20:44:28.245
84.0, -2227.92572180368, 1500.530140021816, 739.5091177383438, 520.3921192344278, 0.01600000075995922, -0.19200000911951065, 1.0400000493973494, 0.0, 0.0, 0.0, 0.0, 0.0, 1.710387868260934E9, 0.0, 2024-03-13 20:44:28.260
84.0, -2346.1495692529716, 1613.0525099886581, 602.3613765132613, 611.3203068571165, 0.01600000075995922, -0.19200000911951065, 1.0400000493973494, 0.0, 0.0, 0.0, 0.0, 0.0, 1.710387868260934E9, 0.0, 2024-03-13 20:44:28.260
85.0, -2370.7394114616327, 1398.2887550331652, 620.32411600044, 840.4284480926581, 0.01600000075995922, -0.19200000911951065, 1.0400000493973494, 0.0, 0.0, 0.0, 0.0, 0.0, 1.7103878682619307E9, 0.0, 2024-03-13 20:44:28.261
85.0, -2227.1029438134283, 1426.5268696486019, 759.8317340975627, 916.3465472431853, 0.01600000075995922, -0.19200000911951065, 1.0400000493973494, 0.0, 0.0, 0.0, 0.0, 0.0, 1.7103878682619307E9, 0.0, 2024-03-13 20:44:28.261
86.0, -1990.0867841215804, 1441.1835375749506, 961.7152736056596, 949.9308488452807, 0.01600000075995922, -0.19200000911951065, 1.0400000493973494, 0.0, 0.0, 0.0, 0.0, 0.0, 1.71038786827524E9, 0.0, 2024-03-13 20:44:28.275
86.0, -1787.402906022966, 1590.4541645064019, 1198.6005367990583, 1040.380329273641, 0.01600000075995922, -0.19200000911951065, 1.0400000493973494, 0.0, 0.0, 0.0, 0.0, 0.0, 1.71038786827524E9, 0.0, 2024-03-13 20:44:28.275
87.0, -1637.84991664486, 1511.261782944668, 1354.0850075068884, 979.5882554939017, 0.01600000075995922, -0.19200000911951065, 1.0400000493973494, 0.0, 0.0, 0.0, 0.0, 0.0, 1.710387868291252E9, 0.0, 2024-03-13 20:44:28.291
87.0, -1643.10821598256, 1699.1132178190164, 1319.124422721099, 1217.9470392698422, 0.01600000075995922, -0.19200000911951065, 1.0400000493973494, 0.0, 0.0, 0.0, 0.0, 0.0, 1.710387868291252E9, 0.0, 2024-03-13 20:44:28.291
88.0, -1804.7448221175, 1648.3048069709912, 1168.139051659964, 1125.1171125196852, 0.01600000075995922, -0.19200000911951065, 1.0400000493973494, 0.0, 0.0, 0.0, 0.0, 0.0, 1.710387868291794E9, 0.0, 2024-03-13 20:44:28.291
88.0, -2014.007184238173, 1679.774195148144, 997.6332727801055, 1130.859728901647, 0.01600000075995922, -0.19200000911951065, 1.0400000493973494, 0.0, 0.0, 0.0, 0.0, 0.0, 1.710387868291794E9, 0.0, 2024-03-13 20:44:28.291
89.0, -2229.4553408855572, 1496.2498245225288, 1236.4352347007953, 1012.8284863000736, 0.01600000075995922, -0.19200000911951065, 1.0400000493973494, 0.0, 0.0, 0.0, 0.0, 0.0, 1.7103878683052816E9, 0.0, 2024-03-13 20:44:28.305
89.0, -2360.5145249827765, 1609.0040682866238, 1103.640737024136, 1101.093865154311, 0.01600000075995922, -0.19200000911951065, 1.0400000493973494, 0.0, 0.0, 0.0, 0.0, 0.0, 1.7103878683052816E9, 0.0, 2024-03-13 20:44:28.305
90.0, -2363.786937444005, 1403.9191744164564, 1119.2660390390083, 1337.8351421994157, 0.01600000075995922, -0.19200000911951065, 1.0400000493973494, 0.0, 0.0, 0.0, 0.0, 0.0, 1.7103878683209832E9, 0.0, 2024-03-13 20:44:28.320
90.0, -2209.910623717122, 1436.461913880892, 1259.1177279320545, 1411.9580893712118, 0.01600000075995922, -0.19200000911951065, 1.0400000493973494, 0.0, 0.0, 0.0, 0.0, 0.0, 1.7103878683209832E9, 0.0, 2024-03-13 20:44:28.320
91.0, -1994.6232827678323, 1433.991709960159, 1448.9288703831844, 1435.0482316976413, 0.01600000075995922, -0.19200000911951065, 1.0400000493973494, 0.0, 0.0, 0.0, 0.0, 0.0, 1.7103878683216913E9, 0.0, 2024-03-13 20:44:28.321
91.0, -1803.3610591338947, 1575.2365115866996, 1673.2405899255536, 1518.728493206203, 0.01600000075995922, -0.19200000911951065, 1.0400000493973494, 0.0, 0.0, 0.0, 0.0, 0.0, 1.7103878683216913E9, 0.0, 2024-03-13 20:44:28.321
92.0, -1647.016411436256, 1501.3809672617353, 1843.2396123614162, 1457.1173813361675, 0.01600000075995922, -0.19200000911951065, 1.0400000493973494, 0.0, 0.0, 0.0, 0.0, 0.0, 1.7103878683354309E9, 0.0, 2024-03-13 20:44:28.335
92.0, -1650.3636218965985, 1696.0764190549962, 1808.2229290762916, 1212.0249076900072, 0.01600000075995922, -0.19200000911951065, 1.0400000493973494, 0.0, 0.0, 0.0, 0.0, 0.0, 1.7103878683354309E9, 0.0, 2024-03-13 20:44:28.335
93.0, -1774.122521280311, 1671.0097396019846, 1681.0719404327683, 1139.8616680949926, 0.01600000075995922, -0.19200000911951065, 1.0400000493973494, 0.0, 0.0, 0.0, 0.0, 0.0, 1.7103878683510268E9, 0.0, 2024-03-13 20:44:28.351
93.0, -2009.7175189889967, 1669.7606130167842, 1477.976673339028, 1117.7887785565108, 0.01600000075995922, -0.19200000911951065, 1.0400000493973494, 0.0, 0.0, 0.0, 0.0, 0.0, 1.7103878683510268E9, 0.0, 2024-03-13 20:44:28.351
94.0, -2216.795779535547, 1508.9636144218966, 1244.2329261084087, 1018.9955813270062, 0.01600000075995922, -0.19200000911951065, 1.0400000493973494, 0.0, 0.0, 0.0, 0.0, 0.0, 1.7103878683517756E9, 0.0, 2024-03-13 20:44:28.351
94.0, -2339.6982418294065, 1611.6014288058504, 1101.310779351741, 1103.977328020148, 0.01600000075995922, -0.19200000911951065, 1.0400000493973494, 0.0, 0.0, 0.0, 0.0, 0.0, 1.7103878683517756E9, 0.0, 2024-03-13 20:44:28.351
95.0, -2373.304982831236, 1395.9139185613021, 1112.4781206194311, 1335.890394222457, 0.01600000075995922, -0.19200000911951065, 1.0400000493973494, 0.0, 0.0, 0.0, 0.0, 0.0, 1.7103878683819764E9, 0.0, 2024-03-13 20:44:28.381
95.0, -2218.699388612993, 1431.6804517875426, 1262.7566505889408, 1419.542606481351, 0.01600000075995922, -0.19200000911951065, 1.0400000493973494, 0.0, 0.0, 0.0, 0.0, 0.0, 1.7103878683819764E9, 0.0, 2024-03-13 20:44:28.381
96.0, -2000.910054593347, 1429.7076545609161, 1449.3701785779558, 1431.241013542749, 0.01600000075995922, -0.19200000911951065, 1.0400000493973494, 0.0, 0.0, 0.0, 0.0, 0.0, 1.7103878683824656E9, 0.0, 2024-03-13 20:44:28.382
96.0, -1801.296634358354, 1572.5718328682706, 1676.8271539830603, 1519.2932180995122, 0.01600000075995922, -0.19200000911951065, 1.0400000493973494, 0.0, 0.0, 0.0, 0.0, 0.0, 1.7103878683824656E9, 0.0, 2024-03-13 20:44:28.382
97.0, -1653.4602590599097, 1493.2261154083535, 1839.1145027102903, 1456.8144494397566, 0.01600000075995922, -0.19200000911951065, 1.0400000493973494, 0.0, 0.0, 0.0, 0.0, 0.0, 1.7103878683831327E9, 0.0, 2024-03-13 20:44:28.383
97.0, -1640.4902860135771, 1688.2544182976708, 1800.5673538669944, 1697.8098626844585, 0.01600000075995922, -0.19200000911951065, 1.0400000493973494, 0.0, 0.0, 0.0, 0.0, 0.0, 1.7103878683831327E9, 0.0, 2024-03-13 20:44:28.383
98.0, -1792.6537255607545, 1654.7692240444012, 1663.382213642355, 1616.8840374932624, 0.01600000075995922, -0.19200000911951065, 1.0400000493973494, 0.0, 0.0, 0.0, 0.0, 0.0, 1.710387868395625E9, 0.0, 2024-03-13 20:44:28.395
98.0, -2013.345221946016, 1664.999720373191, 1475.9309480632655, 1611.0722329621203, 0.01600000075995922, -0.19200000911951065, 1.0400000493973494, 0.0, 0.0, 0.0, 0.0, 0.0, 1.710387868395625E9, 0.0, 2024-03-13 20:44:28.395
99.0, -2222.69360176567, 1498.611571344547, 1239.0456848698668, 1504.3205286269076, 0.01600000075995922, -0.19200000911951065, 1.0400000493973494, 0.0, 0.0, 0.0, 0.0, 0.0, 1.7103878684112175E9, 0.0, 2024-03-13 20:44:28.411
99.0, -2357.724559615832, 1593.769585817121, 1081.8894788818434, 1577.027923665475, 0.01600000075995922, -0.19200000911951065, 1.0400000493973494, 0.0, 0.0, 0.0, 0.0, 0.0, 1.7103878684112175E9, 0.0, 2024-03-13 20:44:28.411
100.0, -2364.7256523328833, 1397.4173583434895, 1117.182914763689, 1336.5373969147913, 0.01600000075995922, -0.19200000911951065, 1.0400000493973494, 0.0, 0.0, 0.0, 0.0, 0.0, 1.7103878684119215E9, 0.0, 2024-03-13 20:44:28.411
100.0, -2232.8997887447476, 1420.0418831254356, 1263.6691861781292, 1411.13531138096, 0.01600000075995922, -0.19200000911951065, 1.0400000493973494, 0.0, 0.0, 0.0, 0.0, 0.0, 1.7103878684119215E9, 0.0, 2024-03-13 20:44:28.411
0.0, -475.50210006628186, 50.137098805978894, -268.43505921959877, -67.18917265394703, 0.01600000075995922, -0.19200000911951065, 1.0400000493973494, 0.0, 0.0, 0.0, 0.0, 0.0, 1.7103878684266896E9, 0.0, 2024-03-13 20:44:28.426
1.0, -264.95695226080716, 202.97933019511402, -30.053836043924093, 31.57036547595635, 0.01600000075995922, -0.19200000911951065, 1.0400000493973494, 0.0, 0.0, 0.0, 0.0, 0.0, 1.7103878684268413E9, 0.0, 2024-03-13 20:44:28.426
1.0, -120.77445921907201, 133.2077566217631, 143.77484394656494, -20.806933403480798, 0.01600000075995922, -0.19200000911951065, 1.0400000493973494, 0.0, 0.0, 0.0, 0.0, 0.0, 1.7103878684268413E9, 0.0, 2024-03-13 20:44:28.426
2.0, -114.30069239577278, 323.72948006447405, 106.10283169290051, 220.74572493461892, 0.01600000075995922, -0.19200000911951065, 1.0400000493973494, 0.0, 0.0, 0.0, 0.0, 0.0, 1.7103878684404452E9, 0.0, 2024-03-13 20:44:28.440
2.0, -270.2863096976653, 282.663508601021, -35.95539817400277, 131.26674854476005, 0.01600000075995922, -0.19200000911951065, 1.0400000493973494, 0.0, 0.0, 0.0, 0.0, 0.0, 1.7103878684404452E9, 0.0, 2024-03-13 20:44:28.440
3.0, -480.90625550225377, 302.35221191775054, -220.1005921922624, 130.10737955849618, 0.01600000075995922, -0.19200000911951065, 1.0400000493973494, 0.0, 0.0, 0.0, 0.0, 0.0, 1.7103878684561784E9, 0.0, 2024-03-13 20:44:28.456
3.0, -713.9843005407602, 127.54554808884859, 22.459969183895737, 13.848849535919726, 0.01600000075995922, -0.19200000911951065, 1.0400000493973494, 0.0, 0.0, 0.0, 0.0, 0.0, 1.7103878684561784E9, 0.0, 2024-03-13 20:44:28.456
4.0, -837.5599448266439, 217.886571418494, -137.35156577266753, 86.05509798042476, 0.01600000075995922, -0.19200000911951065, 1.0400000493973494, 0.0, 0.0, 0.0, 0.0, 0.0, 1.7103878684568012E9, 0.0, 2024-03-13 20:44:28.456
4.0, -846.5020456206985, 22.18508653715253, -104.30580976419151, -154.09509787429124, 0.01600000075995922, -0.19200000911951065, 1.0400000493973494, 0.0, 0.0, 0.0, 0.0, 0.0, 1.7103878684568012E9, 0.0, 2024-03-13 20:44:28.456
5.0, -702.962815371342, 48.310157677624375, 46.19337430270389, -81.29233538685367, 0.01600000075995922, -0.19200000911951065, 1.0400000493973494, 0.0, 0.0, 0.0, 0.0, 0.0, 1.7103878684702528E9, 0.0, 2024-03-13 20:44:28.470
5.0, -477.28229244519025, 45.716537058353424, 231.1314271115698, -59.63083484349772, 0.01600000075995922, -0.19200000911951065, 1.0400000493973494, 0.0, 0.0, 0.0, 0.0, 0.0, 1.7103878684702528E9, 0.0, 2024-03-13 20:44:28.470
6.0, -263.7564443750307, 206.20312395691872, 472.52326975157484, 38.635036492254585, 0.01600000075995922, -0.19200000911951065, 1.0400000493973494, 0.0, 0.0, 0.0, 0.0, 0.0, 1.710387868485955E9, 0.0, 2024-03-13 20:44:28.485
6.0, -128.9311810224317, 114.43719874415547, 619.4545892607421, -41.058491663541645, 0.01600000075995922, -0.19200000911951065, 1.0400000493973494, 0.0, 0.0, 0.0, 0.0, 0.0, 1.710387868485955E9, 0.0, 2024-03-13 20:44:28.485
7.0, -113.18620220897719, 315.7073946595192, 597.7070710184053, -272.8032623678446, 0.01600000075995922, -0.19200000911951065, 1.0400000493973494, 0.0, 0.0, 0.0, 0.0, 0.0, 1.7103878684866323E9, 0.0, 2024-03-13 20:44:28.486
7.0, -263.18049978185445, 280.86835662228987, 462.2759438729845, -352.83525146963075, 0.01600000075995922, -0.19200000911951065, 1.0400000493973494, 0.0, 0.0, 0.0, 0.0, 0.0, 1.7103878684866323E9, 0.0, 2024-03-13 20:44:28.486
8.0, -490.0428310940042, 295.0220080045983, 271.0025005391799, -362.16630185907707, 0.01600000075995922, -0.19200000911951065, 1.0400000493973494, 0.0, 0.0, 0.0, 0.0, 0.0, 1.7103878685002344E9, 0.0, 2024-03-13 20:44:28.500
8.0, -704.5073940530419, 122.10773355327547, 513.7837160127237, -475.96023781085387, 0.01600000075995922, -0.19200000911951065, 1.0400000493973494, 0.0, 0.0, 0.0, 0.0, 0.0, 1.7103878685002344E9, 0.0, 2024-03-13 20:44:28.500
9.0, -800.3068013680167, 249.98613273818046, 396.9436315470375, -365.68928761733696, 0.01600000075995922, -0.19200000911951065, 1.0400000493973494, 0.0, 0.0, 0.0, 0.0, 0.0, 1.7103878685158908E9, 0.0, 2024-03-13 20:44:28.515
9.0, -852.9982518437319, 24.16723351366818, 388.6784526449628, -148.7021621381864, 0.01600000075995922, -0.19200000911951065, 1.0400000493973494, 0.0, 0.0, 0.0, 0.0, 0.0, 1.7103878685158908E9, 0.0, 2024-03-13 20:44:28.515
10.0, -713.950641441159, 39.63358978042379, 525.1380522781983, -90.01004218356684, 0.01600000075995922, -0.19200000911951065, 1.0400000493973494, 0.0, 0.0, 0.0, 0.0, 0.0, 1.7103878685166163E9, 0.0, 2024-03-13 20:44:28.516
10.0, -474.7092412756756, 53.66195451421663, 727.7994909770787, -53.81529041239992, 0.01600000075995922, -0.19200000911951065, 1.0400000493973494, 0.0, 0.0, 0.0, 0.0, 0.0, 1.7103878685166163E9, 0.0, 2024-03-13 20:44:28.516
11.0, -260.32321621570736, 207.85054988740012, 963.929294379428, 44.94050781754777, 0.01600000075995922, -0.19200000911951065, 1.0400000493973494, 0.0, 0.0, 0.0, 0.0, 0.0, 1.710387868530364E9, 0.0, 2024-03-13 20:44:28.530
11.0, -117.94335495261475, 130.06063080905005, 1120.969563468825, -22.052320088725537, 0.01600000075995922, -0.19200000911951065, 1.0400000493973494, 0.0, 0.0, 0.0, 0.0, 0.0, 1.710387868530364E9, 0.0, 2024-03-13 20:44:28.530
12.0, -126.33195055322722, 310.45096527179703, 1073.7346270284615, 200.3370908764191, 0.01600000075995922, -0.19200000911951065, 1.0400000493973494, 0.0, 0.0, 0.0, 0.0, 0.0, 1.710387868545884E9, 0.0, 2024-03-13 20:44:28.545
12.0, -265.6002150531858, 284.63256592769176, 942.5146272331476, 129.97648306004703, 0.01600000075995922, -0.19200000911951065, 1.0400000493973494, 0.0, 0.0, 0.0, 0.0, 0.0, 1.710387868545884E9, 0.0, 2024-03-13 20:44:28.545
13.0, -471.42934901453555, 304.69899913994595, 764.2036771457642, 133.53499786788598, 0.01600000075995922, -0.19200000911951065, 1.0400000493973494, 0.0, 0.0, 0.0, 0.0, 0.0, 1.7103878685466688E9, 0.0, 2024-03-13 20:44:28.546
13.0, -701.9829615829512, 127.28936494188383, 1008.2340192045085, 13.132658694405109, 0.01600000075995922, -0.19200000911951065, 1.0400000493973494, 0.0, 0.0, 0.0, 0.0, 0.0, 1.7103878685466688E9, 0.0, 2024-03-13 20:44:28.546
14.0, -829.8744504177012, 235.78760255640373, 867.3837770232931, 99.35231227288023, 0.01600000075995922, -0.19200000911951065, 1.0400000493973494, 0.0, 0.0, 0.0, 0.0, 0.0, 1.7103878685604348E9, 0.0, 2024-03-13 20:44:28.560
14.0, -848.6861471948214, 24.060646364931017, 880.3238308699802, 338.84615568537265, 0.01600000075995922, -0.19200000911951065, 1.0400000493973494, 0.0, 0.0, 0.0, 0.0, 0.0, 1.7103878685604348E9, 0.0, 2024-03-13 20:44:28.560
15.0, -709.6422766922042, 43.9101653797552, 1012.6433612522669, 399.64009941508994, 0.01600000075995922, -0.19200000911951065, 1.0400000493973494, 0.0, 0.0, 0.0, 0.0, 0.0, 1.7103878685762258E9, 0.0, 2024-03-13 20:44:28.576
15.0, -468.8600377449766, 52.80738737434149, 1204.5413678786717, 427.5846318840049, 0.01600000075995922, -0.19200000911951065, 1.0400000493973494, 0.0, 0.0, 0.0, 0.0, 0.0, 1.7103878685762258E9, 0.0, 2024-03-13 20:44:28.576
16.0, -274.40393954887986, 208.33112703170627, 1443.191863851156, 528.9957590824924, 0.01600000075995922, -0.19200000911951065, 1.0400000493973494, 0.0, 0.0, 0.0, 0.0, 0.0, 1.710387868576852E9, 0.0, 2024-03-13 20:44:28.576
16.0, -127.64091553771868, 126.42731800209731, 1612.293310297653, 465.58949523372576, 0.01600000075995922, -0.19200000911951065, 1.0400000493973494, 0.0, 0.0, 0.0, 0.0, 0.0, 1.710387868576852E9, 0.0, 2024-03-13 20:44:28.576
17.0, -128.7067870250903, 311.4850476095453, 1567.6912634260952, 694.5573902209289, 0.01600000075995922, -0.19200000911951065, 1.0400000493973494, 0.0, 0.0, 0.0, 0.0, 0.0, 1.7103878685906255E9, 0.0, 2024-03-13 20:44:28.590
17.0, -268.85392801463604, 277.50618656212464, 1429.4664310137741, 617.5921190828085, 0.01600000075995922, -0.19200000911951065, 1.0400000493973494, 0.0, 0.0, 0.0, 0.0, 0.0, 1.7103878685906255E9, 0.0, 2024-03-13 20:44:28.590
18.0, -472.3381447037682, 309.185009136796, 1254.3381357886828, 623.2374980659224, 0.01600000075995922, -0.19200000911951065, 1.0400000493973494, 0.0, 0.0, 0.0, 0.0, 0.0, 1.7103878686060324E9, 0.0, 2024-03-13 20:44:28.606
18.0, -713.5579519458115, 106.20941884163767, 1478.2104170862585, 480.2199838603847, 0.01600000075995922, -0.19200000911951065, 1.0400000493973494, 0.0, 0.0, 0.0, 0.0, 0.0, 1.7103878686060324E9, 0.0, 2024-03-13 20:44:28.606
19.0, -832.095950991381, 224.26684074290097, 1336.6346343136393, 579.2787139867432, 0.01600000075995922, -0.19200000911951065, 1.0400000493973494, 0.0, 0.0, 0.0, 0.0, 0.0, 1.7103878686067898E9, 0.0, 2024-03-13 20:44:28.606
19.0, -855.4067474151962, 26.17181988991797, 1364.6165657821111, 821.1960125705227, 0.01600000075995922, -0.19200000911951065, 1.0400000493973494, 0.0, 0.0, 0.0, 0.0, 0.0, 1.7103878686067898E9, 0.0, 2024-03-13 20:44:28.606
20.0, -701.5827922876924, 43.811058030929416, 1494.7220753906295, 882.7491559912451, 0.01600000075995922, -0.19200000911951065, 1.0400000493973494, 0.0, 0.0, 0.0, 0.0, 0.0, 1.710387868620282E9, 0.0, 2024-03-13 20:44:28.620
20.0, -466.1186910774559, 50.82711034780368, 1695.8651147074997, 912.0101332445629, 0.01600000075995922, -0.19200000911951065, 1.0400000493973494, 0.0, 0.0, 0.0, 0.0, 0.0, 1.710387868620282E9, 0.0, 2024-03-13 20:44:28.620
21.0, -260.7907037101686, 215.81279689306393, 1930.2446449305862, 1015.7736575151794, 0.01600000075995922, -0.20800000987946987, 1.0400000493973494, 0.0, 0.0, 0.0, 0.0, 0.0, 1.7103878686523542E9, 0.0, 2024-03-13 20:44:28.652
21.0, -104.40865701297298, 137.14774122508243, 2110.3189578470774, 959.0917337867431, 0.01600000075995922, -0.20800000987946987, 1.0400000493973494, 0.0, 0.0, 0.0, 0.0, 0.0, 1.7103878686523542E9, 0.0, 2024-03-13 20:44:28.652
22.0, -129.8212772118859, 302.76921076280996, 2057.3582345745526, 1178.6762197851203, 0.01600000075995922, -0.20800000987946987, 1.0400000493973494, 0.0, 0.0, 0.0, 0.0, 0.0, 1.7103878686531615E9, 0.0, 2024-03-13 20:44:28.653
22.0, -253.20618660002947, 296.7049629846588, 1931.8453221116215, 1117.8673164555803, 0.01600000075995922, -0.20800000987946987, 1.0400000493973494, 0.0, 0.0, 0.0, 0.0, 0.0, 1.7103878686531615E9, 0.0, 2024-03-13 20:44:28.653
23.0, -475.79381226282567, 310.9072330663912, 1738.6121712010354, 1111.1915950346738, 0.01600000075995922, -0.20800000987946987, 1.0400000493973494, 0.0, 0.0, 0.0, 0.0, 0.0, 1.7103878686539197E9, 0.0, 2024-03-13 20:44:28.653
23.0, -696.799460244365, 128.94240072229877, 1495.1484239855781, 987.7000984977931, 0.01600000075995922, -0.20800000987946987, 1.0400000493973494, 0.0, 0.0, 0.0, 0.0, 0.0, 1.7103878686539197E9, 0.0, 2024-03-13 20:44:28.653
24.0, -822.1964358086698, 232.48153099557385, 1351.6615523356013, 1079.0321953156963, 0.01600000075995922, -0.20800000987946987, 1.0400000493973494, 0.0, 0.0, 0.0, 0.0, 0.0, 1.7103878686546335E9, 0.0, 2024-03-13 20:44:28.654
24.0, -834.7737193596549, 39.73830697918311, 1377.994187923614, 839.1924111573026, 0.01600000075995922, -0.20800000987946987, 1.0400000493973494, 0.0, 0.0, 0.0, 0.0, 0.0, 1.7103878686546335E9, 0.0, 2024-03-13 20:44:28.654
25.0, -694.2338888747618, 62.32169286161661, 1521.6792742712423, 908.8312182822265, 0.01600000075995922, -0.20800000987946987, 1.0400000493973494, 0.0, 0.0, 0.0, 0.0, 0.0, 1.7103878686653566E9, 0.0, 2024-03-13 20:44:28.665
25.0, -484.2759053623304, 42.72274714382365, 1690.4871385712177, 914.1007373197936, 0.01600000075995922, -0.20800000987946987, 1.0400000493973494, 0.0, 0.0, 0.0, 0.0, 0.0, 1.7103878686653566E9, 0.0, 2024-03-13 20:44:28.665
26.0, -248.29569795820862, 226.68842596421018, 1455.6532105035149, 1035.520329281222, 0.01600000075995922, -0.20800000987946987, 1.0400000493973494, 0.0, 0.0, 0.0, 0.0, 0.0, 1.7103878686802316E9, 0.0, 2024-03-13 20:44:28.680
26.0, -115.75551347853616, 136.86724872840568, 1617.6712864339352, 961.1972974617966, 0.01600000075995922, -0.20800000987946987, 1.0400000493973494, 0.0, 0.0, 0.0, 0.0, 0.0, 1.7103878686802316E9, 0.0, 2024-03-13 20:44:28.680
27.0, -120.67348192026839, 307.4141665077768, 1569.9763422990218, 1184.0616757213138, 0.01600000075995922, -0.20800000987946987, 1.0400000493973494, 0.0, 0.0, 0.0, 0.0, 0.0, 1.7103878686959908E9, 0.0, 2024-03-13 20:44:28.695
27.0, -250.8949284274131, 297.56140007451177, 1439.201390598435, 1121.3716027140617, 0.01600000075995922, -0.20800000987946987, 1.0400000493973494, 0.0, 0.0, 0.0, 0.0, 0.0, 1.7103878686959908E9, 0.0, 2024-03-13 20:44:28.695
28.0, -481.639275893569, 312.96043814206496, 1254.3456155885942, 1119.5502714356408, 0.01600000075995922, -0.20800000987946987, 1.0400000493973494, 0.0, 0.0, 0.0, 0.0, 0.0, 1.7103878686966689E9, 0.0, 2024-03-13 20:44:28.696
28.0, -702.2896333793178, 121.17462851433083, 1498.3759576473385, 991.5147964525968, 0.01600000075995922, -0.20800000987946987, 1.0400000493973494, 0.0, 0.0, 0.0, 0.0, 0.0, 1.7103878686966689E9, 0.0, 2024-03-13 20:44:28.696
29.0, -823.2174284965731, 233.03877608897164, 1344.6006212192588, 1080.4084784993902, 0.01600000075995922, -0.20800000987946987, 1.0400000493973494, 0.0, 0.0, 0.0, 0.0, 0.0, 1.7103878687102864E9, 0.0, 2024-03-13 20:44:28.710
29.0, -824.5488328807987, 44.248626325745136, 1377.680036327336, 842.6181595167145, 0.01600000075995922, -0.20800000987946987, 1.0400000493973494, 0.0, 0.0, 0.0, 0.0, 0.0, 1.7103878687102864E9, 0.0, 2024-03-13 20:44:28.710
30.0, -706.8784906249493, 43.16779523855075, 1507.2843993417919, 890.1354584037326, 0.01600000075995922, -0.20800000987946987, 1.0400000493973494, 0.0, 0.0, 0.0, 0.0, 0.0, 1.7103878687259562E9, 0.0, 2024-03-13 20:44:28.725
30.0, -485.35299654956907, 33.71519810054451, 1693.0901089403778, 905.2296946248971, 0.01600000075995922, -0.20800000987946987, 1.0400000493973494, 0.0, 0.0, 0.0, 0.0, 0.0, 1.7103878687259562E9, 0.0, 2024-03-13 20:44:28.725
31.0, -256.456159661524, 229.6635163789615, 1460.440282446798, 1034.5591749926098, 0.01600000075995922, -0.20800000987946987, 1.0400000493973494, 0.0, 0.0, 0.0, 0.0, 0.0, 1.7103878687267048E9, 0.0, 2024-03-13 20:44:28.726
31.0, -103.98230841802433, 138.44361655972898, 1611.305976709351, 956.6233998159878, 0.01600000075995922, -0.20800000987946987, 1.0400000493973494, 0.0, 0.0, 0.0, 0.0, 0.0, 1.7103878687267048E9, 0.0, 2024-03-13 20:44:28.726
32.0, -125.2623391658999, 303.42556320503354, 1560.3685393128544, 1172.16879386222, 0.01600000075995922, -0.20800000987946987, 1.0400000493973494, 0.0, 0.0, 0.0, 0.0, 0.0, 1.7103878687406807E9, 0.0, 2024-03-13 20:44:28.740
32.0, -261.2058326052502, 287.4094416447915, 1433.109093570616, 1111.3187516331673, 0.01600000075995922, -0.20800000987946987, 1.0400000493973494, 0.0, 0.0, 0.0, 0.0, 0.0, 1.7103878687406807E9, 0.0, 2024-03-13 20:44:28.740
33.0, -449.8463863702491, 338.73769858665764, 1267.9326721276157, 1132.211702735629, 0.01600000075995922, -0.20800000987946987, 1.0400000493973494, 0.0, 0.0, 0.0, 0.0, 0.0, 1.71038786875593E9, 0.0, 2024-03-13 20:44:28.755
33.0, -222.24542481685057, 116.63999981805682, 1491.7413751259446, 982.3688711109571, 0.01600000075995922, -0.20800000987946987, 1.0400000493973494, 0.0, 0.0, 0.0, 0.0, 0.0, 1.71038786875593E9, 0.0, 2024-03-13 20:44:28.755
34.0, -337.129541605711, 226.22654831968248, 1346.4817908969708, 1070.821244962979, 0.01600000075995922, -0.20800000987946987, 1.0400000493973494, 0.0, 0.0, 0.0, 0.0, 0.0, 1.7103878687567284E9, 0.0, 2024-03-13 20:44:28.756
34.0, -351.1242472399026, 37.48127735592425, 1371.2212291038595, 834.2650929656811, 0.01600000075995922, -0.20800000987946987, 1.0400000493973494, 0.0, 0.0, 0.0, 0.0, 0.0, 1.7103878687567284E9, 0.0, 2024-03-13 20:44:28.756
35.0, -204.1929277307354, 60.09084253804758, 1512.3332642819732, 900.8184826271608, 0.01600000075995922, -0.20800000987946987, 1.0400000493973494, 0.0, 0.0, 0.0, 0.0, 0.0, 1.710387868770268E9, 0.0, 2024-03-13 20:44:28.770
35.0, 25.5117275477387, 63.150080701801926, 1710.4993432341143, 924.383592247963, 0.01600000075995922, -0.20800000987946987, 1.0400000493973494, 0.0, 0.0, 0.0, 0.0, 0.0, 1.710387868770268E9, 0.0, 2024-03-13 20:44:28.770
36.0, 226.7894032630138, 215.03489770228043, 1935.6114013670012, 1022.6195443840697, 0.01600000075995922, -0.20800000987946987, 1.0400000493973494, 0.0, 0.0, 0.0, 0.0, 0.0, 1.7103878687859488E9, 0.0, 2024-03-13 20:44:28.785
36.0, 357.37735996581614, 121.1895881141536, 2087.853378813248, 939.6311643673107, 0.01600000075995922, -0.20800000987946987, 1.0400000493973494, 0.0, 0.0, 0.0, 0.0, 0.0, 1.7103878687859488E9, 0.0, 2024-03-13 20:44:28.785
37.0, 361.8839394124225, 305.506817530375, 2049.6652603656985, 1171.9836688144132, 0.01600000075995922, -0.20800000987946987, 1.0400000493973494, 0.0, 0.0, 0.0, 0.0, 0.0, 1.7103878687870145E9, 0.0, 2024-03-13 20:44:28.787
37.0, 239.11611351696774, 293.2118964260444, 1923.8606357062235, 1115.4868701337837, 0.01600000075995922, -0.20800000987946987, 1.0400000493973494, 0.0, 0.0, 0.0, 0.0, 0.0, 1.7103878687870145E9, 0.0, 2024-03-13 20:44:28.787
38.0, 16.569626753684133, 317.88962628366426, 1752.0496317418292, 1120.9789132187143, 0.01600000075995922, -0.20800000987946987, 1.0400000493973494, 0.0, 0.0, 0.0, 0.0, 0.0, 1.7103878688002477E9, 0.0, 2024-03-13 20:44:28.800
38.0, -198.01835290389135, 125.75600596005097, 1980.2003585887142, 985.0298099294305, 0.01600000075995922, -0.20800000987946987, 1.0400000493973494, 0.0, 0.0, 0.0, 0.0, 0.0, 1.7103878688002477E9, 0.0, 2024-03-13 20:44:28.800
39.0, -331.07090367749333, 233.8316348795779, 1835.8570498488843, 1079.5744808092713, 0.01600000075995922, -0.20800000987946987, 1.0400000493973494, 0.0, 0.0, 0.0, 0.0, 0.0, 1.7103878688159916E9, 0.0, 2024-03-13 20:44:28.815
39.0, -334.32461663894355, 52.83169672405347, 1874.6585118891671, 848.2878478495404, 0.01600000075995922, -0.20800000987946987, 1.0400000493973494, 0.0, 0.0, 0.0, 0.0, 0.0, 1.7103878688159916E9, 0.0, 2024-03-13 20:44:28.815
40.0, -197.0758981150575, 65.43328962475061, 2006.0655066822655, 904.0740655385889, 0.01600000075995922, -0.20800000987946987, 1.0400000493973494, 0.0, 0.0, 0.0, 0.0, 0.0, 1.7103878688166878E9, 0.0, 2024-03-13 20:44:28.816
40.0, 15.447656766977161, 45.33319731289521, 2176.54884616239, 910.0579054676928, 0.01600000075995922, -0.20800000987946987, 1.0400000493973494, 0.0, 0.0, 0.0, 0.0, 0.0, 1.7103878688166878E9, 0.0, 2024-03-13 20:44:28.816
41.0, 238.461631024722, 234.92742556659505, 1949.5761878015473, 1038.2803754485212, 0.01600000075995922, -0.20800000987946987, 1.0400000493973494, 0.0, 0.0, 0.0, 0.0, 0.0, 1.710387868830464E9, 0.0, 2024-03-13 20:44:28.830
41.0, 391.50020716153085, 150.80959576321766, 2115.629615784157, 969.2044232669286, 0.01600000075995922, -0.20800000987946987, 1.0400000493973494, 0.0, 0.0, 0.0, 0.0, 0.0, 1.710387868830464E9, 0.0, 2024-03-13 20:44:28.830
42.0, 370.2052168138325, 317.4183988892473, 2059.680712447036, 1186.4926106925122, 0.01600000075995922, -0.20800000987946987, 1.0400000493973494, 0.0, 0.0, 0.0, 0.0, 0.0, 1.7103878688459997E9, 0.0, 2024-03-13 20:44:28.845
42.0, 242.89715237217024, 308.6202842434868, 1934.0406433856115, 1132.187393385917, 0.01600000075995922, -0.20800000987946987, 1.0400000493973494, 0.0, 0.0, 0.0, 0.0, 0.0, 1.7103878688459997E9, 0.0, 2024-03-13 20:44:28.845
43.0, 15.369118867907673, 324.8832392008044, 1755.5090392008424, 1131.1177819985896, 0.01600000075995922, -0.20800000987946987, 1.0400000493973494, 0.0, 0.0, 0.0, 0.0, 0.0, 1.7103878688468993E9, 0.0, 2024-03-13 20:44:28.846
43.0, -212.17387423617765, 117.06073856307194, 1984.508723337669, 989.3568741781637, 0.01600000075995922, -0.20800000987946987, 1.0400000493973494, 0.0, 0.0, 0.0, 0.0, 0.0, 1.7103878688468993E9, 0.0, 2024-03-13 20:44:28.846
44.0, -344.29892982076854, 240.70183109818026, 1844.1633676504716, 1089.541314191185, 0.01600000075995922, -0.20800000987946987, 1.0400000493973494, 0.0, 0.0, 0.0, 0.0, 0.0, 1.7103878688602808E9, 0.0, 2024-03-13 20:44:28.860
44.0, -344.59064201731235, 48.43731427611783, 1875.0437215846032, 856.0406604576856, 0.01600000075995922, -0.20800000987946987, 1.0400000493973494, 0.0, 0.0, 0.0, 0.0, 0.0, 1.7103878688602808E9, 0.0, 2024-03-13 20:44:28.860
45.0, -190.20196199649945, 75.21312800887972, 2022.509846787434, 926.0534575781785, 0.01600000075995922, -0.20800000987946987, 1.0400000493973494, 0.0, 0.0, 0.0, 0.0, 0.0, 1.710387868876286E9, 0.0, 2024-03-13 20:44:28.876
45.0, 13.364532491657883, 43.57918423367664, 2181.0404660091735, 913.6313798753545, 0.01600000075995922, -0.20800000987946987, 1.0400000493973494, 0.0, 0.0, 0.0, 0.0, 0.0, 1.710387868876286E9, 0.0, 2024-03-13 20:44:28.876
46.0, 248.14423201000318, 237.82958793221042, 1945.1743255537003, 1042.8374435445294, 0.01600000075995922, -0.20800000987946987, 1.0400000493973494, 0.0, 0.0, 0.0, 0.0, 0.0, 1.7103878688768373E9, 0.0, 2024-03-13 20:44:28.876
46.0, 375.30270045343786, 143.78232374647632, 2108.8454372645356, 958.670995041728, 0.01600000075995922, -0.20800000987946987, 1.0400000493973494, 0.0, 0.0, 0.0, 0.0, 0.0, 1.7103878688768373E9, 0.0, 2024-03-13 20:44:28.876
47.0, 366.86174625344574, 310.2041318747215, 2052.589862131048, 1177.728155146353, 0.01600000075995922, -0.20800000987946987, 1.0400000493973494, 0.0, 0.0, 0.0, 0.0, 0.0, 1.7103878688905623E9, 0.0, 2024-03-13 20:44:28.890
47.0, 235.82874145591632, 300.0708729447797, 1927.435980063863, 1123.684730836656, 0.01600000075995922, -0.20800000987946987, 1.0400000493973494, 0.0, 0.0, 0.0, 0.0, 0.0, 1.7103878688905623E9, 0.0, 2024-03-13 20:44:28.890
48.0, 32.999007259029895, 329.6927505438216, 1752.0907706413418, 1131.921860489063, 0.01600000075995922, -0.20800000987946987, 1.0400000493973494, 0.0, 0.0, 0.0, 0.0, 0.0, 1.7103878689063237E9, 0.0, 2024-03-13 20:44:28.906
48.0, -202.61095004947856, 123.4110886878334, 1986.3375344160013, 989.558828775771, 0.01600000075995922, -0.20800000987946987, 1.0400000493973494, 0.0, 0.0, 0.0, 0.0, 0.0, 1.7103878689063237E9, 0.0, 2024-03-13 20:44:28.906
49.0, -340.02796407137066, 228.88748713815585, 1828.938234930858, 1076.6050002444535, 0.01600000075995922, -0.20800000987946987, 1.0400000493973494, 0.0, 0.0, 0.0, 0.0, 0.0, 1.7103878689068804E9, 0.0, 2024-03-13 20:44:28.906
49.0, -332.61548235919327, 61.28761052386835, 1878.4245911445469, 856.2126958556473, 0.01600000075995922, -0.20800000987946987, 1.0400000493973494, 0.0, 0.0, 0.0, 0.0, 0.0, 1.7103878689068804E9, 0.0, 2024-03-13 20:44:28.906
50.0, -199.4469946869649, 64.31879943795502, 2015.0001276764087, 910.69368846016, 0.01600000075995922, -0.20800000987946987, 1.0400000493973494, 0.0, 0.0, 0.0, 0.0, 0.0, 1.7103878689203317E9, 0.0, 2024-03-13 20:44:28.920
50.0, 8.095013454090804, 36.69776831520721, 2175.3969569760375, 903.892680390738, 0.01600000075995922, -0.20800000987946987, 1.0400000493973494, 0.0, 0.0, 0.0, 0.0, 0.0, 1.7103878689203317E9, 0.0, 2024-03-13 20:44:28.920
51.0, 243.89570566033944, 227.78795655118302, 1943.5848680725321, 1034.9948733374476, 0.01600000075995922, -0.19200000911951065, 1.0400000493973494, 0.0, 0.0, 0.0, 0.0, 0.0, 1.7103878689359455E9, 0.0, 2024-03-13 20:44:28.935
51.0, 378.98276200983673, 142.11432836623862, 2111.1604353371076, 969.5840231124312, 0.01600000075995922, -0.19200000911951065, 1.0400000493973494, 0.0, 0.0, 0.0, 0.0, 0.0, 1.7103878689359455E9, 0.0, 2024-03-13 20:44:28.935
52.0, 369.38617872353643, 305.7461711275391, 2053.3789810216986, 1179.0371201308444, 0.01600000075995922, -0.19200000911951065, 1.0400000493973494, 0.0, 0.0, 0.0, 0.0, 0.0, 1.710387868936653E9, 0.0, 2024-03-13 20:44:28.936
52.0, 233.6521196817048, 299.3266328535974, 1928.4644525516778, 1131.486162144225, 0.01600000075995922, -0.19200000911951065, 1.0400000493973494, 0.0, 0.0, 0.0, 0.0, 0.0, 1.710387868936653E9, 0.0, 2024-03-13 20:44:28.936
53.0, 17.93469023751095, 331.77961471909657, 1754.76479910966, 1135.9646923411638, 0.01600000075995922, -0.19200000911951065, 1.0400000493973494, 0.0, 0.0, 0.0, 0.0, 0.0, 1.7103878689503982E9, 0.0, 2024-03-13 20:44:28.950
53.0, -202.5174525505863, 122.75286629563197, 1989.778242375236, 989.0651619816199, 0.01600000075995922, -0.19200000911951065, 1.0400000493973494, 0.0, 0.0, 0.0, 0.0, 0.0, 1.7103878689503982E9, 0.0, 2024-03-13 20:44:28.950
54.0, -323.6808613650501, 250.18247748585418, 1853.2962033422664, 1099.840998669155, 0.01600000075995922, -0.19200000911951065, 1.0400000493973494, 0.0, 0.0, 0.0, 0.0, 0.0, 1.710387868965908E9, 0.0, 2024-03-13 20:44:28.965
54.0, -338.2664711922407, 55.39726809365675, 1881.2033368116245, 862.4957277812064, 0.01600000075995922, -0.19200000911951065, 1.0400000493973494, 0.0, 0.0, 0.0, 0.0, 0.0, 1.710387868965908E9, 0.0, 2024-03-13 20:44:28.965
55.0, -189.6634164028801, 71.24509415589273, 2016.8962569539435, 916.314758093562, 0.01600000075995922, -0.19200000911951065, 1.0400000493973494, 0.0, 0.0, 0.0, 0.0, 0.0, 1.710387868966697E9, 0.0, 2024-03-13 20:44:28.966
55.0, 28.110958016943187, 59.944986439775676, 2196.7555256229825, 930.2421455285512, 0.01600000075995922, -0.19200000911951065, 1.0400000493973494, 0.0, 0.0, 0.0, 0.0, 0.0, 1.710387868966697E9, 0.0, 2024-03-13 20:44:28.966
56.0, 236.4682643483393, 229.03334323642775, 2439.0748634519987, 1039.5818606331013, 0.01600000075995922, -0.19200000911951065, 1.0400000493973494, 0.0, 0.0, 0.0, 0.0, 0.0, 1.7103878689803617E9, 0.0, 2024-03-13 20:44:28.980
56.0, 361.7642626138404, 128.927441122476, 2585.7967485636473, 948.7808296089061, 0.01600000075995922, -0.19200000911951065, 1.0400000493973494, 0.0, 0.0, 0.0, 0.0, 0.0, 1.7103878689803617E9, 0.0, 2024-03-13 20:44:28.980
57.0, 379.2183757070452, 307.653520104941, 2553.442874046974, 1180.5199904632755, 0.01600000075995922, -0.19200000911951065, 1.0400000493973494, 0.0, 0.0, 0.0, 0.0, 0.0, 1.7103878689959865E9, 0.0, 2024-03-13 20:44:28.995
57.0, 234.32904157368466, 302.2250553192571, 2419.4403886846267, 1125.829563461244, 0.01600000075995922, -0.19200000911951065, 1.0400000493973494, 0.0, 0.0, 0.0, 0.0, 0.0, 1.7103878689959865E9, 0.0, 2024-03-13 20:44:28.995
58.0, 12.833466697949916, 317.08180789323524, 2228.7391500440426, 1118.8733495436609, 0.01600000075995922, -0.19200000911951065, 1.0400000493973494, 0.0, 0.0, 0.0, 0.0, 0.0, 1.710387868996817E9, 0.0, 2024-03-13 20:44:28.996
58.0, -202.54737175023183, 118.65767584415153, 1983.9589580441825, 980.5830688821152, 0.01600000075995922, -0.19200000911951065, 1.0400000493973494, 0.0, 0.0, 0.0, 0.0, 0.0, 1.710387868996817E9, 0.0, 2024-03-13 20:44:28.996
59.0, -332.5743434596807, 234.75165026867762, 1835.3110244553536, 1074.7350502666086, 0.01600000075995922, -0.19200000911951065, 1.0400000493973494, 0.0, 0.0, 0.0, 0.0, 0.0, 1.7103878690102775E9, 0.0, 2024-03-13 20:44:29.010
59.0, -349.04112296458334, 48.747725972440094, 1864.7739563062787, 840.4751968421042, 0.01600000075995922, -0.19200000911951065, 1.0400000493973494, 0.0, 0.0, 0.0, 0.0, 0.0, 1.7103878690102775E9, 0.0, 2024-03-13 20:44:29.010
60.0, -194.49910704558715, 68.42146968934685, 2016.481128058862, 908.2515337890945, 0.01600000075995922, -0.19200000911951065, 1.0400000493973494, 0.0, 0.0, 0.0, 0.0, 0.0, 1.7103878690260124E9, 0.0, 2024-03-13 20:44:29.026
60.0, 1.0116429380141199, 34.80163903767243, 2171.7655141190626, 901.648740417324, 0.01600000075995922, -0.19200000911951065, 1.0400000493973494, 0.0, 0.0, 0.0, 0.0, 0.0, 1.7103878690260124E9, 0.0, 2024-03-13 20:44:29.026
61.0, 233.73439748072997, 234.11212737625465, 1945.0546487551183, 1040.8478167681023, 0.01600000075995922, -0.19200000911951065, 1.0400000493973494, 0.0, 0.0, 0.0, 0.0, 0.0, 1.710387869026883E9, 0.0, 2024-03-13 20:44:29.026
61.0, 382.9283564630896, 146.4600921147503, 2119.511631938163, 969.5129650132731, 0.01600000075995922, -0.19200000911951065, 1.0400000493973494, 0.0, 0.0, 0.0, 0.0, 0.0, 1.710387869026883E9, 0.0, 2024-03-13 20:44:29.026
62.0, 354.1685258038342, 297.58196952426806, 2054.3812742098235, 1173.1467777006328, 0.01600000075995922, -0.19200000911951065, 1.0400000493973494, 0.0, 0.0, 0.0, 0.0, 0.0, 1.7103878690403552E9, 0.0, 2024-03-13 20:44:29.040
62.0, 226.51265066629276, 293.2156363260001, 1936.9203663514927, 1127.506908591371, 0.01600000075995922, -0.19200000911951065, 1.0400000493973494, 0.0, 0.0, 0.0, 0.0, 0.0, 1.7103878690403552E9, 0.0, 2024-03-13 20:44:29.040
63.0, 19.11649862350896, 325.5863403924741, 1761.1488083340228, 1133.0999289751053, 0.01600000075995922, -0.19200000911951065, 1.0400000493973494, 0.0, 0.0, 0.0, 0.0, 0.0, 1.7103878690559416E9, 0.0, 2024-03-13 20:44:29.055
63.0, -212.91063452744856, 117.58806445682421, 1984.9350719326176, 980.7738037798554, 0.01600000075995922, -0.19200000911951065, 1.0400000493973494, 0.0, 0.0, 0.0, 0.0, 0.0, 1.7103878690559416E9, 0.0, 2024-03-13 20:44:29.055
64.0, -343.0198840359226, 222.10330861853436, 1829.0915708290413, 1067.771356549114, 0.01600000075995922, -0.19200000911951065, 1.0400000493973494, 0.0, 0.0, 0.0, 0.0, 0.0, 1.7103878690566945E9, 0.0, 2024-03-13 20:44:29.056
64.0, -326.39602873288095, 65.95126576861367, 1885.635118259117, 859.6272245151922, 0.01600000075995922, -0.19200000911951065, 1.0400000493973494, 0.0, 0.0, 0.0, 0.0, 0.0, 1.7103878690566945E9, 0.0, 2024-03-13 20:44:29.056
65.0, -202.20330095430836, 58.374228458385915, 2009.9400430363603, 896.8149197245948, 0.01600000075995922, -0.19200000911951065, 1.0400000493973494, 0.0, 0.0, 0.0, 0.0, 0.0, 1.7103878690703356E9, 0.0, 2024-03-13 20:44:29.070
65.0, 5.01707579055801, 36.75573676452041, 2173.3923705997877, 893.8061702102423, 0.01600000075995922, -0.19200000911951065, 1.0400000493973494, 0.0, 0.0, 0.0, 0.0, 0.0, 1.7103878690703356E9, 0.0, 2024-03-13 20:44:29.070
66.0, 242.14543248107657, 243.3365906169638, 1943.8952797688544, 1038.0466317012906, 0.01600000075995922, -0.19200000911951065, 1.0400000493973494, 0.0, 0.0, 0.0, 0.0, 0.0, 1.7103878690859168E9, 0.0, 2024-03-13 20:44:29.085
66.0, 381.86622487567365, 144.24420139100403, 2103.437541928608, 959.8565433276817, 0.01600000075995922, -0.19200000911951065, 1.0400000493973494, 0.0, 0.0, 0.0, 0.0, 0.0, 1.7103878690859168E9, 0.0, 2024-03-13 20:44:29.085
67.0, 372.57257348578423, 298.68710996117443, 2052.6534404302947, 1171.9200905151665, 0.01600000075995922, -0.19200000911951065, 1.0400000493973494, 0.0, 0.0, 0.0, 0.0, 0.0, 1.7103878690866592E9, 0.0, 2024-03-13 20:44:29.086
67.0, 237.97170413052663, 294.6424081590958, 1921.949546828866, 1118.1048001027666, 0.01600000075995922, -0.19200000911951065, 1.0400000493973494, 0.0, 0.0, 0.0, 0.0, 0.0, 1.7103878690866592E9, 0.0, 2024-03-13 20:44:29.086
68.0, 25.10033855261281, 323.03011877276003, 1750.314318162389, 1128.7541652265936, 0.01600000075995922, -0.19200000911951065, 1.0400000493973494, 0.0, 0.0, 0.0, 0.0, 0.0, 1.7103878691003861E9, 0.0, 2024-03-13 20:44:29.100
68.0, -210.0047322618775, 111.18722568266094, 1977.3168957228772, 976.7683709273115, 0.01600000075995922, -0.19200000911951065, 1.0400000493973494, 0.0, 0.0, 0.0, 0.0, 0.0, 1.7103878691003861E9, 0.0, 2024-03-13 20:44:29.100
69.0, -334.1226620413363, 230.79296616557986, 1837.611062928103, 1081.51922878623, 0.01600000075995922, -0.19200000911951065, 1.0400000493973494, 0.0, 0.0, 0.0, 0.0, 0.0, 1.7103878691159208E9, 0.0, 2024-03-13 20:44:29.115
69.0, -334.24981863982975, 64.94336273055524, 1883.7202894818038, 865.1248774500564, 0.01600000075995922, -0.19200000911951065, 1.0400000493973494, 0.0, 0.0, 0.0, 0.0, 0.0, 1.7103878691159208E9, 0.0, 2024-03-13 20:44:29.115
70.0, -205.02692542085424, 60.04035388864577, 2004.793940697331, 898.3819378060289, 0.01600000075995922, -0.19200000911951065, 1.0400000493973494, 0.0, 0.0, 0.0, 0.0, 0.0, 1.7103878691168015E9, 0.0, 2024-03-13 20:44:29.116
70.0, 19.49422851903364, 46.62346279760823, 2182.5027668918483, 912.346724240575, 0.01600000075995922, -0.19200000911951065, 1.0400000493973494, 0.0, 0.0, 0.0, 0.0, 0.0, 1.7103878691168015E9, 0.0, 2024-03-13 20:44:29.116
71.0, 224.85961488587782, 230.948172013741, 1946.2327172411606, 1039.7202369314618, 0.01600000075995922, -0.19200000911951065, 1.0400000493973494, 0.0, 0.0, 0.0, 0.0, 0.0, 1.7103878691306818E9, 0.0, 2024-03-13 20:44:29.130
71.0, 372.5800532856956, 144.41436683898792, 2116.6506084720604, 970.8350196476094, 0.01600000075995922, -0.19200000911951065, 1.0400000493973494, 0.0, 0.0, 0.0, 0.0, 0.0, 1.7103878691306818E9, 0.0, 2024-03-13 20:44:29.130
72.0, 362.30654810741544, 303.2329583573155, 2056.221304988023, 1175.1420143269934, 0.01600000075995922, -0.19200000911951065, 1.0400000493973494, 0.0, 0.0, 0.0, 0.0, 0.0, 1.710387869145936E9, 0.0, 2024-03-13 20:44:29.145
72.0, 234.48611737182364, 306.8382219146006, 1936.1948257600889, 1137.468132123351, 0.01600000075995922, -0.19200000911951065, 1.0400000493973494, 0.0, 0.0, 0.0, 0.0, 0.0, 1.710387869145936E9, 0.0, 2024-03-13 20:44:29.145
73.0, 33.70584835065529, 350.3949667485431, 1774.3543950775638, 1157.153095540125, 0.01600000075995922, -0.19200000911951065, 1.0400000493973494, 0.0, 0.0, 0.0, 0.0, 0.0, 1.7103878691466901E9, 0.0, 2024-03-13 20:44:29.146
73.0, -207.92534788651392, 129.78574816230685, 1994.9954028134234, 990.8995829098858, 0.01600000075995922, -0.19200000911951065, 1.0400000493973494, 0.0, 0.0, 0.0, 0.0, 0.0, 1.7103878691466901E9, 0.0, 2024-03-13 20:44:29.146
74.0, -334.9080410320312, 237.38266988750547, 1833.7664457736537, 1082.3737959261052, 0.01600000075995922, -0.19200000911951065, 1.0400000493973494, 0.0, 0.0, 0.0, 0.0, 0.0, 1.7103878691605952E9, 0.0, 2024-03-13 20:44:29.160
74.0, -319.8212846107781, 74.24823382031173, 1885.672517258674, 869.2144580516033, 0.01600000075995922, -0.19200000911951065, 1.0400000493973494, 0.0, 0.0, 0.0, 0.0, 0.0, 1.7103878691605952E9, 0.0, 2024-03-13 20:44:29.160
75.0, -173.5407076939009, 77.54869553120807, 2023.0970110804774, 914.6673321630806, 0.01600000075995922, -0.19200000911951065, 1.0400000493973494, 0.0, 0.0, 0.0, 0.0, 0.0, 1.7103878691762993E9, 0.0, 2024-03-13 20:44:29.176
75.0, 16.562146953772753, 37.90388605091721, 2172.0086076161824, 896.9981748224236, 0.01600000075995922, -0.19200000911951065, 1.0400000493973494, 0.0, 0.0, 0.0, 0.0, 0.0, 1.7103878691762993E9, 0.0, 2024-03-13 20:44:29.176
76.0, 246.40143863065168, 240.39328935183585, 1947.1265533305705, 1043.4489171872847, 0.01600000075995922, -0.19200000911951065, 1.0400000493973494, 0.0, 0.0, 0.0, 0.0, 0.0, 1.71038786917684E9, 0.0, 2024-03-13 20:44:29.176
76.0, 390.8457246692851, 142.41913021262735, 2103.362743929494, 963.7778284312226, 0.01600000075995922, -0.19200000911951065, 1.0400000493973494, 0.0, 0.0, 0.0, 0.0, 0.0, 1.71038786917684E9, 0.0, 2024-03-13 20:44:29.176
77.0, 378.8817847110331, 306.1781295724213, 2058.839234957006, 1179.37932097679, 0.01600000075995922, -0.19200000911951065, 1.0400000493973494, 0.0, 0.0, 0.0, 0.0, 0.0, 1.7103878691902735E9, 0.0, 2024-03-13 20:44:29.190
77.0, 239.21709081577137, 296.99106533126906, 1919.2792582605034, 1118.0842306530103, 0.01600000075995922, -0.19200000911951065, 1.0400000493973494, 0.0, 0.0, 0.0, 0.0, 0.0, 1.7103878691902735E9, 0.0, 2024-03-13 20:44:29.190
78.0, 30.3661176902242, 326.3773292331025, 1739.027300096117, 1120.1767046782188, 0.01600000075995922, -0.19200000911951065, 1.0400000493973494, 0.0, 0.0, 0.0, 0.0, 0.0, 1.7103878692063193E9, 0.0, 2024-03-13 20:44:29.206
78.0, -206.53036520304158, 108.47953811474144, 1965.3492158646695, 961.3581131598912, 0.01600000075995922, -0.19200000911951065, 1.0400000493973494, 0.0, 0.0, 0.0, 0.0, 0.0, 1.7103878692063193E9, 0.0, 2024-03-13 20:44:29.206
79.0, -340.55528996512294, 225.4374294290319, 1821.593071417883, 1068.109817495104, 0.01600000075995922, -0.19200000911951065, 1.0400000493973494, 0.0, 0.0, 0.0, 0.0, 0.0, 1.710387869206922E9, 0.0, 2024-03-13 20:44:29.206
79.0, -315.565278461203, 68.552366187796, 1885.3172267628834, 867.8905334672891, 0.01600000075995922, -0.19200000911951065, 1.0400000493973494, 0.0, 0.0, 0.0, 0.0, 0.0, 1.710387869206922E9, 0.0, 2024-03-13 20:44:29.206
80.0, -178.12582503957674, 76.28834924614057, 2021.9152026944794, 910.4487250130624, 0.01600000075995922, -0.19200000911951065, 1.0400000493973494, 0.0, 0.0, 0.0, 0.0, 0.0, 1.710387869220281E9, 0.0, 2024-03-13 20:44:29.220
80.0, 18.26006153365597, 39.908472427167, 2180.7786730122752, 902.5968050560914, 0.01600000075995922, -0.19200000911951065, 1.0400000493973494, 0.0, 0.0, 0.0, 0.0, 0.0, 1.710387869220281E9, 0.0, 2024-03-13 20:44:29.220
81.0, 239.74441670952365, 238.6729353722185, 1948.1587657183409, 1045.7414758601226, 0.01600000075995922, -0.19200000911951065, 1.0400000493973494, 0.0, 0.0, 0.0, 0.0, 0.0, 1.7103878692360132E9, 0.0, 2024-03-13 20:44:29.236
81.0, 388.41852959804237, 150.41877621784806, 2111.7550794300623, 967.7608218840323, 0.01600000075995922, -0.19200000911951065, 1.0400000493973494, 0.0, 0.0, 0.0, 0.0, 0.0, 1.7103878692360132E9, 0.0, 2024-03-13 20:44:29.236
82.0, 360.5076562287286, 300.3999841408804, 2058.6634596590884, 1176.1218681153841, 0.01600000075995922, -0.19200000911951065, 1.0400000493973494, 0.0, 0.0, 0.0, 0.0, 0.0, 1.7103878692366912E9, 0.0, 2024-03-13 20:44:29.236
82.0, 228.70049214037135, 295.43900684965774, 1924.2869843011722, 1123.4285476896912, 0.01600000075995922, -0.19200000911951065, 1.0400000493973494, 0.0, 0.0, 0.0, 0.0, 0.0, 1.7103878692366912E9, 0.0, 2024-03-13 20:44:29.236
83.0, 27.856644819956273, 336.39652121439576, 1766.7100395681337, 1142.1710563176312, 0.01600000075995922, -0.19200000911951065, 1.0400000493973494, 0.0, 0.0, 0.0, 0.0, 0.0, 1.7103878692502582E9, 0.0, 2024-03-13 20:44:29.250
83.0, 271.049249288626, 103.47555197402835, 1970.4280000044964, 964.5594675219618, 0.01600000075995922, -0.19200000911951065, 1.0400000493973494, 0.0, 0.0, 0.0, 0.0, 0.0, 1.7103878692502582E9, 0.0, 2024-03-13 20:44:29.250
84.0, 168.36468615522608, 227.79730630107224, 1829.9106089193374, 1072.994126837235, 0.01600000075995922, -0.19200000911951065, 1.0400000493973494, 0.0, 0.0, 0.0, 0.0, 0.0, 1.7103878692659624E9, 0.0, 2024-03-13 20:44:29.265
84.0, 163.14752571703866, 70.2577605675906, 1882.946130190976, 868.5076169599779, 0.01600000075995922, -0.19200000911951065, 1.0400000493973494, 0.0, 0.0, 0.0, 0.0, 0.0, 1.7103878692659624E9, 0.0, 2024-03-13 20:44:29.265
85.0, 293.9224774176255, 61.390457772649825, 2007.3482923670672, 897.4974514665082, 0.01600000075995922, -0.19200000911951065, 1.0400000493973494, 0.0, 0.0, 0.0, 0.0, 0.0, 1.7103878692667458E9, 0.0, 2024-03-13 20:44:29.266
85.0, 495.03185763489455, 31.723701374139637, 2168.070492962841, 891.2798677901737, 0.01600000075995922, -0.19200000911951065, 1.0400000493973494, 0.0, 0.0, 0.0, 0.0, 0.0, 1.7103878692667458E9, 0.0, 2024-03-13 20:44:29.266
86.0, 261.82852594787255, 249.8758056894876, 1945.6044140486047, 1046.145385055337, 0.01600000075995922, -0.19200000911951065, 1.0400000493973494, 0.0, 0.0, 0.0, 0.0, 0.0, 1.71038786928042E9, 0.0, 2024-03-13 20:44:29.280
86.0, 386.1484103249386, 158.03882237756625, 2110.8949024402536, 965.0680939159356, 0.01600000075995922, -0.19200000911951065, 1.0400000493973494, 0.0, 0.0, 0.0, 0.0, 0.0, 1.71038786928042E9, 0.0, 2024-03-13 20:44:29.280
87.0, 367.2880948483944, 305.1702265343629, 2053.700612417888, 1167.8080705138855, 0.01600000075995922, -0.19200000911951065, 1.0400000493973494, 0.0, 0.0, 0.0, 0.0, 0.0, 1.710387869295961E9, 0.0, 2024-03-13 20:44:29.295
87.0, 234.3552208733745, 299.9175370465964, 1921.695233631879, 1117.4671471603215, 0.01600000075995922, -0.19200000911951065, 1.0400000493973494, 0.0, 0.0, 0.0, 0.0, 0.0, 1.710387869295961E9, 0.0, 2024-03-13 20:44:29.295
88.0, 34.10601764591411, 331.74595561949536, 1748.567784883082, 1131.3814449454658, 0.01600000075995922, -0.19200000911951065, 1.0400000493973494, 0.0, 0.0, 0.0, 0.0, 0.0, 1.7103878692968187E9, 0.0, 2024-03-13 20:44:29.296
88.0, 278.29717540275306, 107.84188517229632, 1977.9975575148128, 970.2889942540787, 0.01600000075995922, -0.19200000911951065, 1.0400000493973494, 0.0, 0.0, 0.0, 0.0, 0.0, 1.7103878692968187E9, 0.0, 2024-03-13 20:44:29.296
89.0, 148.81622908683494, 228.55837594205514, 1839.1706012096256, 1077.8971356791444, 0.01600000075995922, -0.19200000911951065, 1.0400000493973494, 0.0, 0.0, 0.0, 0.0, 0.0, 1.7103878693102744E9, 0.0, 2024-03-13 20:44:29.310
89.0, 169.25478234468028, 73.62554047768936, 1894.861451449804, 874.042668894399, 0.01600000075995922, -0.19200000911951065, 1.0400000493973494, 0.0, 0.0, 0.0, 0.0, 0.0, 1.7103878693102744E9, 0.0, 2024-03-13 20:44:29.310
90.0, 311.91139620449394, 75.4786609057337, 2032.6075766677968, 922.5585210695863, 0.01600000075995922, -0.19200000911951065, 1.0400000493973494, 0.0, 0.0, 0.0, 0.0, 0.0, 1.7103878693261511E9, 0.0, 2024-03-13 20:44:29.326
90.0, 502.4256398472935, 41.3352442602627, 2189.114910013508, 911.924115545582, 0.01600000075995922, -0.19200000911951065, 1.0400000493973494, 0.0, 0.0, 0.0, 0.0, 0.0, 1.7103878693261511E9, 0.0, 2024-03-13 20:44:29.326
91.0, 724.3064244184643, 245.6123197400011, 1948.2934021167457, 1057.4735420211218, 0.01600000075995922, -0.19200000911951065, 1.0400000493973494, 0.0, 0.0, 0.0, 0.0, 0.0, 1.710387869326852E9, 0.0, 2024-03-13 20:44:29.326
91.0, 903.0007142513059, 179.96211591782048, 2137.2948562274687, 996.8086248398758, 0.01600000075995922, -0.19200000911951065, 1.0400000493973494, 0.0, 0.0, 0.0, 0.0, 0.0, 1.710387869326852E9, 0.0, 2024-03-13 20:44:29.326
92.0, 851.790264158044, 308.54735619435087, 2062.4594581141137, 1181.2343113548122, 0.01600000075995922, -0.19200000911951065, 1.0400000493973494, 0.0, 0.0, 0.0, 0.0, 0.0, 1.7103878693406055E9, 0.0, 2024-03-13 20:44:29.340
92.0, 733.5738965086639, 312.6388067458756, 1932.8737945994362, 1139.9102867944166, 0.01600000075995922, -0.19200000911951065, 1.0400000493973494, 0.0, 0.0, 0.0, 0.0, 0.0, 1.7103878693406055E9, 0.0, 2024-03-13 20:44:29.340
93.0, 544.0058475546539, 369.4385373229161, 1782.866407376714, 1172.2361120614223, 0.01600000075995922, -0.19200000911951065, 1.0400000493973494, 0.0, 0.0, 0.0, 0.0, 0.0, 1.7103878693560789E9, 0.0, 2024-03-13 20:44:29.356
93.0, 786.7047852291726, 127.90083858463913, 1985.4324786267243, 985.8133189701475, 0.01600000075995922, -0.19200000911951065, 1.0400000493973494, 0.0, 0.0, 0.0, 0.0, 0.0, 1.7103878693560789E9, 0.0, 2024-03-13 20:44:29.356
94.0, 635.5473787700757, 225.8862174237147, 1819.7081618402153, 1071.8384977509268, 0.01600000075995922, -0.19200000911951065, 1.0400000493973494, 0.0, 0.0, 0.0, 0.0, 0.0, 1.7103878693568473E9, 0.0, 2024-03-13 20:44:29.356
94.0, 643.4460474764928, 65.26873402670026, 1868.3418208640069, 863.5335500189103, 0.01600000075995922, -0.19200000911951065, 1.0400000493973494, 0.0, 0.0, 0.0, 0.0, 0.0, 1.7103878693568473E9, 0.0, 2024-03-13 20:44:29.356
95.0, 795.5047698249109, 75.94053855026141, 2016.8700776542537, 912.7001447863877, 0.01600000075995922, -0.19200000911951065, 1.0400000493973494, 0.0, 0.0, 0.0, 0.0, 0.0, 1.7103878693706E9, 0.0, 2024-03-13 20:44:29.370
95.0, 982.1669165133499, 27.847295070067048, 2171.75055451924, 897.3871244178154, 0.01600000075995922, -0.19200000911951065, 1.0400000493973494, 0.0, 0.0, 0.0, 0.0, 0.0, 1.7103878693706E9, 0.0, 2024-03-13 20:44:29.370
96.0, 1223.5437995535322, 238.6355363726616, 1947.1415129303932, 1050.221876007039, 0.01600000075995922, -0.19200000911951065, 1.0400000493973494, 0.0, 0.0, 0.0, 0.0, 0.0, 1.7103878693860312E9, 0.0, 2024-03-13 20:44:29.386
96.0, 1374.2262387182564, 151.46594820544124, 2113.531531909015, 971.7662547365762, 0.01600000075995922, -0.19200000911951065, 1.0400000493973494, 0.0, 0.0, 0.0, 0.0, 0.0, 1.7103878693860312E9, 0.0, 2024-03-13 20:44:29.386
97.0, 1323.322460421361, 271.69625198096037, 2027.6073304270394, 1144.6954887877218, 0.01600000075995922, -0.19200000911951065, 1.0400000493973494, 0.0, 0.0, 0.0, 0.0, 0.0, 1.710387869386717E9, 0.0, 2024-03-13 20:44:29.386
97.0, 1204.4216910800897, 289.0942665748298, 1909.7761724730954, 1113.2896789098158, 0.01600000075995922, -0.19200000911951065, 1.0400000493973494, 0.0, 0.0, 0.0, 0.0, 0.0, 1.710387869386717E9, 0.0, 2024-03-13 20:44:29.386
98.0, 1023.002884129528, 355.9992068321444, 1768.9651992414147, 1149.916389125865, 0.01600000075995922, -0.19200000911951065, 1.0400000493973494, 0.0, 0.0, 0.0, 0.0, 0.0, 1.7103878694002225E9, 0.0, 2024-03-13 20:44:29.400
98.0, 783.7502642641775, 124.62655617343262, 1999.6889772578143, 985.0167202795856, 0.01600000075995922, -0.19200000911951065, 1.0400000493973494, 0.0, 0.0, 0.0, 0.0, 0.0, 1.7103878694002225E9, 0.0, 2024-03-13 20:44:29.400
99.0, 638.3560436367989, 226.22093846974894, 1834.0506781702861, 1074.306831721682, 0.01600000075995922, -0.19200000911951065, 1.0400000493973494, 0.0, 0.0, 0.0, 0.0, 0.0, 1.7103878694160037E9, 0.0, 2024-03-13 20:44:29.416
99.0, 653.9663860518485, 71.6059945016168, 1877.470916655846, 867.3258085739799, 0.01600000075995922, -0.19200000911951065, 1.0400000493973494, 0.0, 0.0, 0.0, 0.0, 0.0, 1.7103878694160037E9, 0.0, 2024-03-13 20:44:29.416
100.0, 795.9348583198152, 70.64110031304881, 2013.9679152886383, 904.9922109777108, 0.01600000075995922, -0.19200000911951065, 1.0400000493973494, 0.0, 0.0, 0.0, 0.0, 0.0, 1.71038786941671E9, 0.0, 2024-03-13 20:44:29.416
100.0, 975.8764047878794, 18.86405537649989, 2157.613732686732, 879.2336500328965, 0.01600000075995922, -0.19200000911951065, 1.0400000493973494, 0.0, 0.0, 0.0, 0.0, 0.0, 1.71038786941671E9, 0.0, 2024-03-13 20:44:29.416
0.0, -248.55375105515122, 240.55597499990836, -23.690396269317716, 64.73953818297014, 0.01600000075995922, -0.19200000911951065, 1.0400000493973494, 0.0, 0.0, 0.0, 0.0, 0.0, 1.7103878694309847E9, 0.0, 2024-03-13 20:44:29.430
1.0, -95.23094252170995, 156.3932663970627, 159.87324330583215, -9.654551735613495, 0.01600000075995922, -0.19200000911951065, 1.0400000493973494, 0.0, 0.0, 0.0, 0.0, 0.0, 1.7103878694316993E9, 0.0, 2024-03-13 20:44:29.431
1.0, -128.90126182278618, 288.5276717315428, 79.83938425406814, 170.0588608351536, 0.01600000075995922, -0.19200000911951065, 1.0400000493973494, 0.0, 0.0, 0.0, 0.0, 0.0, 1.7103878694316993E9, 0.0, 2024-03-13 20:44:29.431
2.0, -256.5272177606821, 299.451919502113, -44.17382832663134, 139.52070774696767, 0.01600000075995922, -0.19200000911951065, 1.0400000493973494, 0.0, 0.0, 0.0, 0.0, 0.0, 1.7103878694452877E9, 0.0, 2024-03-13 20:44:29.445
2.0, -455.19818320684135, 342.91516683716327, -197.21427441341802, 165.31292779138312, 0.01600000075995922, -0.19200000911951065, 1.0400000493973494, 0.0, 0.0, 0.0, 0.0, 0.0, 1.7103878694452877E9, 0.0, 2024-03-13 20:44:29.445
3.0, -693.3176133856177, 107.44732572697103, 15.71505961380899, -20.72839550441131, 0.01600000075995922, -0.19200000911951065, 1.0400000493973494, 0.0, 0.0, 0.0, 0.0, 0.0, 1.7103878694612076E9, 0.0, 2024-03-13 20:44:29.461
3.0, -841.2549659828655, 209.32968031987548, -146.34041531616822, 68.07552894344553, 0.01600000075995922, -0.19200000911951065, 1.0400000493973494, 0.0, 0.0, 0.0, 0.0, 0.0, 1.7103878694612076E9, 0.0, 2024-03-13 20:44:29.461
4.0, -828.5243465336971, 58.78000760357827, -98.95962277753279, -132.85059617599472, 0.01600000075995922, -0.19200000911951065, 1.0400000493973494, 0.0, 0.0, 0.0, 0.0, 0.0, 1.7103878694618142E9, 0.0, 2024-03-13 20:44:29.461
4.0, -694.5368207711726, 52.68771057575941, 41.31841471046209, -98.10879553761333, 0.01600000075995922, -0.19200000911951065, 1.0400000493973494, 0.0, 0.0, 0.0, 0.0, 0.0, 1.7103878694618142E9, 0.0, 2024-03-13 20:44:29.461
5.0, -492.0848164698109, 31.1814158805646, 206.00864915922284, -91.07030382100493, 0.01600000075995922, -0.19200000911951065, 1.0400000493973494, 0.0, 0.0, 0.0, 0.0, 0.0, 1.710387869475703E9, 0.0, 2024-03-13 20:44:29.475
5.0, -734.8473324435763, 243.55537476437166, -12.119145806413144, 68.09235849324614, 0.01600000075995922, -0.19200000911951065, 1.0400000493973494, 0.0, 0.0, 0.0, 0.0, 0.0, 1.710387869475703E9, 0.0, 2024-03-13 20:44:29.475
6.0, -590.2983292061836, 160.95968424296007, 162.3752363761887, -3.3247710606083274, 0.01600000075995922, -0.19200000911951065, 1.0400000493973494, 0.0, 0.0, 0.0, 0.0, 0.0, 1.7103878694909697E9, 0.0, 2024-03-13 20:44:29.490
6.0, -631.190395321697, 286.2388529586606, 88.71790674887598, 171.21635987143964, 0.01600000075995922, -0.19200000911951065, 1.0400000493973494, 0.0, 0.0, 0.0, 0.0, 0.0, 1.7103878694909697E9, 0.0, 2024-03-13 20:44:29.490
7.0, -745.7454009144567, 302.1670868699439, -32.92046935996041, 145.28950342861935, 0.01600000075995922, -0.19200000911951065, 1.0400000493973494, 0.0, 0.0, 0.0, 0.0, 0.0, 1.7103878694916852E9, 0.0, 2024-03-13 20:44:29.491
7.0, -946.1442001401447, 338.99949158355594, -206.43312780419365, 157.68166193179786, 0.01600000075995922, -0.19200000911951065, 1.0400000493973494, 0.0, 0.0, 0.0, 0.0, 0.0, 1.7103878694916852E9, 0.0, 2024-03-13 20:44:29.491
8.0, -711.0896179750562, 98.09757583774626, 13.332743342034519, -23.957799116149545, 0.01600000075995922, -0.19200000911951065, 1.0400000493973494, 0.0, 0.0, 0.0, 0.0, 0.0, 1.7103878695053241E9, 0.0, 2024-03-13 20:44:29.505
8.0, -845.8139040288515, 210.9901959002018, -141.3027700758539, 73.86676402483135, 0.01600000075995922, -0.19200000911951065, 1.0400000493973494, 0.0, 0.0, 0.0, 0.0, 0.0, 1.7103878695053241E9, 0.0, 2024-03-13 20:44:29.505
9.0, -801.4362511546351, 80.21711414959282, -65.24068477703258, -105.58859544899315, 0.01600000075995922, -0.19200000911951065, 1.0400000493973494, 0.0, 0.0, 0.0, 0.0, 0.0, 1.710387869520968E9, 0.0, 2024-03-13 20:44:29.520
9.0, -699.4809685125947, 43.655852182768285, 46.16532505303621, -95.34687942033634, 0.01600000075995922, -0.19200000911951065, 1.0400000493973494, 0.0, 0.0, 0.0, 0.0, 0.0, 1.710387869520968E9, 0.0, 2024-03-13 20:44:29.520
10.0, -503.43915273528546, 10.918637920636684, 196.41954567283392, -109.91939959768206, 0.01600000075995922, -0.19200000911951065, 1.0400000493973494, 0.0, 0.0, 0.0, 0.0, 0.0, 1.7103878695216649E9, 0.0, 2024-03-13 20:44:29.521
10.0, -735.9880019300617, 241.7228237860836, -18.64901112904772, 58.166664010845125, 0.01600000075995922, -0.19200000911951065, 1.0400000493973494, 0.0, 0.0, 0.0, 0.0, 0.0, 1.7103878695216649E9, 0.0, 2024-03-13 20:44:29.521
11.0, -586.939899045974, 156.59896089462563, 147.02668695803732, -17.001585198566318, 0.01600000075995922, -0.19200000911951065, 1.0400000493973494, 0.0, 0.0, 0.0, 0.0, 0.0, 1.7103878695353055E9, 0.0, 2024-03-13 20:44:29.535
11.0, -613.268794734031, 289.8553362158127, 78.39578287117183, 167.9327277103439, 0.01600000075995922, -0.19200000911951065, 1.0400000493973494, 0.0, 0.0, 0.0, 0.0, 0.0, 1.7103878695353055E9, 0.0, 2024-03-13 20:44:29.535
12.0, -747.7350276908837, 297.5632700244896, -43.440807935316116, 137.03180432645604, 0.01600000075995922, -0.19200000911951065, 1.0400000493973494, 0.0, 0.0, 0.0, 0.0, 0.0, 1.710387869551045E9, 0.0, 2024-03-13 20:44:29.551
12.0, -960.3894790713675, 332.6379217589274, -216.74403198203072, 146.75741416122764, 0.01600000075995922, -0.19200000911951065, 1.0400000493973494, 0.0, 0.0, 0.0, 0.0, 0.0, 1.710387869551045E9, 0.0, 2024-03-13 20:44:29.551
13.0, -716.314258213155, 576.9225770146586, 5.396675636060536, -35.80206227581948, 0.01600000075995922, -0.19200000911951065, 1.0400000493973494, 0.0, 0.0, 0.0, 0.0, 0.0, 1.7103878695516787E9, 0.0, 2024-03-13 20:44:29.551
13.0, -861.3831075443886, 679.2125807027332, -155.30869540991262, 62.130957963876426, 0.01600000075995922, -0.19200000911951065, 1.0400000493973494, 0.0, 0.0, 0.0, 0.0, 0.0, 1.7103878695516787E9, 0.0, 2024-03-13 20:44:29.551
14.0, -826.7965127541684, 547.0482561686076, -82.74341656966135, -122.92303174361587, 0.01600000075995922, -0.19200000911951065, 1.0400000493973494, 0.0, 0.0, 0.0, 0.0, 0.0, 1.7103878695653288E9, 0.0, 2024-03-13 20:44:29.565
14.0, -695.2885406622663, 537.1375212860294, 54.01163516007364, -88.11017300607637, 0.01600000075995922, -0.19200000911951065, 1.0400000493973494, 0.0, 0.0, 0.0, 0.0, 0.0, 1.7103878695653288E9, 0.0, 2024-03-13 20:44:29.565
15.0, -493.59199615195394, 499.1719268858433, 210.2459558090195, -102.64903408382088, 0.01600000075995922, -0.19200000911951065, 1.0400000493973494, 0.0, 0.0, 0.0, 0.0, 0.0, 1.7103878695809603E9, 0.0, 2024-03-13 20:44:29.580
15.0, -249.47376644425094, 726.6102027911693, 6.355959974694997, 76.86616378929466, 0.01600000075995922, -0.19200000911951065, 1.0400000493973494, 0.0, 0.0, 0.0, 0.0, 0.0, 1.7103878695809603E9, 0.0, 2024-03-13 20:44:29.580
16.0, -104.45353581244126, 628.6360436519608, 146.78733336087316, -23.29209692403674, 0.01600000075995922, -0.19200000911951065, 1.0400000493973494, 0.0, 0.0, 0.0, 0.0, 0.0, 1.710387869581694E9, 0.0, 2024-03-13 20:44:29.581
16.0, -175.64627136895433, 735.8739349814132, 70.51955356448889, 147.59889165125787, 0.01600000075995922, -0.19200000911951065, 1.0400000493973494, 0.0, 0.0, 0.0, 0.0, 0.0, 1.710387869581694E9, 0.0, 2024-03-13 20:44:29.581
17.0, -275.6904651336372, 777.0016147941351, -28.83275870839134, 141.9422929682769, 0.01600000075995922, -0.19200000911951065, 1.0400000493973494, 0.0, 0.0, 0.0, 0.0, 0.0, 1.7103878695956762E9, 0.0, 2024-03-13 20:44:29.595
17.0, -450.691603760235, 844.4114415454678, -169.5764137408696, 186.2694571930915, 0.01600000075995922, -0.19200000911951065, 1.0400000493973494, 0.0, 0.0, 0.0, 0.0, 0.0, 1.7103878695956762E9, 0.0, 2024-03-13 20:44:29.595
18.0, -216.27654448756948, 1083.3966585639864, 38.0908810487017, -6.585963821969926, 0.01600000075995922, -0.19200000911951065, 1.0400000493973494, 0.0, 0.0, 0.0, 0.0, 0.0, 1.7103878696109633E9, 0.0, 2024-03-13 20:44:29.610
18.0, -351.939545430243, 1194.782098944299, -117.8161983541213, 100.98477860353887, 0.01600000075995922, -0.19200000911951065, 1.0400000493973494, 0.0, 0.0, 0.0, 0.0, 0.0, 1.7103878696109633E9, 0.0, 2024-03-13 20:44:29.610
19.0, -335.25211182795465, 1056.7648309795186, -64.78067708248273, -96.55673705600202, 0.01600000075995922, -0.19200000911951065, 1.0400000493973494, 0.0, 0.0, 0.0, 0.0, 0.0, 1.710387869611768E9, 0.0, 2024-03-13 20:44:29.611
19.0, -195.441561834421, 1038.9142884910107, 64.65165053401142, -70.37930731615052, 0.01600000075995922, -0.19200000911951065, 1.0400000493973494, 0.0, 0.0, 0.0, 0.0, 0.0, 1.710387869611768E9, 0.0, 2024-03-13 20:44:29.611
20.0, -12.960623296443373, 987.4177360511385, 208.19649063330144, -97.07658314984292, 0.01600000075995922, -0.19200000911951065, 1.0400000493973494, 0.0, 0.0, 0.0, 0.0, 0.0, 1.7103878696257355E9, 0.0, 2024-03-13 20:44:29.625
20.0, 231.4605383076705, 1218.8614448090084, -10.907418220769614, 71.74250084999949, 0.01600000075995922, -0.19200000911951065, 1.0400000493973494, 0.0, 0.0, 0.0, 0.0, 0.0, 1.7103878696257355E9, 0.0, 2024-03-13 20:44:29.625
21.0, 386.57849881984293, 1142.3281321157701, 170.76757187675685, 3.3285109605640173, 0.01600000075995922, -0.19200000911951065, 1.0400000493973494, 0.0, 0.0, 0.0, 0.0, 0.0, 1.7103878696412363E9, 0.0, 2024-03-13 20:44:29.641
21.0, 360.52261582855135, 1258.6128414380364, 85.64370898529887, 173.527618044056, 0.01600000075995922, -0.19200000911951065, 1.0400000493973494, 0.0, 0.0, 0.0, 0.0, 0.0, 1.7103878696412363E9, 0.0, 2024-03-13 20:44:29.641
22.0, 213.5651170196943, 1278.8419602983631, -37.36347050732002, 145.03145033167675, 0.01600000075995922, -0.19200000911951065, 1.0400000493973494, 0.0, 0.0, 0.0, 0.0, 0.0, 1.710387869641762E9, 0.0, 2024-03-13 20:44:29.641
22.0, 34.49122734135017, 1336.733741662465, -194.7010616431944, 173.9689262388274, 0.01600000075995922, -0.19200000911951065, 1.0400000493973494, 0.0, 0.0, 0.0, 0.0, 0.0, 1.710387869641762E9, 0.0, 2024-03-13 20:44:29.641
23.0, -192.93582886410877, 1100.3907639626414, 45.99328965507448, 3.8408772544935346, 0.01600000075995922, -0.19200000911951065, 1.0400000493973494, 0.0, 0.0, 0.0, 0.0, 0.0, 1.7103878696554666E9, 0.0, 2024-03-13 20:44:29.655
23.0, -361.5361287165433, 1198.5593978995457, -129.71656001312658, 92.73081940133125, 0.01600000075995922, -0.19200000911951065, 1.0400000493973494, 0.0, 0.0, 0.0, 0.0, 0.0, 1.7103878696554666E9, 0.0, 2024-03-13 20:44:29.655
24.0, -317.7157209357247, 1069.7796828253195, -57.199899872299284, -90.2288263309747, 0.01600000075995922, -0.19200000911951065, 1.0400000493973494, 0.0, 0.0, 0.0, 0.0, 0.0, 1.710387869670962E9, 0.0, 2024-03-13 20:44:29.670
24.0, -194.2971524479799, 1043.19273404032, 65.4781684242189, -76.02655624924228, 0.01600000075995922, -0.19200000911951065, 1.0400000493973494, 0.0, 0.0, 0.0, 0.0, 0.0, 1.710387869670962E9, 0.0, 2024-03-13 20:44:29.670
25.0, -4.429911497514695, 999.6060700067319, 217.35176572483033, -87.50243926327676, 0.01600000075995922, -0.19200000911951065, 1.0400000493973494, 0.0, 0.0, 0.0, 0.0, 0.0, 1.7103878696716993E9, 0.0, 2024-03-13 20:44:29.671
25.0, 225.85816817404702, 1221.5242535774596, -13.125178894493729, 69.28164667915553, 0.01600000075995922, -0.19200000911951065, 1.0400000493973494, 0.0, 0.0, 0.0, 0.0, 0.0, 1.7103878696716993E9, 0.0, 2024-03-13 20:44:29.671
26.0, 392.5511190490797, 1135.3569585983641, 170.79749107640237, -1.4211619831621647, 0.01600000075995922, -0.19200000911951065, 1.0400000493973494, 0.0, 0.0, 0.0, 0.0, 0.0, 1.710387869685332E9, 0.0, 2024-03-13 20:44:29.685
26.0, 354.2021849034354, 1254.5101711866446, 89.1554750436917, 166.447987427935, 0.01600000075995922, -0.19200000911951065, 1.0400000493973494, 0.0, 0.0, 0.0, 0.0, 0.0, 1.710387869685332E9, 0.0, 2024-03-13 20:44:29.685
27.0, 222.76901081064716, 1272.2746959761716, -45.70344740850851, 138.42304710997269, 0.01600000075995922, -0.19200000911951065, 1.0400000493973494, 0.0, 0.0, 0.0, 0.0, 0.0, 1.7103878697009368E9, 0.0, 2024-03-13 20:44:29.700
27.0, 38.38446319522336, 1332.23464201577, -177.1796303507872, 180.16968036536127, 0.01600000075995922, -0.19200000911951065, 1.0400000493973494, 0.0, 0.0, 0.0, 0.0, 0.0, 1.7103878697009368E9, 0.0, 2024-03-13 20:44:29.700
28.0, 274.691911845468, 1575.1804130873643, 28.445679062977433, -11.634828762151301, 0.01600000075995922, -0.19200000911951065, 1.0400000493973494, 0.0, 0.0, 0.0, 0.0, 0.0, 1.7103878697017045E9, 0.0, 2024-03-13 20:44:29.701
28.0, 128.7853249241598, 1674.2092240140773, -133.6696342662908, 81.57095793355256, 0.01600000075995922, -0.19200000911951065, 1.0400000493973494, 0.0, 0.0, 0.0, 0.0, 0.0, 1.7103878697017045E9, 0.0, 2024-03-13 20:44:29.701
29.0, 157.77328948071226, 1546.1924485308118, -70.73085791198537, -104.67231995984912, 0.01600000075995922, -0.19200000911951065, 1.0400000493973494, 0.0, 0.0, 0.0, 0.0, 0.0, 1.7103878697156522E9, 0.0, 2024-03-13 20:44:29.715
29.0, 295.0332277044654, 1529.7331488258205, 70.74394756183028, -73.52456317888573, 0.01600000075995922, -0.19200000911951065, 1.0400000493973494, 0.0, 0.0, 0.0, 0.0, 0.0, 1.7103878697156522E9, 0.0, 2024-03-13 20:44:29.715
30.0, 468.1905956529081, 1473.9170119371265, 204.00406278297305, -104.42548656277359, 0.01600000075995922, -0.19200000911951065, 1.0400000493973494, 0.0, 0.0, 0.0, 0.0, 0.0, 1.71038786973097E9, 0.0, 2024-03-13 20:44:29.730
30.0, 231.35956100886688, 1710.297388636507, -17.272727945353836, 69.17318958044052, 0.01600000075995922, -0.19200000911951065, 1.0400000493973494, 0.0, 0.0, 0.0, 0.0, 0.0, 1.71038786973097E9, 0.0, 2024-03-13 20:44:29.730
31.0, 387.2142818123102, 1625.6185738397762, 172.3383298581466, 0.12715659849345684, 0.01600000075995922, -0.20800000987946987, 1.0400000493973494, 0.0, 0.0, 0.0, 0.0, 0.0, 1.7103878697318447E9, 0.0, 2024-03-13 20:44:29.731
31.0, 345.9070868017152, 1734.5319403493777, 69.95108877122402, 160.78577889502048, 0.01600000075995922, -0.20800000987946987, 1.0400000493973494, 0.0, 0.0, 0.0, 0.0, 0.0, 1.7103878697318447E9, 0.0, 2024-03-13 20:44:29.731
32.0, 213.02283152611926, 1758.1120095700026, -35.9236090243794, 141.9722121679224, 0.01600000075995922, -0.20800000987946987, 1.0400000493973494, 0.0, 0.0, 0.0, 0.0, 0.0, 1.7103878697453089E9, 0.0, 2024-03-13 20:44:29.745
32.0, 53.44878021674231, 1829.9461379689164, -169.57267384091392, 191.36320093274117, 0.01600000075995922, -0.20800000987946987, 1.0400000493973494, 0.0, 0.0, 0.0, 0.0, 0.0, 1.7103878697453089E9, 0.0, 2024-03-13 20:44:29.745
33.0, 262.28666369244456, 2047.378311542794, 20.05334356240928, -27.046956479549408, 0.01600000075995922, -0.20800000987946987, 1.0400000493973494, 0.0, 0.0, 0.0, 0.0, 0.0, 1.710387869761175E9, 0.0, 2024-03-13 20:44:29.761
33.0, 118.47816064627841, 2150.6369493193924, -151.87546725058928, 65.3659714255482, 0.01600000075995922, -0.20800000987946987, 1.0400000493973494, 0.0, 0.0, 0.0, 0.0, 0.0, 1.710387869761175E9, 0.0, 2024-03-13 20:44:29.761
34.0, 150.11771427141502, 2036.7233365690336, -70.5326432143338, -108.0494496198371, 0.01600000075995922, -0.20800000987946987, 1.0400000493973494, 0.0, 0.0, 0.0, 0.0, 0.0, 1.7103878697618704E9, 0.0, 2024-03-13 20:44:29.761
34.0, 283.33856054302305, 2015.4844447206706, 56.81282022688538, -83.24830306367949, 0.01600000075995922, -0.20800000987946987, 1.0400000493973494, 0.0, 0.0, 0.0, 0.0, 0.0, 1.7103878697618704E9, 0.0, 2024-03-13 20:44:29.761
35.0, 476.16780225839466, 1969.1152951200493, 210.33945330791175, -102.35358198732138, 0.01600000075995922, -0.20800000987946987, 1.0400000493973494, 0.0, 0.0, 0.0, 0.0, 0.0, 1.710387869775392E9, 0.0, 2024-03-13 20:44:29.775
35.0, 248.79123470233753, 2203.6444213413633, -20.414243908133358, 67.16112340427935, 0.01600000075995922, -0.20800000987946987, 1.0400000493973494, 0.0, 0.0, 0.0, 0.0, 0.0, 1.710387869775392E9, 0.0, 2024-03-13 20:44:29.775
36.0, 392.56981854885817, 2125.192539970856, 163.53086546249688, -2.3037783727049828, 0.01600000075995922, -0.20800000987946987, 1.0400000493973494, 0.0, 0.0, 0.0, 0.0, 0.0, 1.7103878697911763E9, 0.0, 2024-03-13 20:44:29.791
36.0, 326.781238428317, 2211.4608122487552, 64.16920343972743, 147.94670234713703, 0.01600000075995922, -0.20800000987946987, 1.0400000493973494, 0.0, 0.0, 0.0, 0.0, 0.0, 1.7103878697911763E9, 0.0, 2024-03-13 20:44:29.791
37.0, 213.21356642385945, 2245.942689840216, -52.682100725825876, 132.59254307905212, 0.01600000075995922, -0.20800000987946987, 1.0400000493973494, 0.0, 0.0, 0.0, 0.0, 0.0, 1.7103878697918444E9, 0.0, 2024-03-13 20:44:29.791
37.0, 33.4777144533582, 2307.9782803552225, -190.46375499339774, 175.03853762615472, 0.01600000075995922, -0.20800000987946987, 1.0400000493973494, 0.0, 0.0, 0.0, 0.0, 0.0, 1.7103878697918444E9, 0.0, 2024-03-13 20:44:29.791
38.0, -191.48848758125678, 2071.8821360524744, 51.15809149388224, -3.0704578636214137, 0.01600000075995922, -0.20800000987946987, 1.0400000493973494, 0.0, 0.0, 0.0, 0.0, 0.0, 1.7103878698052757E9, 0.0, 2024-03-13 20:44:29.805
38.0, -371.12897210288793, 2151.22037371248, -159.95739105483517, 63.61569824628532, 0.01600000075995922, -0.20800000987946987, 1.0400000493973494, 0.0, 0.0, 0.0, 0.0, 0.0, 1.7103878698052757E9, 0.0, 2024-03-13 20:44:29.805
39.0, -330.16958778817207, 2031.9250449258834, -77.19714493537322, -106.47869163844734, 0.01600000075995922, -0.20800000987946987, 1.0400000493973494, 0.0, 0.0, 0.0, 0.0, 0.0, 1.7103878698209467E9, 0.0, 2024-03-13 20:44:29.820
39.0, -202.54737175023183, 2012.7318783532828, 57.81885331496596, -81.25119648734108, 0.01600000075995922, -0.20800000987946987, 1.0400000493973494, 0.0, 0.0, 0.0, 0.0, 0.0, 1.7103878698209467E9, 0.0, 2024-03-13 20:44:29.820
40.0, -6.8234474691562355, 1970.4392197043635, 211.5773601932451, -96.25006525963545, 0.01600000075995922, -0.20800000987946987, 1.0400000493973494, 0.0, 0.0, 0.0, 0.0, 0.0, 1.7103878698219993E9, 0.0, 2024-03-13 20:44:29.821
40.0, 235.44353176048025, 2211.37853444973, -6.109126577619463, 78.99416686408222, 0.01600000075995922, -0.20800000987946987, 1.0400000493973494, 0.0, 0.0, 0.0, 0.0, 0.0, 1.7103878698219993E9, 0.0, 2024-03-13 20:44:29.821
41.0, 404.9264480024576, 2134.5684691597708, 183.5281105255708, 9.66764138545841, 0.01600000075995922, -0.19200000911951065, 1.0400000493973494, 0.0, 0.0, 0.0, 0.0, 0.0, 1.7103878698352976E9, 0.0, 2024-03-13 20:44:29.835
41.0, 345.03569011203945, 2227.3292077607475, 74.42774901818484, 157.23661383707076, 0.01600000075995922, -0.19200000911951065, 1.0400000493973494, 0.0, 0.0, 0.0, 0.0, 0.0, 1.7103878698352976E9, 0.0, 2024-03-13 20:44:29.835
42.0, 220.6372678359039, 2255.086745231878, -40.45636777067557, 142.73141185892746, 0.01600000075995922, -0.19200000911951065, 1.0400000493973494, 0.0, 0.0, 0.0, 0.0, 0.0, 1.7103878698510437E9, 0.0, 2024-03-13 20:44:29.851
42.0, 44.94050781754777, 2322.8032437795773, -191.35759108280763, 179.51893777307123, 0.01600000075995922, -0.19200000911951065, 1.0400000493973494, 0.0, 0.0, 0.0, 0.0, 0.0, 1.7103878698510437E9, 0.0, 2024-03-13 20:44:29.851
43.0, 269.8038626033813, 2544.985090297181, 15.636521714739501, -28.251204265281558, 0.01600000075995922, -0.19200000911951065, 1.0400000493973494, 0.0, 0.0, 0.0, 0.0, 0.0, 1.7103878698517015E9, 0.0, 2024-03-13 20:44:29.851
43.0, 121.96000750502571, 2647.3386722845025, -160.64179274672642, 66.70485560968518, 0.01600000075995922, -0.19200000911951065, 1.0400000493973494, 0.0, 0.0, 0.0, 0.0, 0.0, 1.7103878698517015E9, 0.0, 2024-03-13 20:44:29.851
44.0, 175.19000357436016, 2542.1053673313, -67.76511724712327, -92.53634460363537, 0.01600000075995922, -0.19200000911951065, 1.0400000493973494, 0.0, 0.0, 0.0, 0.0, 0.0, 1.7103878698653529E9, 0.0, 2024-03-13 20:44:29.865
44.0, 298.12986486777663, 2517.489345822949, 60.70231618080288, -79.10823381273076, 0.01600000075995922, -0.19200000911951065, 1.0400000493973494, 0.0, 0.0, 0.0, 0.0, 0.0, 1.7103878698653529E9, 0.0, 2024-03-13 20:44:29.865
45.0, 476.7100877519697, 2458.004367077723, 199.83033443242311, -105.95510564465076, 0.01600000075995922, -0.19200000911951065, 1.0400000493973494, 0.0, 0.0, 0.0, 0.0, 0.0, 1.710387869880972E9, 0.0, 2024-03-13 20:44:29.880
45.0, 241.2777756913565, 2701.699988090433, -4.452350897248834, 83.83359740674496, 0.01600000075995922, -0.19200000911951065, 1.0400000493973494, 0.0, 0.0, 0.0, 0.0, 0.0, 1.710387869880972E9, 0.0, 2024-03-13 20:44:29.880
46.0, 376.3349128412083, 2600.958302984014, 157.1505961380899, -9.207633690908551, 0.01600000075995922, -0.19200000911951065, 1.0400000493973494, 0.0, 0.0, 0.0, 0.0, 0.0, 1.7103878698817208E9, 0.0, 2024-03-13 20:44:29.881
46.0, 336.9425466079265, 2710.4550938867033, 68.65334348659962, 149.28184663131833, 0.01600000075995922, -0.19200000911951065, 1.0400000493973494, 0.0, 0.0, 0.0, 0.0, 0.0, 1.7103878698817208E9, 0.0, 2024-03-13 20:44:29.881
47.0, 229.48213123111054, 2748.0710076410323, -35.31774523155764, 147.36140800407156, 0.01600000075995922, -0.19200000911951065, 1.0400000493973494, 0.0, 0.0, 0.0, 0.0, 0.0, 1.710387869895324E9, 0.0, 2024-03-13 20:44:29.895
47.0, 31.61524427542463, 2801.228075661231, -190.01122709875926, 172.671180954203, 0.01600000075995922, -0.19200000911951065, 1.0400000493973494, 0.0, 0.0, 0.0, 0.0, 0.0, 1.710387869895324E9, 0.0, 2024-03-13 20:44:29.895
48.0, 271.9842242775485, 3041.5259975641966, 24.95261250436306, -20.790103853680193, 0.01600000075995922, -0.19200000911951065, 1.0400000493973494, 0.0, 0.0, 0.0, 0.0, 0.0, 1.7103878699109724E9, 0.0, 2024-03-13 20:44:29.910
48.0, 128.58711022650823, 3141.6057203784585, -152.71320484066382, 64.83116573188454, 0.01600000075995922, -0.19200000911951065, 1.0400000493973494, 0.0, 0.0, 0.0, 0.0, 0.0, 1.7103878699109724E9, 0.0, 2024-03-13 20:44:29.910
49.0, 166.5844937763177, 3023.46602067817, -69.38823382789269, -97.8619621405378, 0.01600000075995922, -0.19200000911951065, 1.0400000493973494, 0.0, 0.0, 0.0, 0.0, 0.0, 1.7103878699116879E9, 0.0, 2024-03-13 20:44:29.911
49.0, 283.88832583650947, 3000.308560152538, 58.3237398089841, -83.29318186314777, 0.01600000075995922, -0.19200000911951065, 1.0400000493973494, 0.0, 0.0, 0.0, 0.0, 0.0, 1.7103878699116879E9, 0.0, 2024-03-13 20:44:29.911
50.0, 475.6629157643765, 2941.1003340040334, 189.18283925857395, -115.36095403321087, 0.01600000075995922, -0.19200000911951065, 1.0400000493973494, 0.0, 0.0, 0.0, 0.0, 0.0, 1.7103878699252608E9, 0.0, 2024-03-13 20:44:29.925
50.0, 242.56804117606953, 2702.2160942843184, -7.822000757325441, 81.20818763785064, 0.01600000075995922, -0.19200000911951065, 1.0400000493973494, 0.0, 0.0, 0.0, 0.0, 0.0, 1.7103878699252608E9, 0.0, 2024-03-13 20:44:29.925
51.0, 412.21925291605294, 2619.870977059938, 170.80871077626944, 5.759445931762457, 0.01600000075995922, -0.19200000911951065, 1.0400000493973494, 0.0, 0.0, 0.0, 0.0, 0.0, 1.710387869941236E9, 0.0, 2024-03-13 20:44:29.941
51.0, 336.28432421572506, 2712.182927666232, 66.4393227128312, 151.1106577096507, 0.01600000075995922, -0.19200000911951065, 1.0400000493973494, 0.0, 0.0, 0.0, 0.0, 0.0, 1.710387869941236E9, 0.0, 2024-03-13 20:44:29.941
52.0, 225.32710238033906, 2744.2824889859185, -47.33404378918931, 139.99754499131814, 0.01600000075995922, -0.19200000911951065, 1.0400000493973494, 0.0, 0.0, 0.0, 0.0, 0.0, 1.7103878699418073E9, 0.0, 2024-03-13 20:44:29.941
52.0, 42.281438949052244, 2813.1695762197487, -180.85595200723037, 186.37417439185083, 0.01600000075995922, -0.19200000911951065, 1.0400000493973494, 0.0, 0.0, 0.0, 0.0, 0.0, 1.7103878699418073E9, 0.0, 2024-03-13 20:44:29.941
53.0, -200.965394068975, 3043.8559552365914, 27.088095379061997, -17.996398586779833, 0.01600000075995922, -0.19200000911951065, 1.0400000493973494, 0.0, 0.0, 0.0, 0.0, 0.0, 1.7103878699555824E9, 0.0, 2024-03-13 20:44:29.955
53.0, -352.85956081934273, 3157.952823084779, -149.201438782271, 81.17452853824943, 0.01600000075995922, -0.19200000911951065, 1.0400000493973494, 0.0, 0.0, 0.0, 0.0, 0.0, 1.7103878699555824E9, 0.0, 2024-03-13 20:44:29.955
54.0, -322.95158087369055, 3031.918194578029, -72.14827999519184, -87.79789135977626, 0.01600000075995922, -0.19200000911951065, 1.0400000493973494, 0.0, 0.0, 0.0, 0.0, 0.0, 1.710387869970906E9, 0.0, 2024-03-13 20:44:29.970
54.0, -188.63868381502107, 3012.4108764091507, 60.86687177885324, -70.39426691597328, 0.01600000075995922, -0.19200000911951065, 1.0400000493973494, 0.0, 0.0, 0.0, 0.0, 0.0, 1.710387869970906E9, 0.0, 2024-03-13 20:44:29.970
55.0, -18.25632163370028, 2939.753970019985, 195.93709857854992, -110.43924569152296, 0.01600000075995922, -0.19200000911951065, 1.0400000493973494, 0.0, 0.0, 0.0, 0.0, 0.0, 1.7103878699716372E9, 0.0, 2024-03-13 20:44:29.971
55.0, -241.8929892340675, 2703.30814507138, -6.045548278372735, 87.03121186885983, 0.01600000075995922, -0.19200000911951065, 1.0400000493973494, 0.0, 0.0, 0.0, 0.0, 0.0, 1.7103878699716372E9, 0.0, 2024-03-13 20:44:29.971
56.0, -89.17604449344799, 2621.4566946411505, 176.88604820426553, 11.963939958252013, 0.01600000075995922, -0.19200000911951065, 1.0400000493973494, 0.0, 0.0, 0.0, 0.0, 0.0, 1.7103878699852753E9, 0.0, 2024-03-13 20:44:29.985
56.0, -143.42703325068578, 2716.4838126152754, 87.16958816722035, 166.0440782327205, 0.01600000075995922, -0.19200000911951065, 1.0400000493973494, 0.0, 0.0, 0.0, 0.0, 0.0, 1.7103878699852753E9, 0.0, 2024-03-13 20:44:29.985
57.0, -266.9690184369683, 2751.3284605024382, -37.24753360869363, 151.10504785971716, 0.01600000075995922, -0.19200000911951065, 1.0400000493973494, 0.0, 0.0, 0.0, 0.0, 0.0, 1.7103878700009449E9, 0.0, 2024-03-13 20:44:30.000
57.0, -433.312288666144, 2821.004666626919, -180.74749490851536, 189.92707934975624, 0.01600000075995922, -0.19200000911951065, 1.0400000493973494, 0.0, 0.0, 0.0, 0.0, 0.0, 1.7103878700009449E9, 0.0, 2024-03-13 20:44:30.000
58.0, -209.83643676387146, 3041.447459665127, 27.263870676979423, -15.505625216290355, 0.01600000075995922, -0.19200000911951065, 1.0400000493973494, 0.0, 0.0, 0.0, 0.0, 0.0, 1.7103878700016592E9, 0.0, 2024-03-13 20:44:30.001
58.0, -349.6918655568734, 3148.82372729294, -142.64913405990228, 80.49386674631387, 0.01600000075995922, -0.19200000911951065, 1.0400000493973494, 0.0, 0.0, 0.0, 0.0, 0.0, 1.7103878700016592E9, 0.0, 2024-03-13 20:44:30.001
59.0, -317.61848353687674, 3038.074069905095, -55.61792219104245, -79.6673488561064, 0.01600000075995922, -0.19200000911951065, 1.0400000493973494, 0.0, 0.0, 0.0, 0.0, 0.0, 1.7103878700153408E9, 0.0, 2024-03-13 20:44:30.015
59.0, -190.98734098719433, 3007.2722538700327, 69.55839927587658, -66.18313956586644, 0.01600000075995922, -0.19200000911951065, 1.0400000493973494, 0.0, 0.0, 0.0, 0.0, 0.0, 1.7103878700153408E9, 0.0, 2024-03-13 20:44:30.015
60.0, -13.027941495645791, 2941.2200108026154, 193.86145410314202, -108.85352811031044, 0.01600000075995922, -0.19200000911951065, 1.0400000493973494, 0.0, 0.0, 0.0, 0.0, 0.0, 1.7103878700310307E9, 0.0, 2024-03-13 20:44:30.031
60.0, -249.87019583955407, 2703.536278968677, -15.683270464185625, 84.73117339611053, 0.01600000075995922, -0.19200000911951065, 1.0400000493973494, 0.0, 0.0, 0.0, 0.0, 0.0, 1.7103878700310307E9, 0.0, 2024-03-13 20:44:30.031
61.0, -72.32031539315358, 2632.9045284055173, 175.1619543246925, 16.15262790862471, 0.01600000075995922, -0.19200000911951065, 1.0400000493973494, 0.0, 0.0, 0.0, 0.0, 0.0, 1.7103878700316675E9, 0.0, 2024-03-13 20:44:30.031
61.0, -146.43765271501616, 2715.5413578264415, 67.30323960259557, 156.54473234526813, 0.01600000075995922, -0.19200000911951065, 1.0400000493973494, 0.0, 0.0, 0.0, 0.0, 0.0, 1.7103878700316675E9, 0.0, 2024-03-13 20:44:30.031
62.0, -263.6891261758283, 2745.423158472404, -44.97790681710467, 144.72851843526587, 0.01600000075995922, -0.19200000911951065, 1.0400000493973494, 0.0, 0.0, 0.0, 0.0, 0.0, 1.7103878700456185E9, 0.0, 2024-03-13 20:44:30.045
62.0, -442.5423617567867, 2815.394816693384, -175.13016517506912, 194.60943409428, 0.01600000075995922, -0.19200000911951065, 1.0400000493973494, 0.0, 0.0, 0.0, 0.0, 0.0, 1.7103878700456185E9, 0.0, 2024-03-13 20:44:30.045
63.0, -207.62615589005873, 3039.035224193707, 29.37691415194422, -12.704440149478614, 0.01600000075995922, -0.19200000911951065, 1.0400000493973494, 0.0, 0.0, 0.0, 0.0, 0.0, 1.7103878700610547E9, 0.0, 2024-03-13 20:44:30.061
63.0, -376.1067789439112, 3148.640472195111, -135.18803364830092, 85.16500179097056, 0.01600000075995922, -0.19200000911951065, 1.0400000493973494, 0.0, 0.0, 0.0, 0.0, 0.0, 1.7103878700610547E9, 0.0, 2024-03-13 20:44:30.061
64.0, -328.35573630966246, 3022.706820987165, -70.15491331880912, -94.76532497722656, 0.01600000075995922, -0.19200000911951065, 1.0400000493973494, 0.0, 0.0, 0.0, 0.0, 0.0, 1.7103878700617385E9, 0.0, 2024-03-13 20:44:30.061
64.0, -194.01292005134746, 3002.021434332244, 61.786887167952955, -75.4244323563762, 0.01600000075995922, -0.19200000911951065, 1.0400000493973494, 0.0, 0.0, 0.0, 0.0, 0.0, 1.7103878700617385E9, 0.0, 2024-03-13 20:44:30.061
65.0, -6.284901875536889, 2947.7648357250728, 197.4255787609145, -105.28192365262657, 0.01600000075995922, -0.19200000911951065, 1.0400000493973494, 0.0, 0.0, 0.0, 0.0, 0.0, 1.710387870075524E9, 0.0, 2024-03-13 20:44:30.075
65.0, -249.13343554828316, 2708.289691812359, -14.25836858106777, 83.45212761126459, 0.01600000075995922, -0.19200000911951065, 1.0400000493973494, 0.0, 0.0, 0.0, 0.0, 0.0, 1.710387870075524E9, 0.0, 2024-03-13 20:44:30.075
66.0, -83.82798755681142, 2627.601350268349, 183.61786812450737, 16.04043090995401, 0.01600000075995922, -0.19200000911951065, 1.0400000493973494, 0.0, 0.0, 0.0, 0.0, 0.0, 1.7103878700912187E9, 0.0, 2024-03-13 20:44:30.091
66.0, -155.49195050774142, 2708.745959606953, 65.78484022058547, 149.6296573271975, 0.01600000075995922, -0.19200000911951065, 1.0400000493973494, 0.0, 0.0, 0.0, 0.0, 0.0, 1.7103878700912187E9, 0.0, 2024-03-13 20:44:30.091
67.0, -259.7584913223982, 2756.1117925457656, -34.49122734135017, 152.38596359454095, 0.01600000075995922, -0.19200000911951065, 1.0400000493973494, 0.0, 0.0, 0.0, 0.0, 0.0, 1.7103878700917528E9, 0.0, 2024-03-13 20:44:30.091
67.0, -422.77325059100986, 2832.3702225922607, -167.11929946998134, 199.65268918452784, 0.01600000075995922, -0.19200000911951065, 1.0400000493973494, 0.0, 0.0, 0.0, 0.0, 0.0, 1.7103878700917528E9, 0.0, 2024-03-13 20:44:30.091
68.0, -227.89641364989802, 3033.668467757292, 17.080123097635806, -29.18430930422619, 0.01600000075995922, -0.19200000911951065, 1.0400000493973494, 0.0, 0.0, 0.0, 0.0, 0.0, 1.7103878701052756E9, 0.0, 2024-03-13 20:44:30.105
