%OpenBCI Raw EXG Data
%Number of channels = 4
%Sample Rate = 200 Hz
%Board = OpenBCI_GUI$BoardGanglionBLE
Sample Index, EXG Channel 0, EXG Channel 1, EXG Channel 2, EXG Channel 3, Accel Channel 0, Accel Channel 1, Accel Channel 2, Other, Other, Other, Other, Other, Timestamp, Other, Timestamp (Formatted)
0.0, -818.9632922969759, -408.20634026359767, -520.2443931861781, -460.08249254897237, 0.0, 0.0, 0.0, 0.0, 0.0, 0.0, 0.0, 0.0, 1.7103949330200725E9, 0.0, 2024-03-13 22:42:13.020
1.0, -805.4285943573341, -397.73088048771024, -515.2628464451991, -451.30868725292385, 0.0, 0.6240000296384096, 0.0, 0.0, 0.0, 0.0, 0.0, 0.0, 1.7103949330334556E9, 0.0, 2024-03-13 22:42:13.033
1.0, -781.0107875466347, -376.2563749421388, -495.1122654839419, -432.7326041730121, 0.0, 0.6240000296384096, 0.0, 0.0, 0.0, 0.0, 0.0, 0.0, 1.7103949330334556E9, 0.0, 2024-03-13 22:42:13.033
2.0, -798.4836001396179, -385.8043395290151, -489.82030704664066, -438.14797930885106, 0.800000037997961, 0.6240000296384096, 0.0, 0.0, 0.0, 0.0, 0.0, 0.0, 1.7103949330505712E9, 0.0, 2024-03-13 22:42:13.050
2.0, -808.1699410248548, -397.02029949612916, -512.5962977767922, -458.01806777343154, 0.800000037997961, 0.6240000296384096, 0.0, 0.0, 0.0, 0.0, 0.0, 0.0, 1.7103949330505712E9, 0.0, 2024-03-13 22:42:13.050
3.0, -792.2978056129068, -377.05297363270074, -498.2986602461897, -438.04326211009175, 0.800000037997961, 0.6240000296384096, 0.0, 0.0, 0.0, 0.0, 0.0, 0.0, 1.710394933064114E9, 0.0, 2024-03-13 22:42:13.064
3.0, -792.9485482051969, -380.71807558927685, -491.3648857283406, -438.85108050052077, 0.800000037997961, 0.6240000296384096, 0.0, 0.0, 0.0, 0.0, 0.0, 0.0, 1.710394933064114E9, 0.0, 2024-03-13 22:42:13.064
4.0, -824.1580133354291, -416.3481024671346, -512.2335274810903, -467.46879496145993, 0.800000037997961, 0.6240000296384096, 0.0, 0.0, 0.0, 0.0, 0.0, 0.0, 1.710394933064967E9, 0.0, 2024-03-13 22:42:13.064
4.0, -806.7039002422243, -402.521692330949, -514.1483562584035, -459.64866415411234, 0.800000037997961, 0.6240000296384096, 0.0, 0.0, 0.0, 0.0, 0.0, 0.0, 1.710394933064967E9, 0.0, 2024-03-13 22:42:13.064
5.0, -786.2728267842904, -389.1403302894905, -493.15629780711606, -442.00007626321167, 0.800000037997961, 0.6240000296384096, 0.0, 0.0, 0.0, 0.0, 0.0, 0.0, 1.710394933078954E9, 0.0, 2024-03-13 22:42:13.078
5.0, -790.6933885319158, -385.5238470323384, -493.2797145056538, -437.63935291487724, 0.800000037997961, 0.6240000296384096, 0.0, 0.0, 0.0, 0.0, 0.0, 0.0, 1.710394933078954E9, 0.0, 2024-03-13 22:42:13.078
6.0, -795.6375362733379, -389.7087950827554, -505.46804846124724, -451.2600685534999, 0.800000037997961, 0.6240000296384096, 0.0, 0.0, 0.0, 0.0, 0.0, 0.0, 1.710394933079894E9, 0.0, 2024-03-13 22:42:13.079
6.0, -796.3032384654507, -392.72315444704145, -512.4167825789191, -454.0762132201344, 0.800000037997961, 0.6240000296384096, 0.0, 0.0, 0.0, 0.0, 0.0, 0.0, 1.710394933079894E9, 0.0, 2024-03-13 22:42:13.079
7.0, -789.6836155438796, -389.2562671881169, -499.5066479318775, -445.90079191699624, 0.800000037997961, 0.6240000296384096, 0.0, 0.0, 0.0, 0.0, 0.0, 0.0, 1.710394933093288E9, 0.0, 2024-03-13 22:42:13.093
7.0, -788.0081403637305, -383.6613768544048, -502.6668633944355, -448.1783909900114, 0.800000037997961, 0.6240000296384096, 0.0, 0.0, 0.0, 0.0, 0.0, 0.0, 1.710394933093288E9, 0.0, 2024-03-13 22:42:13.093
8.0, -795.8918494703248, -387.4162364099175, -516.1342431348749, -448.8478330820799, 0.800000037997961, 0.6240000296384096, 0.0, 0.0, 0.0, 0.0, 0.0, 0.0, 1.7103949331097784E9, 0.0, 2024-03-13 22:42:13.109
8.0, -797.3653700528666, -397.39802939165384, -503.5158206843771, -450.6616845605895, 0.800000037997961, 0.6240000296384096, 0.0, 0.0, 0.0, 0.0, 0.0, 0.0, 1.7103949331097784E9, 0.0, 2024-03-13 22:42:13.109
9.0, -823.0173438489437, -425.78387005534023, -528.7938044848852, -479.02134592458606, 0.800000037997961, 0.6240000296384096, 0.0, 0.0, 0.0, 0.0, 0.0, 0.0, 1.71039493310988E9, 0.0, 2024-03-13 22:42:13.109
9.0, -804.4637001687661, -397.6261632889509, -521.7777521680109, -460.46022244449705, 0.800000037997961, 0.6240000296384096, 0.0, 0.0, 0.0, 0.0, 0.0, 0.0, 1.71039493310988E9, 0.0, 2024-03-13 22:42:13.109
10.0, -794.2575131896883, -394.899776221253, -516.807425126899, -455.71428940072656, 0.800000037997961, 0.6240000296384096, 0.27200001291930676, 0.0, 0.0, 0.0, 0.0, 0.0, 1.7103949331235063E9, 0.0, 2024-03-13 22:42:13.123
10.0, -812.231472376734, -407.9819462662563, -514.7168210516684, -472.6597760999575, 0.800000037997961, 0.6240000296384096, 0.27200001291930676, 0.0, 0.0, 0.0, 0.0, 0.0, 1.7103949331235063E9, 0.0, 2024-03-13 22:42:13.123
11.0, -827.9203526908532, -432.0519423810765, -547.0407763686962, -493.4648395534605, 0.800000037997961, 0.6240000296384096, 0.27200001291930676, 0.0, 0.0, 0.0, 0.0, 0.0, 1.7103949331393037E9, 0.0, 2024-03-13 22:42:13.139
11.0, -820.1824996825308, -417.5598300527781, -536.7298721908592, -480.5285256067291, 0.800000037997961, 0.6240000296384096, 0.27200001291930676, 0.0, 0.0, 0.0, 0.0, 0.0, 1.7103949331393037E9, 0.0, 2024-03-13 22:42:13.139
12.0, -823.653126841411, -427.99415092915297, -536.7859706901945, -480.2742124097422, 0.800000037997961, 0.6240000296384096, 0.27200001291930676, 0.0, 0.0, 0.0, 0.0, 0.0, 1.7103949331398163E9, 0.0, 2024-03-13 22:42:13.139
12.0, -824.5955816302449, -418.84635563753545, -521.7216536686756, -478.72215392813087, 0.800000037997961, 0.6240000296384096, 0.27200001291930676, 0.0, 0.0, 0.0, 0.0, 0.0, 1.7103949331398163E9, 0.0, 2024-03-13 22:42:13.139
13.0, -808.9403604157269, -406.6655014818534, -519.9115420901217, -461.49617473222315, 0.800000037997961, 0.6240000296384096, 0.27200001291930676, 0.0, 0.0, 0.0, 0.0, 0.0, 1.710394933153242E9, 0.0, 2024-03-13 22:42:13.153
13.0, -811.1805604891852, -405.10596320033073, -510.97692109597847, -458.5902724666521, 0.800000037997961, 0.6240000296384096, 0.27200001291930676, 0.0, 0.0, 0.0, 0.0, 0.0, 1.710394933153242E9, 0.0, 2024-03-13 22:42:13.153
14.0, -804.3290637703612, -405.0124657014385, -502.3265324984677, -460.7818538406864, 0.800000037997961, 0.6240000296384096, 0.27200001291930676, 0.0, 0.0, 0.0, 0.0, 0.0, 1.7103949331688879E9, 0.0, 2024-03-13 22:42:13.168
14.0, -800.7761588124558, -390.4044164745137, -503.9683485790156, -450.5494875619188, 0.800000037997961, 0.6240000296384096, 0.27200001291930676, 0.0, 0.0, 0.0, 0.0, 0.0, 1.7103949331688879E9, 0.0, 2024-03-13 22:42:13.168
15.0, -792.4324420113117, -391.27207326423377, -505.1164978654124, -448.4738430865109, 0.800000037997961, 0.6240000296384096, 0.27200001291930676, 0.0, 0.0, 0.0, 0.0, 0.0, 1.71039493316971E9, 0.0, 2024-03-13 22:42:13.169
15.0, -802.0140656977892, -401.54931834246963, -504.31989917485043, -460.2208688473329, 0.800000037997961, 0.6240000296384096, 0.27200001291930676, 0.0, 0.0, 0.0, 0.0, 0.0, 1.71039493316971E9, 0.0, 2024-03-13 22:42:13.169
16.0, -809.4901257092133, -405.042384901084, -513.2171211694367, -462.31521282251924, 0.800000037997961, 0.6240000296384096, 0.27200001291930676, 0.0, 0.0, 0.0, 0.0, 0.0, 1.710394933183247E9, 0.0, 2024-03-13 22:42:13.183
16.0, -803.9849929744378, -393.1831621415913, -507.8204455333762, -447.96521669253707, 0.800000037997961, 0.6240000296384096, 0.27200001291930676, 0.0, 0.0, 0.0, 0.0, 0.0, 1.710394933183247E9, 0.0, 2024-03-13 22:42:13.183
17.0, -814.6287482483312, -410.8953283317387, -506.8106725453399, -462.02350062597543, 0.800000037997961, 0.6240000296384096, 0.27200001291930676, 0.0, 0.0, 0.0, 0.0, 0.0, 1.7103949331989088E9, 0.0, 2024-03-13 22:42:13.198
17.0, -820.7285250760615, -415.6524810753763, -520.4164285841398, -472.24838710483164, 0.800000037997961, 0.6240000296384096, 0.27200001291930676, 0.0, 0.0, 0.0, 0.0, 0.0, 1.7103949331989088E9, 0.0, 2024-03-13 22:42:13.198
18.0, -802.5451314914972, -394.5557054253295, -517.4282485195436, -454.9924887092784, 0.800000037997961, 0.6240000296384096, 0.27200001291930676, 0.0, 0.0, 0.0, 0.0, 0.0, 1.710394933199652E9, 0.0, 2024-03-13 22:42:13.199
18.0, -785.2967128958553, -386.83655191678554, -505.8869172562845, -451.0020154565573, 0.800000037997961, 0.6240000296384096, 0.27200001291930676, 0.0, 0.0, 0.0, 0.0, 0.0, 1.710394933199652E9, 0.0, 2024-03-13 22:42:13.199
19.0, -795.7310337722301, -392.02005325537175, -500.7856937167235, -450.74396235961467, 0.800000037997961, 0.6240000296384096, 0.27200001291930676, 0.0, 0.0, 0.0, 0.0, 0.0, 1.7103949332132237E9, 0.0, 2024-03-13 22:42:13.213
19.0, -785.9885943876579, -384.19618254806846, -496.38757136883214, -440.93046487588435, 0.800000037997961, 0.6240000296384096, 0.27200001291930676, 0.0, 0.0, 0.0, 0.0, 0.0, 1.7103949332132237E9, 0.0, 2024-03-13 22:42:13.213
20.0, -806.5281249443069, -397.72340068779886, -522.5032927594148, -457.01203468535095, 0.800000037997961, 0.6240000296384096, 0.27200001291930676, 0.0, 0.0, 0.0, 0.0, 0.0, 1.7103949332289388E9, 0.0, 2024-03-13 22:42:13.228
20.0, -813.1215685661882, -401.014512648806, -510.91334279673174, -458.4032774688676, 0.800000037997961, 0.6240000296384096, 0.27200001291930676, 0.0, 0.0, 0.0, 0.0, 0.0, 1.7103949332289388E9, 0.0, 2024-03-13 22:42:13.228
21.0, -801.1314493082464, -402.3833160325885, -507.7755667339079, -454.52500121481717, 0.800000037997961, 0.6240000296384096, 0.27200001291930676, 0.0, 0.0, 0.0, 0.0, 0.0, 1.7103949332296593E9, 0.0, 2024-03-13 22:42:13.229
21.0, -784.0513262106106, -380.4301032926887, -503.9197298795916, -441.01274267490953, 0.800000037997961, 0.6240000296384096, 0.27200001291930676, 0.0, 0.0, 0.0, 0.0, 0.0, 1.7103949332296593E9, 0.0, 2024-03-13 22:42:13.229
22.0, -810.3540425989777, -398.75935297552496, -506.7096952465363, -459.3681716574356, 0.800000037997961, 0.6240000296384096, 0.27200001291930676, 0.0, 0.0, 0.0, 0.0, 0.0, 1.7103949332433183E9, 0.0, 2024-03-13 22:42:13.243
22.0, -797.3429306531325, -397.0502186957747, -495.1870634830557, -453.7658015238121, 0.800000037997961, 0.6240000296384096, 0.27200001291930676, 0.0, 0.0, 0.0, 0.0, 0.0, 1.7103949332433183E9, 0.0, 2024-03-13 22:42:13.243
23.0, -802.4553738925606, -396.1152437068522, -516.6840084283613, -456.5482870908454, 0.800000037997961, 0.6240000296384096, 0.27200001291930676, 0.0, 0.0, 0.0, 0.0, 0.0, 1.7103949332588913E9, 0.0, 2024-03-13 22:42:13.258
23.0, -802.956520486623, -404.3056246098131, -525.9066017190926, -464.3721577981487, 0.800000037997961, 0.6240000296384096, 0.27200001291930676, 0.0, 0.0, 0.0, 0.0, 0.0, 1.7103949332588913E9, 0.0, 2024-03-13 22:42:13.258
24.0, -802.3132576942444, -403.23975312244147, -529.4856859766878, -472.8617306975648, 0.800000037997961, 0.6240000296384096, 0.27200001291930676, 0.0, 0.0, 0.0, 0.0, 0.0, 1.710394933259642E9, 0.0, 2024-03-13 22:42:13.259
24.0, -800.8060780121014, -407.2713652746752, -531.9241007477976, -472.9627079963684, 0.800000037997961, 0.6240000296384096, 0.27200001291930676, 0.0, 0.0, 0.0, 0.0, 0.0, 1.710394933259642E9, 0.0, 2024-03-13 22:42:13.259
25.0, -805.9222611514851, -410.16978774033487, -527.9972057943232, -476.5904109533876, 0.800000037997961, 0.6240000296384096, 0.27200001291930676, 0.0, 0.0, 0.0, 0.0, 0.0, 1.7103949332735655E9, 0.0, 2024-03-13 22:42:13.273
25.0, -804.983546262607, -404.608556506224, -515.4236621432938, -468.12701735366136, 0.800000037997961, 0.6240000296384096, 0.27200001291930676, 0.0, 0.0, 0.0, 0.0, 0.0, 1.7103949332735655E9, 0.0, 2024-03-13 22:42:13.273
26.0, -806.4346274454147, -404.47018020786345, -513.9538814607076, -468.11953755375, 0.800000037997961, 0.6240000296384096, 0.27200001291930676, 0.0, 0.0, 0.0, 0.0, 0.0, 1.7103949332892518E9, 0.0, 2024-03-13 22:42:13.289
26.0, -785.0984981982037, -394.6791221238673, -513.3517575678416, -457.04569378495216, 0.800000037997961, 0.6240000296384096, 0.27200001291930676, 0.0, 0.0, 0.0, 0.0, 0.0, 1.7103949332892518E9, 0.0, 2024-03-13 22:42:13.289
27.0, -810.9673861917108, -412.0771367177367, -515.9098491375335, -471.0665787188336, 0.800000037997961, 0.6240000296384096, 0.27200001291930676, 0.0, 0.0, 0.0, 0.0, 0.0, 1.7103949332898612E9, 0.0, 2024-03-13 22:42:13.289
27.0, -817.7366051115096, -425.1555668627843, -529.0144585822709, -478.35190383251756, 0.800000037997961, 0.6240000296384096, 0.27200001291930676, 0.0, 0.0, 0.0, 0.0, 0.0, 1.7103949332898612E9, 0.0, 2024-03-13 22:42:13.289
28.0, -808.2372592240572, -409.9079947434366, -533.4499799297191, -471.4817076139152, 0.800000037997961, 0.6240000296384096, 0.27200001291930676, 0.0, 0.0, 0.0, 0.0, 0.0, 1.710394933303534E9, 0.0, 2024-03-13 22:42:13.303
28.0, -805.7203065538779, -405.28173849824816, -512.5850780769251, -462.6592836184427, 0.800000037997961, 0.6240000296384096, 0.27200001291930676, 0.0, 0.0, 0.0, 0.0, 0.0, 1.710394933303534E9, 0.0, 2024-03-13 22:42:13.303
29.0, -819.8346889866516, -418.5247242413461, -515.891149637755, -475.8648703619838, 0.800000037997961, 0.6240000296384096, 0.27200001291930676, 0.0, 0.0, 0.0, 0.0, 0.0, 1.7103949333190997E9, 0.0, 2024-03-13 22:42:13.319
29.0, -810.2268860004842, -404.24952611047775, -512.3494643797167, -464.3983370978385, 0.800000037997961, 0.6240000296384096, 0.27200001291930676, 0.0, 0.0, 0.0, 0.0, 0.0, 1.7103949333190997E9, 0.0, 2024-03-13 22:42:13.319
30.0, -815.6983596356586, -412.73535910993814, -533.8389295251109, -475.38990306761116, 0.800000037997961, 0.6240000296384096, 0.27200001291930676, 0.0, 0.0, 0.0, 0.0, 0.0, 1.7103949333196769E9, 0.0, 2024-03-13 22:42:13.319
30.0, -808.4766128212214, -404.24204631056637, -506.0664324541576, -460.4714421443641, 0.800000037997961, 0.6240000296384096, 0.27200001291930676, 0.0, 0.0, 0.0, 0.0, 0.0, 1.7103949333196769E9, 0.0, 2024-03-13 22:42:13.319
31.0, -805.4024150576442, -402.20380083471537, -524.5452781352215, -466.8479715688154, 0.800000037997961, 0.6240000296384096, 0.27200001291930676, 0.0, 0.0, 0.0, 0.0, 0.0, 1.7103949333332675E9, 0.0, 2024-03-13 22:42:13.333
31.0, -797.2569129541516, -394.9670944204554, -518.3407841087319, -458.65011086594313, 0.800000037997961, 0.6240000296384096, 0.27200001291930676, 0.0, 0.0, 0.0, 0.0, 0.0, 1.7103949333332675E9, 0.0, 2024-03-13 22:42:13.333
32.0, -799.4297948284075, -395.90954920928925, -517.0355590241961, -462.7079023178667, 0.800000037997961, 0.6240000296384096, 0.27200001291930676, 0.0, 0.0, 0.0, 0.0, 0.0, 1.710394933348972E9, 0.0, 2024-03-13 22:42:13.348
32.0, -802.6386289903894, -405.61832949426025, -507.72694803448394, -466.28324667550623, 0.800000037997961, 0.6240000296384096, 0.27200001291930676, 0.0, 0.0, 0.0, 0.0, 0.0, 1.710394933348972E9, 0.0, 2024-03-13 22:42:13.348
33.0, -770.224916074425, -384.74968774151057, -503.01467409031466, -448.0961131909862, 0.800000037997961, 0.6240000296384096, 0.27200001291930676, 0.0, 0.0, 0.0, 0.0, 0.0, 1.7103949333496864E9, 0.0, 2024-03-13 22:42:13.349
33.0, -768.8897717902437, -371.19255040213466, -491.86603232240304, -435.6123271388933, 0.800000037997961, 0.6240000296384096, 0.27200001291930676, 0.0, 0.0, 0.0, 0.0, 0.0, 1.7103949333496864E9, 0.0, 2024-03-13 22:42:13.349
34.0, -791.9350353172049, -390.49417407345027, -501.69074950600043, -453.8929581223056, 0.800000037997961, 0.6240000296384096, 0.27200001291930676, 0.0, 0.0, 0.0, 0.0, 0.0, 1.710394933363212E9, 0.0, 2024-03-13 22:42:13.363
34.0, -804.1158894728869, -409.91173464339226, -525.1212227283977, -473.35165759176016, 0.800000037997961, 0.6240000296384096, 0.27200001291930676, 0.0, 0.0, 0.0, 0.0, 0.0, 1.710394933363212E9, 0.0, 2024-03-13 22:42:13.363
35.0, -795.2523265779018, -394.05081893131137, -509.17428931733593, -455.6918500009924, 0.800000037997961, 0.6240000296384096, 0.27200001291930676, 0.0, 0.0, 0.0, 0.0, 0.0, 1.7103949333791544E9, 0.0, 2024-03-13 22:42:13.379
35.0, -826.2373977107927, -418.51350454147905, -522.2414997625165, -479.3467172207311, 0.800000037997961, 0.6240000296384096, 0.27200001291930676, 0.0, 0.0, 0.0, 0.0, 0.0, 1.7103949333791544E9, 0.0, 2024-03-13 22:42:13.379
36.0, -835.7704026978463, -423.7157053798437, -536.9430464883335, -483.7410996686667, 0.800000037997961, 0.6240000296384096, 0.27200001291930676, 0.0, 0.0, 0.0, 0.0, 0.0, 1.7103949333796728E9, 0.0, 2024-03-13 22:42:13.379
36.0, -809.1871938128024, -403.20983392279595, -523.2400530506857, -464.72370839398354, 0.800000037997961, 0.6240000296384096, 0.27200001291930676, 0.0, 0.0, 0.0, 0.0, 0.0, 1.7103949333796728E9, 0.0, 2024-03-13 22:42:13.379
37.0, -822.1870860587806, -419.3026234321296, -526.5872635110281, -479.12980302330106, 0.800000037997961, 0.6240000296384096, 0.27200001291930676, 0.0, 0.0, 0.0, 0.0, 0.0, 1.7103949333932872E9, 0.0, 2024-03-13 22:42:13.393
37.0, -822.4787982553244, -419.95336602441967, -526.0187987177633, -479.3317576209083, 0.800000037997961, 0.6240000296384096, 0.27200001291930676, 0.0, 0.0, 0.0, 0.0, 0.0, 1.7103949333932872E9, 0.0, 2024-03-13 22:42:13.393
38.0, -804.2804450709373, -406.8225772799924, -532.5299645406194, -469.9371289322153, 0.800000037997961, 0.6240000296384096, 0.27200001291930676, 0.0, 0.0, 0.0, 0.0, 0.0, 1.710394933408914E9, 0.0, 2024-03-13 22:42:13.408
38.0, -797.2419533543289, -400.5619847541675, -518.2510265097953, -461.71682882960886, 0.800000037997961, 0.6240000296384096, 0.27200001291930676, 0.0, 0.0, 0.0, 0.0, 0.0, 1.710394933408914E9, 0.0, 2024-03-13 22:42:13.408
39.0, -802.5189521918073, -404.3318039095029, -520.7231003805064, -471.13389691803604, 0.800000037997961, 0.6240000296384096, 0.27200001291930676, 0.0, 0.0, 0.0, 0.0, 0.0, 1.7103949334096332E9, 0.0, 2024-03-13 22:42:13.409
39.0, -815.1336347423494, -408.7224464574829, -531.7296259501018, -475.1954282699153, 0.800000037997961, 0.6240000296384096, 0.27200001291930676, 0.0, 0.0, 0.0, 0.0, 0.0, 1.7103949334096332E9, 0.0, 2024-03-13 22:42:13.409
40.0, -804.6282557668164, -400.4572675554082, -518.6549357050098, -462.46854872070253, 0.800000037997961, 0.6240000296384096, 0.27200001291930676, 0.0, 0.0, 0.0, 0.0, 0.0, 1.7103949334236767E9, 0.0, 2024-03-13 22:42:13.423
40.0, -812.3661087751389, -408.6700878581032, -506.35066485079005, -465.20615548826754, 0.800000037997961, 0.6240000296384096, 0.27200001291930676, 0.0, 0.0, 0.0, 0.0, 0.0, 1.7103949334236767E9, 0.0, 2024-03-13 22:42:13.423
41.0, -829.3676939737052, -416.6398146636784, -536.913127288688, -476.2650396572426, 0.800000037997961, 0.6240000296384096, 0.27200001291930676, 0.0, 0.0, 0.0, 0.0, 0.0, 1.7103949334391913E9, 0.0, 2024-03-13 22:42:13.439
41.0, -802.0514646973461, -395.4158824151382, -523.5953435464762, -465.3781908862293, 0.800000037997961, 0.6240000296384096, 0.27200001291930676, 0.0, 0.0, 0.0, 0.0, 0.0, 1.7103949334391913E9, 0.0, 2024-03-13 22:42:13.439
42.0, -809.6060626078397, -402.47307363152504, -531.0190449585207, -480.79779840353876, 0.800000037997961, 0.6240000296384096, 0.27200001291930676, 0.0, 0.0, 0.0, 0.0, 0.0, 1.710394933439756E9, 0.0, 2024-03-13 22:42:13.439
42.0, -824.184192635119, -420.9107804130763, -538.3081099721603, -489.9343739952892, 0.800000037997961, 0.6240000296384096, 0.27200001291930676, 0.0, 0.0, 0.0, 0.0, 0.0, 1.710394933439756E9, 0.0, 2024-03-13 22:42:13.439
43.0, -795.5066397748888, -398.7780524753034, -529.4258475773968, -466.3356052748859, 0.800000037997961, 0.6240000296384096, 0.27200001291930676, 0.0, 0.0, 0.0, 0.0, 0.0, 1.7103949334532034E9, 0.0, 2024-03-13 22:42:13.453
43.0, -805.7464858535677, -400.88361615035683, -512.6037775767036, -462.97717511467636, 0.800000037997961, 0.6240000296384096, 0.27200001291930676, 0.0, 0.0, 0.0, 0.0, 0.0, 1.7103949334532034E9, 0.0, 2024-03-13 22:42:13.453
44.0, -814.2622380526736, -408.28861806262285, -521.0185524770059, -474.7354205753654, 0.800000037997961, 0.6240000296384096, 0.27200001291930676, 0.0, 0.0, 0.0, 0.0, 0.0, 1.7103949334690747E9, 0.0, 2024-03-13 22:42:13.469
44.0, -819.842168786563, -408.70000705774873, -541.0344970398583, -482.87718277890235, 0.800000037997961, 0.6240000296384096, 0.27200001291930676, 0.0, 0.0, 0.0, 0.0, 0.0, 1.7103949334690747E9, 0.0, 2024-03-13 22:42:13.469
45.0, -793.0121265044436, -392.2332275528461, -519.0326656005345, -463.93832940328866, 0.800000037997961, 0.6240000296384096, 0.27200001291930676, 0.0, 0.0, 0.0, 0.0, 0.0, 1.7103949334697812E9, 0.0, 2024-03-13 22:42:13.469
45.0, -799.4784135278314, -388.6653629951179, -500.60991841880605, -453.71718282438815, 0.800000037997961, 0.6240000296384096, 0.27200001291930676, 0.0, 0.0, 0.0, 0.0, 0.0, 1.7103949334697812E9, 0.0, 2024-03-13 22:42:13.469
46.0, -817.381314615719, -403.61374311801046, -525.757005720865, -473.57979148905724, 0.800000037997961, 0.6240000296384096, 0.27200001291930676, 0.0, 0.0, 0.0, 0.0, 0.0, 1.710394933483204E9, 0.0, 2024-03-13 22:42:13.483
46.0, -807.5902565317228, -401.02199244871736, -529.0107186823152, -469.7688334342092, 0.800000037997961, 0.6240000296384096, 0.27200001291930676, 0.0, 0.0, 0.0, 0.0, 0.0, 1.710394933483204E9, 0.0, 2024-03-13 22:42:13.483
47.0, -804.2692253710702, -395.17278891801834, -511.9679945842363, -467.31919896323234, 0.800000037997961, 0.6240000296384096, 0.27200001291930676, 0.0, 0.0, 0.0, 0.0, 0.0, 1.7103949334989345E9, 0.0, 2024-03-13 22:42:13.498
47.0, -800.0281788213179, -393.6020309366286, -519.3056782972999, -464.4132966976613, 0.800000037997961, 0.6240000296384096, 0.27200001291930676, 0.0, 0.0, 0.0, 0.0, 0.0, 1.7103949334989345E9, 0.0, 2024-03-13 22:42:13.498
48.0, -792.3239849125966, -393.80024563428015, -522.5743508585729, -461.38397773355246, 0.800000037997961, 0.6240000296384096, 0.27200001291930676, 0.0, 0.0, 0.0, 0.0, 0.0, 1.7103949334996653E9, 0.0, 2024-03-13 22:42:13.499
48.0, -813.5778363607824, -407.98942606616765, -524.2386063388549, -476.83724435046315, 0.800000037997961, 0.6240000296384096, 0.27200001291930676, 0.0, 0.0, 0.0, 0.0, 0.0, 1.7103949334996653E9, 0.0, 2024-03-13 22:42:13.499
49.0, -824.3562280330807, -424.4898646706715, -532.5374443405308, -484.58257715869695, 0.800000037997961, 0.6240000296384096, 0.27200001291930676, 0.0, 0.0, 0.0, 0.0, 0.0, 1.710394933513232E9, 0.0, 2024-03-13 22:42:13.513
49.0, -809.4789060093462, -399.60831026546657, -522.4995528594591, -470.27371992822737, 0.800000037997961, 0.6240000296384096, 0.27200001291930676, 0.0, 0.0, 0.0, 0.0, 0.0, 1.710394933513232E9, 0.0, 2024-03-13 22:42:13.513
50.0, -799.5457317270339, -395.76369311101735, -514.3166517564096, -458.519214367494, 0.800000037997961, 0.6240000296384096, 0.27200001291930676, 0.0, 0.0, 0.0, 0.0, 0.0, 1.71039493352891E9, 0.0, 2024-03-13 22:42:13.528
50.0, -818.1592138065025, -414.6501878872514, -530.9517267593183, -476.380976555869, 0.800000037997961, 0.6240000296384096, 0.27200001291930676, 0.0, 0.0, 0.0, 0.0, 0.0, 1.71039493352891E9, 0.0, 2024-03-13 22:42:13.528
51.0, -823.2043388467282, -416.0040316712111, -537.552650181111, -482.09180378820747, 0.800000037997961, 0.6240000296384096, 0.27200001291930676, 0.0, 0.0, 0.0, 0.0, 0.0, 1.710394933529663E9, 0.0, 2024-03-13 22:42:13.529
51.0, -804.1682480722666, -401.4820001432672, -521.6094566700049, -465.1014382895082, 0.800000037997961, 0.6240000296384096, 0.27200001291930676, 0.0, 0.0, 0.0, 0.0, 0.0, 1.710394933529663E9, 0.0, 2024-03-13 22:42:13.529
52.0, -815.4964050380513, -418.6780601395294, -533.0498106344603, -480.65194230526686, 0.800000037997961, 0.6240000296384096, 0.27200001291930676, 0.0, 0.0, 0.0, 0.0, 0.0, 1.7103949335432167E9, 0.0, 2024-03-13 22:42:13.543
52.0, -804.4487405689433, -401.94948763772845, -519.485193495173, -470.157783029601, 0.800000037997961, 0.6240000296384096, 0.27200001291930676, 0.0, 0.0, 0.0, 0.0, 0.0, 1.7103949335432167E9, 0.0, 2024-03-13 22:42:13.543
53.0, -812.7363588707522, -407.36486277356744, -528.1542815924622, -470.7711266223341, 0.800000037997961, 0.6240000296384096, 0.27200001291930676, 0.0, 0.0, 0.0, 0.0, 0.0, 1.7103949335589907E9, 0.0, 2024-03-13 22:42:13.558
53.0, -812.8373361695558, -405.10596320033073, -509.5632389127277, -462.5882255192846, 0.800000037997961, 0.6240000296384096, 0.27200001291930676, 0.0, 0.0, 0.0, 0.0, 0.0, 1.7103949335589907E9, 0.0, 2024-03-13 22:42:13.558
54.0, -815.7993369344622, -410.0538508417085, -519.7095874925144, -478.3668634323403, 0.800000037997961, 0.6240000296384096, 0.27200001291930676, 0.0, 0.0, 0.0, 0.0, 0.0, 1.710394933559638E9, 0.0, 2024-03-13 22:42:13.559
54.0, -820.2498178817332, -415.6113421758637, -536.8981676888652, -482.2638391861692, 0.800000037997961, 0.6240000296384096, 0.27200001291930676, 0.0, 0.0, 0.0, 0.0, 0.0, 1.710394933559638E9, 0.0, 2024-03-13 22:42:13.559
55.0, -797.1447159554809, -394.84367772191763, -522.2938583618961, -467.4351358618587, 0.800000037997961, 0.6240000296384096, 0.27200001291930676, 0.0, 0.0, 0.0, 0.0, 0.0, 1.7103949335732293E9, 0.0, 2024-03-13 22:42:13.573
55.0, -809.7519187061116, -404.99376620166004, -530.8133504609577, -480.9286949019879, 0.800000037997961, 0.6240000296384096, 0.27200001291930676, 0.0, 0.0, 0.0, 0.0, 0.0, 1.7103949335732293E9, 0.0, 2024-03-13 22:42:13.573
56.0, -823.0697024483234, -422.1000685989857, -543.2073789141141, -491.66594767477363, 0.800000037997961, 0.6240000296384096, 0.27200001291930676, 0.0, 0.0, 0.0, 0.0, 0.0, 1.7103949335891914E9, 0.0, 2024-03-13 22:42:13.589
56.0, -806.816097240895, -410.92150763142854, -538.4090872709639, -478.1574290348217, 0.800000037997961, 0.6240000296384096, 0.27200001291930676, 0.0, 0.0, 0.0, 0.0, 0.0, 1.7103949335891914E9, 0.0, 2024-03-13 22:42:13.589
57.0, -815.8554354337975, -418.876274837181, -542.0480099278502, -488.58053021132946, 0.800000037997961, 0.6240000296384096, 0.27200001291930676, 0.0, 0.0, 0.0, 0.0, 0.0, 1.7103949335900297E9, 0.0, 2024-03-13 22:42:13.590
57.0, -814.329556251876, -416.355582267046, -528.8386832843535, -484.9042085548863, 0.800000037997961, 0.6240000296384096, 0.27200001291930676, 0.0, 0.0, 0.0, 0.0, 0.0, 1.7103949335900297E9, 0.0, 2024-03-13 22:42:13.590
58.0, -804.4637001687661, -404.1560286115855, -521.6842546691187, -465.19867568835616, 0.800000037997961, 0.6240000296384096, 0.27200001291930676, 0.0, 0.0, 0.0, 0.0, 0.0, 1.7103949336033065E9, 0.0, 2024-03-13 22:42:13.603
58.0, -804.4337809691206, -405.42759459652007, -512.2709264806472, -461.4699954325333, 0.800000037997961, 0.6240000296384096, 0.27200001291930676, 0.0, 0.0, 0.0, 0.0, 0.0, 1.7103949336033065E9, 0.0, 2024-03-13 22:42:13.603
59.0, -809.8454162050039, -412.4174676137045, -535.1553743095137, -477.84327743854374, 0.800000037997961, 0.6240000296384096, 0.27200001291930676, 0.0, 0.0, 0.0, 0.0, 0.0, 1.7103949336189623E9, 0.0, 2024-03-13 22:42:13.618
59.0, -808.9702796153724, -406.7889181803912, -535.6378214037977, -474.185655281879, 0.800000037997961, 0.6240000296384096, 0.27200001291930676, 0.0, 0.0, 0.0, 0.0, 0.0, 1.7103949336189623E9, 0.0, 2024-03-13 22:42:13.618
60.0, -807.0853700377047, -403.8156977156177, -526.9799530063756, -461.9225233271718, 0.800000037997961, 0.6240000296384096, 0.27200001291930676, 0.0, 0.0, 0.0, 0.0, 0.0, 1.7103949336196928E9, 0.0, 2024-03-13 22:42:13.619
60.0, -832.228717439808, -428.3943202244118, -532.8815151364543, -481.5607379944995, 0.800000037997961, 0.6240000296384096, 0.27200001291930676, 0.0, 0.0, 0.0, 0.0, 0.0, 1.7103949336196928E9, 0.0, 2024-03-13 22:42:13.619
61.0, -824.1467936355621, -419.00343143567443, -528.1991603919305, -475.2365671694279, 0.800000037997961, 0.6240000296384096, 0.27200001291930676, 0.0, 0.0, 0.0, 0.0, 0.0, 1.71039493363326E9, 0.0, 2024-03-13 22:42:13.633
61.0, -814.860622045584, -405.4462940962985, -523.8122577439062, -466.34682497475296, 0.800000037997961, 0.6240000296384096, 0.27200001291930676, 0.0, 0.0, 0.0, 0.0, 0.0, 1.71039493363326E9, 0.0, 2024-03-13 22:42:13.633
62.0, -819.0044311964884, -409.866855843924, -510.150403205771, -462.3226926224306, 0.800000037997961, 0.6240000296384096, 0.27200001291930676, 0.0, 0.0, 0.0, 0.0, 0.0, 1.710394933648928E9, 0.0, 2024-03-13 22:42:13.648
62.0, -818.1966128060594, -414.5267711887136, -529.2276328797452, -470.27745982818305, 0.800000037997961, 0.6240000296384096, 0.27200001291930676, 0.0, 0.0, 0.0, 0.0, 0.0, 1.710394933648928E9, 0.0, 2024-03-13 22:42:13.648
63.0, -800.9968129098415, -408.92066115513444, -536.441899894271, -466.997567567043, 0.800000037997961, 0.6240000296384096, 0.27200001291930676, 0.0, 0.0, 0.0, 0.0, 0.0, 1.7103949336496944E9, 0.0, 2024-03-13 22:42:13.649
63.0, -811.6929267831147, -409.9379139430821, -532.0063785468228, -475.01591307204217, 0.800000037997961, 0.6240000296384096, 0.27200001291930676, 0.0, 0.0, 0.0, 0.0, 0.0, 1.7103949336496944E9, 0.0, 2024-03-13 22:42:13.649
64.0, -818.8959740977734, -413.1168289054185, -528.7900645849295, -476.39219625573605, 0.800000037997961, 0.6240000296384096, 0.27200001291930676, 0.0, 0.0, 0.0, 0.0, 0.0, 1.7103949336632533E9, 0.0, 2024-03-13 22:42:13.663
64.0, -802.3955354932696, -398.27690588124096, -516.2427002335899, -456.60438559018075, 0.800000037997961, 0.6240000296384096, 0.27200001291930676, 0.0, 0.0, 0.0, 0.0, 0.0, 1.7103949336632533E9, 0.0, 2024-03-13 22:42:13.663
65.0, -801.7709722006693, -397.1212767949328, -506.6012381478213, -451.01697505638003, 0.800000037997961, 0.6240000296384096, 0.27200001291930676, 0.0, 0.0, 0.0, 0.0, 0.0, 1.7103949336789446E9, 0.0, 2024-03-13 22:42:13.678
65.0, -812.2950506759807, -413.2028466043994, -515.240407045465, -467.75676725804806, 0.800000037997961, 0.6240000296384096, 0.27200001291930676, 0.0, 0.0, 0.0, 0.0, 0.0, 1.7103949336789446E9, 0.0, 2024-03-13 22:42:13.678
66.0, -795.3420841768384, -400.98459344916046, -516.0893643354066, -458.4070173688233, 0.800000037997961, 0.6240000296384096, 0.27200001291930676, 0.0, 0.0, 0.0, 0.0, 0.0, 1.7103949336796837E9, 0.0, 2024-03-13 22:42:13.679
66.0, -791.740560519509, -394.2340740291402, -500.72211541747674, -438.8398608006537, 0.800000037997961, 0.6240000296384096, 0.27200001291930676, 0.0, 0.0, 0.0, 0.0, 0.0, 1.7103949336796837E9, 0.0, 2024-03-13 22:42:13.679
67.0, -812.2127728769556, -412.40250801388174, -520.2780522857793, -464.30857949890196, 0.800000037997961, 0.6240000296384096, 0.27200001291930676, 0.0, 0.0, 0.0, 0.0, 0.0, 1.7103949336933005E9, 0.0, 2024-03-13 22:42:13.693
67.0, -814.1350814541802, -414.69132678676397, -520.5473250825889, -469.2938661398366, 0.800000037997961, 0.6240000296384096, 0.27200001291930676, 0.0, 0.0, 0.0, 0.0, 0.0, 1.7103949336933005E9, 0.0, 2024-03-13 22:42:13.693
68.0, -803.3080710824579, -403.31455112155527, -530.2710649673827, -464.7087487941608, 0.800000037997961, 0.6240000296384096, 0.27200001291930676, 0.0, 0.0, 0.0, 0.0, 0.0, 1.7103949337091787E9, 0.0, 2024-03-13 22:42:13.709
68.0, -810.2642850000411, -406.02223868947476, -518.7409534039907, -455.7068096008152, 0.800000037997961, 0.6240000296384096, 0.27200001291930676, 0.0, 0.0, 0.0, 0.0, 0.0, 1.7103949337091787E9, 0.0, 2024-03-13 22:42:13.709
69.0, -800.2002142192796, -403.6773214172572, -504.5592527720146, -457.1391912838444, 0.800000037997961, 0.6240000296384096, 0.27200001291930676, 0.0, 0.0, 0.0, 0.0, 0.0, 1.7103949337096748E9, 0.0, 2024-03-13 22:42:13.709
69.0, -793.6441695969552, -397.46160769090056, -509.50340051343665, -453.694743424654, 0.800000037997961, 0.6240000296384096, 0.27200001291930676, 0.0, 0.0, 0.0, 0.0, 0.0, 1.7103949337096748E9, 0.0, 2024-03-13 22:42:13.709
70.0, -788.5504258573055, -387.86876430455595, -502.9211765914224, -446.3682794114575, 0.800000037997961, 0.6240000296384096, 0.25600001215934753, 0.0, 0.0, 0.0, 0.0, 0.0, 1.7103949337236326E9, 0.0, 2024-03-13 22:42:13.723
70.0, -796.0975439678878, -392.2631467524916, -492.41205771593377, -446.26356221269816, 0.800000037997961, 0.6240000296384096, 0.25600001215934753, 0.0, 0.0, 0.0, 0.0, 0.0, 1.7103949337236326E9, 0.0, 2024-03-13 22:42:13.723
71.0, -822.2843234576285, -419.6392144281417, -523.3784293490462, -473.20580149348825, 0.800000037997961, 0.6240000296384096, 0.25600001215934753, 0.0, 0.0, 0.0, 0.0, 0.0, 1.7103949337392068E9, 0.0, 2024-03-13 22:42:13.739
71.0, -787.8884635651484, -396.564031701535, -519.1261630994268, -461.7056091297418, 0.800000037997961, 0.6240000296384096, 0.25600001215934753, 0.0, 0.0, 0.0, 0.0, 0.0, 1.7103949337392068E9, 0.0, 2024-03-13 22:42:13.739
72.0, -793.4833538988605, -402.32721753325313, -524.6088564344682, -460.9688488384709, 0.800000037997961, 0.6240000296384096, 0.25600001215934753, 0.0, 0.0, 0.0, 0.0, 0.0, 1.7103949337400856E9, 0.0, 2024-03-13 22:42:13.740
72.0, -806.756258841604, -411.4450936252251, -517.1103570233099, -465.16127668879926, 0.800000037997961, 0.6240000296384096, 0.25600001215934753, 0.0, 0.0, 0.0, 0.0, 0.0, 1.7103949337400856E9, 0.0, 2024-03-13 22:42:13.740
73.0, -789.2946659484878, -394.24155382905155, -515.0908110472374, -452.79716743528843, 0.800000037997961, 0.6240000296384096, 0.25600001215934753, 0.0, 0.0, 0.0, 0.0, 0.0, 1.710394933753261E9, 0.0, 2024-03-13 22:42:13.753
73.0, -792.1070707151666, -391.7507804585621, -507.8915036325343, -448.1709111901, 0.800000037997961, 0.6240000296384096, 0.25600001215934753, 0.0, 0.0, 0.0, 0.0, 0.0, 1.710394933753261E9, 0.0, 2024-03-13 22:42:13.753
74.0, -792.6156971091405, -399.4474945673719, -518.8419307027943, -461.6981293298304, 0.800000037997961, 0.6240000296384096, 0.25600001215934753, 0.0, 0.0, 0.0, 0.0, 0.0, 1.7103949337689528E9, 0.0, 2024-03-13 22:42:13.768
74.0, -791.355350824073, -400.68540145270526, -525.2595990267582, -461.68316973000765, 0.800000037997961, 0.6240000296384096, 0.25600001215934753, 0.0, 0.0, 0.0, 0.0, 0.0, 1.7103949337689528E9, 0.0, 2024-03-13 22:42:13.768
75.0, -769.8247467791662, -374.56220026221126, -496.5147279673256, -437.979683810845, 0.800000037997961, 0.6240000296384096, 0.25600001215934753, 0.0, 0.0, 0.0, 0.0, 0.0, 1.7103949337697732E9, 0.0, 2024-03-13 22:42:13.769
75.0, -793.4945735987276, -400.3824695562944, -503.38866408588365, -454.46142291557044, 0.800000037997961, 0.6240000296384096, 0.25600001215934753, 0.0, 0.0, 0.0, 0.0, 0.0, 1.7103949337697732E9, 0.0, 2024-03-13 22:42:13.769
76.0, -789.8855701414868, -399.39139606803656, -514.1034774589352, -458.75108816474676, 0.800000037997961, 0.6240000296384096, 0.25600001215934753, 0.0, 0.0, 0.0, 0.0, 0.0, 1.7103949337832556E9, 0.0, 2024-03-13 22:42:13.783
76.0, -785.8689175890759, -386.3653245223686, -508.6581831234507, -445.7773752184585, 0.800000037997961, 0.6240000296384096, 0.25600001215934753, 0.0, 0.0, 0.0, 0.0, 0.0, 1.7103949337832556E9, 0.0, 2024-03-13 22:42:13.783
77.0, -784.335558607243, -393.0709651429206, -501.6346510066651, -446.9217846048996, 0.800000037997961, 0.6240000296384096, 0.25600001215934753, 0.0, 0.0, 0.0, 0.0, 0.0, 1.7103949337992146E9, 0.0, 2024-03-13 22:42:13.799
77.0, -787.7463473668322, -396.6762287002057, -510.4907341017388, -455.6544510014355, 0.800000037997961, 0.6240000296384096, 0.25600001215934753, 0.0, 0.0, 0.0, 0.0, 0.0, 1.7103949337992146E9, 0.0, 2024-03-13 22:42:13.799
78.0, -780.7751738494262, -380.5497800912708, -514.7990988506936, -449.60329287312925, 0.800000037997961, 0.6240000296384096, 0.25600001215934753, 0.0, 0.0, 0.0, 0.0, 0.0, 1.710394933799699E9, 0.0, 2024-03-13 22:42:13.799
78.0, -777.3718648897484, -380.38522449322045, -503.8598914803006, -441.34185387101024, 0.800000037997961, 0.6240000296384096, 0.25600001215934753, 0.0, 0.0, 0.0, 0.0, 0.0, 1.710394933799699E9, 0.0, 2024-03-13 22:42:13.799
79.0, -771.5002219593152, -368.71673663146794, -474.30720203043893, -428.97026481758803, 0.800000037997961, 0.6240000296384096, 0.25600001215934753, 0.0, 0.0, 0.0, 0.0, 0.0, 1.7103949338134885E9, 0.0, 2024-03-13 22:42:13.813
79.0, -785.9324958883226, -384.30837954673916, -498.8446856397204, -438.07318130973727, 0.800000037997961, 0.6240000296384096, 0.25600001215934753, 0.0, 0.0, 0.0, 0.0, 0.0, 1.7103949338134885E9, 0.0, 2024-03-13 22:42:13.813
80.0, -776.4705490004271, -378.08144612051547, -499.9292566268705, -435.6833852380514, 0.800000037997961, 0.6240000296384096, 0.27200001291930676, 0.0, 0.0, 0.0, 0.0, 0.0, 1.7103949338289237E9, 0.0, 2024-03-13 22:42:13.828
80.0, -793.285139201209, -399.3390374686569, -513.2283408693038, -461.3615383338183, 0.800000037997961, 0.6240000296384096, 0.27200001291930676, 0.0, 0.0, 0.0, 0.0, 0.0, 1.7103949338289237E9, 0.0, 2024-03-13 22:42:13.828
81.0, -789.9977671401575, -391.64232335984707, -513.2806994686835, -449.3190604764968, 0.800000037997961, 0.6240000296384096, 0.27200001291930676, 0.0, 0.0, 0.0, 0.0, 0.0, 1.710394933829644E9, 0.0, 2024-03-13 22:42:13.829
81.0, -799.1418225318193, -394.8174984222278, -524.1563285398297, -450.82250025868416, 0.800000037997961, 0.6240000296384096, 0.27200001291930676, 0.0, 0.0, 0.0, 0.0, 0.0, 1.710394933829644E9, 0.0, 2024-03-13 22:42:13.829
82.0, -792.2865859130397, -389.54423948470503, -508.8863170207478, -454.9513498097658, 0.800000037997961, 0.6240000296384096, 0.27200001291930676, 0.0, 0.0, 0.0, 0.0, 0.0, 1.71039493384324E9, 0.0, 2024-03-13 22:42:13.843
82.0, -790.2633000370115, -390.5128735732287, -493.6312651014887, -450.5046087624505, 0.800000037997961, 0.6240000296384096, 0.27200001291930676, 0.0, 0.0, 0.0, 0.0, 0.0, 1.71039493384324E9, 0.0, 2024-03-13 22:42:13.843
83.0, -772.9101642426103, -375.41863735206425, -496.34643246931955, -432.22023787908256, 0.800000037997961, 0.6240000296384096, 0.27200001291930676, 0.0, 0.0, 0.0, 0.0, 0.0, 1.7103949338589394E9, 0.0, 2024-03-13 22:42:13.858
83.0, -784.4327960060909, -384.600091743283, -496.7802608641796, -445.5081024216488, 0.800000037997961, 0.6240000296384096, 0.27200001291930676, 0.0, 0.0, 0.0, 0.0, 0.0, 1.7103949338589394E9, 0.0, 2024-03-13 22:42:13.858
84.0, -820.6200679773465, -418.36016864329576, -528.2814381909557, -477.0055398484692, 0.800000037997961, 0.6240000296384096, 0.27200001291930676, 0.0, 0.0, 0.0, 0.0, 0.0, 1.7103949338596597E9, 0.0, 2024-03-13 22:42:13.859
84.0, -783.093911821954, -384.50285434443504, -510.3710573031567, -453.94157682172954, 0.800000037997961, 0.6240000296384096, 0.27200001291930676, 0.0, 0.0, 0.0, 0.0, 0.0, 1.7103949338596597E9, 0.0, 2024-03-13 22:42:13.859
85.0, -763.9306644489989, -368.9635700285435, -495.5236544790678, -438.4733506049961, 0.800000037997961, 0.6240000296384096, 0.27200001291930676, 0.0, 0.0, 0.0, 0.0, 0.0, 1.7103949338734176E9, 0.0, 2024-03-13 22:42:13.873
85.0, -806.7450391417369, -404.6721348054707, -511.1414766940288, -462.9173367153853, 0.800000037997961, 0.6240000296384096, 0.27200001291930676, 0.0, 0.0, 0.0, 0.0, 0.0, 1.7103949338734176E9, 0.0, 2024-03-13 22:42:13.873
86.0, -793.3038387009874, -396.06288510747254, -509.72031471086666, -452.78220783546567, 0.800000037997961, 0.6240000296384096, 0.27200001291930676, 0.0, 0.0, 0.0, 0.0, 0.0, 1.710394933889225E9, 0.0, 2024-03-13 22:42:13.889
86.0, -781.7438079379499, -382.4122502692044, -507.1023847418837, -441.96267726365477, 0.800000037997961, 0.6240000296384096, 0.27200001291930676, 0.0, 0.0, 0.0, 0.0, 0.0, 1.710394933889225E9, 0.0, 2024-03-13 22:42:13.889
87.0, -775.9806221062317, -374.4462633635849, -499.01298113772646, -432.8410612717271, 0.800000037997961, 0.6240000296384096, 0.27200001291930676, 0.0, 0.0, 0.0, 0.0, 0.0, 1.7103949338897438E9, 0.0, 2024-03-13 22:42:13.889
87.0, -773.2243158388883, -372.33695978857577, -491.323746828828, -433.5740816630423, 0.800000037997961, 0.6240000296384096, 0.27200001291930676, 0.0, 0.0, 0.0, 0.0, 0.0, 1.7103949338897438E9, 0.0, 2024-03-13 22:42:13.889
88.0, -788.0717186629772, -388.1006381018087, -511.39204999106005, -446.4991759099066, 0.800000037997961, 0.6240000296384096, 0.27200001291930676, 0.0, 0.0, 0.0, 0.0, 0.0, 1.7103949339036088E9, 0.0, 2024-03-13 22:42:13.903
88.0, -771.1486713634804, -375.96840264555067, -509.21168831689283, -443.4735968457535, 0.800000037997961, 0.6240000296384096, 0.27200001291930676, 0.0, 0.0, 0.0, 0.0, 0.0, 1.7103949339036088E9, 0.0, 2024-03-13 22:42:13.903
89.0, -790.0950045390055, -392.86527064535767, -520.0237390887924, -457.3561054812744, 0.800000037997961, 0.6240000296384096, 0.27200001291930676, 0.0, 0.0, 0.0, 0.0, 0.0, 1.710394933918959E9, 0.0, 2024-03-13 22:42:13.918
89.0, -780.5956586515531, -386.5523195201531, -516.2314805337228, -453.1075791316107, 0.800000037997961, 0.6240000296384096, 0.27200001291930676, 0.0, 0.0, 0.0, 0.0, 0.0, 1.710394933918959E9, 0.0, 2024-03-13 22:42:13.918
90.0, -783.1874093208462, -389.17398938909173, -507.1809226409532, -449.01612858008593, 0.800000037997961, 0.6240000296384096, 0.25600001215934753, 0.0, 0.0, 0.0, 0.0, 0.0, 1.7103949339200337E9, 0.0, 2024-03-13 22:42:13.920
90.0, -796.9689406575635, -394.06577853113413, -506.7470942460932, -452.7410689359531, 0.800000037997961, 0.6240000296384096, 0.25600001215934753, 0.0, 0.0, 0.0, 0.0, 0.0, 1.7103949339200337E9, 0.0, 2024-03-13 22:42:13.920
91.0, -773.3103335378692, -380.1533506959677, -493.9902954972349, -435.9189989352599, 0.800000037997961, 0.6240000296384096, 0.25600001215934753, 0.0, 0.0, 0.0, 0.0, 0.0, 1.7103949339496508E9, 0.0, 2024-03-13 22:42:13.949
91.0, -766.6720111165196, -362.5159825049341, -483.7990681179799, -421.1239547105506, 0.800000037997961, 0.6240000296384096, 0.25600001215934753, 0.0, 0.0, 0.0, 0.0, 0.0, 1.7103949339496508E9, 0.0, 2024-03-13 22:42:13.949
92.0, -778.8341657724231, -375.23164235427976, -485.67649789573625, -432.14543987996876, 0.800000037997961, 0.6240000296384096, 0.25600001215934753, 0.0, 0.0, 0.0, 0.0, 0.0, 1.710394933950364E9, 0.0, 2024-03-13 22:42:13.950
92.0, -795.75721307192, -392.42022255063057, -510.5169134014286, -450.1717576663941, 0.800000037997961, 0.6240000296384096, 0.25600001215934753, 0.0, 0.0, 0.0, 0.0, 0.0, 1.710394933950364E9, 0.0, 2024-03-13 22:42:13.950
93.0, -781.2090022442862, -382.49078816827387, -509.13689031777903, -438.6865249024704, 0.800000037997961, 0.6240000296384096, 0.25600001215934753, 0.0, 0.0, 0.0, 0.0, 0.0, 1.7103949339511027E9, 0.0, 2024-03-13 22:42:13.951
93.0, -788.5392061574385, -388.72146149445325, -505.83455865690485, -444.4646703340113, 0.800000037997961, 0.6240000296384096, 0.25600001215934753, 0.0, 0.0, 0.0, 0.0, 0.0, 1.7103949339511027E9, 0.0, 2024-03-13 22:42:13.951
94.0, -775.9320034068078, -382.71144226565957, -501.4476560088806, -447.05268110334873, 0.800000037997961, 0.6240000296384096, 0.25600001215934753, 0.0, 0.0, 0.0, 0.0, 0.0, 1.7103949339633598E9, 0.0, 2024-03-13 22:42:13.963
94.0, -778.87156477198, -385.3742510341108, -508.7890796218999, -451.5106418505311, 0.800000037997961, 0.6240000296384096, 0.25600001215934753, 0.0, 0.0, 0.0, 0.0, 0.0, 1.7103949339633598E9, 0.0, 2024-03-13 22:42:13.963
95.0, -789.9715878404677, -392.12851035408676, -504.409656773787, -455.2206226065755, 0.800000037997961, 0.6240000296384096, 0.25600001215934753, 0.0, 0.0, 0.0, 0.0, 0.0, 1.7103949339789517E9, 0.0, 2024-03-13 22:42:13.978
95.0, -788.0081403637305, -392.7493337467313, -490.27283494127914, -450.6168057611212, 0.800000037997961, 0.6240000296384096, 0.25600001215934753, 0.0, 0.0, 0.0, 0.0, 0.0, 1.7103949339789517E9, 0.0, 2024-03-13 22:42:13.978
96.0, -800.6976209133863, -405.307917797938, -522.7950049559586, -467.87270415667444, 0.800000037997961, 0.6240000296384096, 0.25600001215934753, 0.0, 0.0, 0.0, 0.0, 0.0, 1.7103949339796567E9, 0.0, 2024-03-13 22:42:13.979
96.0, -790.390456635505, -394.36123062763363, -513.1423231703229, -454.5399608146399, 0.800000037997961, 0.6240000296384096, 0.25600001215934753, 0.0, 0.0, 0.0, 0.0, 0.0, 1.7103949339796567E9, 0.0, 2024-03-13 22:42:13.979
97.0, -808.0540041262284, -411.6732275225222, -521.4673404716887, -469.2302878405899, 0.800000037997961, 0.6240000296384096, 0.25600001215934753, 0.0, 0.0, 0.0, 0.0, 0.0, 1.7103949339932163E9, 0.0, 2024-03-13 22:42:13.993
97.0, -789.7210145434365, -399.57839106582105, -501.4700954086147, -456.15559759549797, 0.800000037997961, 0.6240000296384096, 0.25600001215934753, 0.0, 0.0, 0.0, 0.0, 0.0, 1.7103949339932163E9, 0.0, 2024-03-13 22:42:13.993
98.0, -785.2293946966529, -386.23816792387515, -511.6052242885344, -452.1127657433972, 0.800000037997961, 0.6240000296384096, 0.25600001215934753, 0.0, 0.0, 0.0, 0.0, 0.0, 1.7103949340091138E9, 0.0, 2024-03-13 22:42:14.009
98.0, -782.248694431968, -387.7790067056194, -505.4119499619119, -452.9280639337376, 0.800000037997961, 0.6240000296384096, 0.25600001215934753, 0.0, 0.0, 0.0, 0.0, 0.0, 1.7103949340091138E9, 0.0, 2024-03-13 22:42:14.009
99.0, -784.2607606081292, -385.4041702337563, -494.2072096946649, -450.63924516085535, 0.800000037997961, 0.6240000296384096, 0.25600001215934753, 0.0, 0.0, 0.0, 0.0, 0.0, 1.7103949340097587E9, 0.0, 2024-03-13 22:42:14.009
99.0, -790.1922419378534, -403.54268501885235, -531.55759055214, -464.6227310951799, 0.800000037997961, 0.6240000296384096, 0.25600001215934753, 0.0, 0.0, 0.0, 0.0, 0.0, 1.7103949340097587E9, 0.0, 2024-03-13 22:42:14.009
100.0, -784.7880865018815, -399.17074197065085, -506.5638391482644, -447.9465171927586, 0.800000037997961, 0.6240000296384096, 0.25600001215934753, 0.0, 0.0, 0.0, 0.0, 0.0, 1.710394934024388E9, 0.0, 2024-03-13 22:42:14.024
100.0, -786.048432786949, -396.06662500742823, -495.6208918779157, -448.5860400851816, 0.800000037997961, 0.6240000296384096, 0.25600001215934753, 0.0, 0.0, 0.0, 0.0, 0.0, 1.710394934024388E9, 0.0, 2024-03-13 22:42:14.024
0.0, -797.9263550462201, -405.84272349160165, -510.72634779894724, -458.85954526346177, 0.800000037997961, 0.6240000296384096, 0.25600001215934753, 0.0, 0.0, 0.0, 0.0, 0.0, 1.7103949340250027E9, 0.0, 2024-03-13 22:42:14.025
1.0, -795.0279325805604, -399.16700207069516, -515.4535813429393, -452.67375073675066, 0.800000037997961, 0.6240000296384096, 0.25600001215934753, 0.0, 0.0, 0.0, 0.0, 0.0, 1.71039493403827E9, 0.0, 2024-03-13 22:42:14.038
1.0, -806.7338194418699, -413.9844856951386, -517.652642516885, -463.35116511024535, 0.800000037997961, 0.6240000296384096, 0.25600001215934753, 0.0, 0.0, 0.0, 0.0, 0.0, 1.71039493403827E9, 0.0, 2024-03-13 22:42:14.038
2.0, -792.4100026115775, -398.20584778208286, -501.8179061044939, -457.67773687746376, 0.800000037997961, 0.6240000296384096, 0.25600001215934753, 0.0, 0.0, 0.0, 0.0, 0.0, 1.7103949340539386E9, 0.0, 2024-03-13 22:42:14.053
2.0, -794.7063011843711, -394.3462710278109, -512.128810282331, -450.48964916262776, 0.800000037997961, 0.6240000296384096, 0.25600001215934753, 0.0, 0.0, 0.0, 0.0, 0.0, 1.7103949340539386E9, 0.0, 2024-03-13 22:42:14.053
3.0, -793.6067705973983, -398.9239085735753, -521.3476636731066, -459.1362978601828, 0.800000037997961, 0.6240000296384096, 0.25600001215934753, 0.0, 0.0, 0.0, 0.0, 0.0, 1.7103949340548341E9, 0.0, 2024-03-13 22:42:14.054
3.0, -805.6268090549856, -401.20150764659047, -520.6857013809495, -465.2921731872484, 0.800000037997961, 0.6240000296384096, 0.25600001215934753, 0.0, 0.0, 0.0, 0.0, 0.0, 1.7103949340548341E9, 0.0, 2024-03-13 22:42:14.054
4.0, -796.4902334632352, -396.05540530756116, -525.3942354251631, -460.53502044361085, 0.800000037997961, 0.6240000296384096, 0.25600001215934753, 0.0, 0.0, 0.0, 0.0, 0.0, 1.7103949340682843E9, 0.0, 2024-03-13 22:42:14.068
4.0, -800.5704643148929, -395.84223101008683, -509.8063324098475, -450.60558606125414, 0.800000037997961, 0.6240000296384096, 0.25600001215934753, 0.0, 0.0, 0.0, 0.0, 0.0, 1.7103949340682843E9, 0.0, 2024-03-13 22:42:14.068
5.0, -808.2372592240572, -406.28029178641737, -505.8981369561516, -459.4691489562392, 0.800000037997961, 0.6240000296384096, 0.25600001215934753, 0.0, 0.0, 0.0, 0.0, 0.0, 1.7103949340839386E9, 0.0, 2024-03-13 22:42:14.083
5.0, -795.334604376927, -398.8266711747274, -518.6100569055416, -456.4847087915987, 0.800000037997961, 0.6240000296384096, 0.25600001215934753, 0.0, 0.0, 0.0, 0.0, 0.0, 1.7103949340839386E9, 0.0, 2024-03-13 22:42:14.083
6.0, -801.4904797039926, -399.76538606360555, -529.3173904786818, -460.1872097477317, 0.800000037997961, 0.6240000296384096, 0.25600001215934753, 0.0, 0.0, 0.0, 0.0, 0.0, 1.7103949340848525E9, 0.0, 2024-03-13 22:42:14.084
6.0, -807.4331807335839, -408.06796396523714, -519.1149433995597, -465.35201158653945, 0.800000037997961, 0.6240000296384096, 0.25600001215934753, 0.0, 0.0, 0.0, 0.0, 0.0, 1.7103949340848525E9, 0.0, 2024-03-13 22:42:14.084
7.0, -811.0571437906474, -408.10536296479404, -515.3077252446674, -465.8793374802917, 0.800000037997961, 0.6240000296384096, 0.25600001215934753, 0.0, 0.0, 0.0, 0.0, 0.0, 1.7103949340983448E9, 0.0, 2024-03-13 22:42:14.098
7.0, -795.9890868691728, -392.3080255519599, -515.6704955403693, -453.6685641249642, 0.800000037997961, 0.6240000296384096, 0.25600001215934753, 0.0, 0.0, 0.0, 0.0, 0.0, 1.7103949340983448E9, 0.0, 2024-03-13 22:42:14.098
8.0, -806.7151199420914, -404.0026927134022, -519.3580368966796, -459.0801993608475, 0.800000037997961, 0.6240000296384096, 0.25600001215934753, 0.0, 0.0, 0.0, 0.0, 0.0, 1.710394934113944E9, 0.0, 2024-03-13 22:42:14.113
8.0, -810.2119264006615, -410.13238874077797, -511.2312342929654, -465.4829080849886, 0.800000037997961, 0.6240000296384096, 0.25600001215934753, 0.0, 0.0, 0.0, 0.0, 0.0, 1.710394934113944E9, 0.0, 2024-03-13 22:42:14.113
9.0, -780.7190753500909, -393.83764463383704, -512.5364593775012, -457.8460323754698, 0.800000037997961, 0.6240000296384096, 0.25600001215934753, 0.0, 0.0, 0.0, 0.0, 0.0, 1.7103949341146605E9, 0.0, 2024-03-13 22:42:14.114
9.0, -800.2750122183934, -400.7788989515975, -516.1679022344761, -462.8537584161386, 0.800000037997961, 0.6240000296384096, 0.25600001215934753, 0.0, 0.0, 0.0, 0.0, 0.0, 1.7103949341146605E9, 0.0, 2024-03-13 22:42:14.114
10.0, -819.9805450849235, -414.43327368982136, -520.281792185735, -474.0024001840502, 0.800000037997961, 0.6240000296384096, 0.25600001215934753, 0.0, 0.0, 0.0, 0.0, 0.0, 1.7103949341282756E9, 0.0, 2024-03-13 22:42:14.128
10.0, -802.5339117916301, -406.5607842830941, -526.9537737066858, -468.68426244705915, 0.800000037997961, 0.6240000296384096, 0.25600001215934753, 0.0, 0.0, 0.0, 0.0, 0.0, 1.7103949341282756E9, 0.0, 2024-03-13 22:42:14.128
11.0, -792.6007375093177, -393.0447858432308, -520.7978983796202, -457.8759515751153, 0.800000037997961, 0.6240000296384096, 0.25600001215934753, 0.0, 0.0, 0.0, 0.0, 0.0, 1.7103949341439233E9, 0.0, 2024-03-13 22:42:14.143
11.0, -796.9913800572976, -395.75995321106166, -521.5346586708911, -462.4348896211013, 0.800000037997961, 0.6240000296384096, 0.25600001215934753, 0.0, 0.0, 0.0, 0.0, 0.0, 1.7103949341439233E9, 0.0, 2024-03-13 22:42:14.143
12.0, -792.7278941078112, -393.4449551384896, -512.4392219786532, -460.09371224883944, 0.800000037997961, 0.6240000296384096, 0.25600001215934753, 0.0, 0.0, 0.0, 0.0, 0.0, 1.7103949341447153E9, 0.0, 2024-03-13 22:42:14.144
12.0, -774.301407026127, -373.90397787000984, -499.8207995281555, -440.0889873858541, 0.800000037997961, 0.6240000296384096, 0.25600001215934753, 0.0, 0.0, 0.0, 0.0, 0.0, 1.7103949341447153E9, 0.0, 2024-03-13 22:42:14.144
13.0, -785.5136270932853, -389.4170828862116, -515.6517960405909, -458.97548216208816, 0.800000037997961, 0.6240000296384096, 0.25600001215934753, 0.0, 0.0, 0.0, 0.0, 0.0, 1.7103949341587067E9, 0.0, 2024-03-13 22:42:14.158
13.0, -793.4796139989048, -396.24988010525703, -510.9619614961557, -459.0689796609804, 0.800000037997961, 0.6240000296384096, 0.25600001215934753, 0.0, 0.0, 0.0, 0.0, 0.0, 1.7103949341587067E9, 0.0, 2024-03-13 22:42:14.158
14.0, -802.2347197951749, -403.3444703212008, -529.2126732799225, -466.5263401726261, 0.800000037997961, 0.6240000296384096, 0.25600001215934753, 0.0, 0.0, 0.0, 0.0, 0.0, 1.7103949341743052E9, 0.0, 2024-03-13 22:42:14.174
14.0, -778.9239233713597, -382.0420001735911, -510.01576680736616, -447.9913959922269, 0.800000037997961, 0.6240000296384096, 0.25600001215934753, 0.0, 0.0, 0.0, 0.0, 0.0, 1.7103949341743052E9, 0.0, 2024-03-13 22:42:14.174
15.0, -801.4717802042142, -400.2740124575794, -521.5570980706252, -469.57435863651335, 0.800000037997961, 0.6240000296384096, 0.25600001215934753, 0.0, 0.0, 0.0, 0.0, 0.0, 1.7103949341749375E9, 0.0, 2024-03-13 22:42:14.174
15.0, -796.1723419670016, -410.16978774033487, -520.4351280839182, -469.83989153336734, 0.800000037997961, 0.6240000296384096, 0.25600001215934753, 0.0, 0.0, 0.0, 0.0, 0.0, 1.7103949341749375E9, 0.0, 2024-03-13 22:42:14.174
16.0, -810.3203834993765, -422.3169827964157, -536.2025462971069, -480.7117807045579, 0.800000037997961, 0.6240000296384096, 0.25600001215934753, 0.0, 0.0, 0.0, 0.0, 0.0, 1.7103949341885433E9, 0.0, 2024-03-13 22:42:14.188
16.0, -805.9260010514408, -411.3403764264658, -525.383015725296, -474.185655281879, 0.800000037997961, 0.6240000296384096, 0.25600001215934753, 0.0, 0.0, 0.0, 0.0, 0.0, 1.7103949341885433E9, 0.0, 2024-03-13 22:42:14.188
17.0, -788.4457086585462, -398.12730988301337, -514.1109572588466, -463.94206930324435, 0.800000037997961, 0.6240000296384096, 0.25600001215934753, 0.0, 0.0, 0.0, 0.0, 0.0, 1.7103949342039385E9, 0.0, 2024-03-13 22:42:14.203
17.0, -791.7517802193761, -396.06662500742823, -509.077051918488, -451.27502815332264, 0.800000037997961, 0.6240000296384096, 0.25600001215934753, 0.0, 0.0, 0.0, 0.0, 0.0, 1.7103949342039385E9, 0.0, 2024-03-13 22:42:14.203
18.0, -776.4256702009588, -382.53940686769783, -492.9094644100405, -441.839260565117, 0.800000037997961, 0.6240000296384096, 0.25600001215934753, 0.0, 0.0, 0.0, 0.0, 0.0, 1.71039493420483E9, 0.0, 2024-03-13 22:42:14.204
18.0, -795.0728113800287, -400.09075735975057, -519.9900799891911, -464.8920038919896, 0.800000037997961, 0.6240000296384096, 0.25600001215934753, 0.0, 0.0, 0.0, 0.0, 0.0, 1.71039493420483E9, 0.0, 2024-03-13 22:42:14.204
19.0, -805.2640387592837, -407.7874714685604, -537.7583446786739, -475.6255167648196, 0.800000037997961, 0.6240000296384096, 0.25600001215934753, 0.0, 0.0, 0.0, 0.0, 0.0, 1.710394934218465E9, 0.0, 2024-03-13 22:42:14.218
19.0, -791.0449391277507, -393.6955284355208, -519.6946278926916, -457.12797158397734, 0.800000037997961, 0.6240000296384096, 0.25600001215934753, 0.0, 0.0, 0.0, 0.0, 0.0, 1.710394934218465E9, 0.0, 2024-03-13 22:42:14.218
20.0, -794.0031999927014, -400.9696338493377, -513.912742561195, -462.20301582384855, 0.800000037997961, 0.6240000296384096, 0.25600001215934753, 0.0, 0.0, 0.0, 0.0, 0.0, 1.7103949342339513E9, 0.0, 2024-03-13 22:42:14.233
20.0, -785.9324958883226, -389.7835930818692, -510.2962593040429, -460.38168454542756, 0.800000037997961, 0.6240000296384096, 0.25600001215934753, 0.0, 0.0, 0.0, 0.0, 0.0, 1.7103949342339513E9, 0.0, 2024-03-13 22:42:14.233
21.0, -783.4566821176559, -380.9910882860422, -511.69124198751524, -451.6677176486701, 0.800000037997961, 0.6240000296384096, 0.25600001215934753, 0.0, 0.0, 0.0, 0.0, 0.0, 1.7103949342346723E9, 0.0, 2024-03-13 22:42:14.234
21.0, -811.2104796888307, -414.8932813843712, -535.3012304077856, -475.0009534722194, 0.800000037997961, 0.6240000296384096, 0.25600001215934753, 0.0, 0.0, 0.0, 0.0, 0.0, 1.7103949342346723E9, 0.0, 2024-03-13 22:42:14.234
22.0, -812.0781364785507, -418.80895663797855, -520.9961130772717, -476.3435775563121, 0.800000037997961, 0.6240000296384096, 0.25600001215934753, 0.0, 0.0, 0.0, 0.0, 0.0, 1.7103949342482784E9, 0.0, 2024-03-13 22:42:14.248
22.0, -822.4189598560333, -420.03938372340053, -537.8406224776991, -475.5918576652184, 0.800000037997961, 0.6240000296384096, 0.25600001215934753, 0.0, 0.0, 0.0, 0.0, 0.0, 1.7103949342482784E9, 0.0, 2024-03-13 22:42:14.248
23.0, -825.2388444226235, -418.9099339367822, -523.1989141511731, -472.2296876050532, 0.800000037997961, 0.6240000296384096, 0.25600001215934753, 0.0, 0.0, 0.0, 0.0, 0.0, 1.71039493426393E9, 0.0, 2024-03-13 22:42:14.263
23.0, -817.646847512573, -414.9045010842383, -517.3010919210501, -472.1137507064268, 0.800000037997961, 0.6240000296384096, 0.25600001215934753, 0.0, 0.0, 0.0, 0.0, 0.0, 1.71039493426393E9, 0.0, 2024-03-13 22:42:14.263
24.0, -796.8043850595132, -401.7849320396781, -526.4189680130221, -461.6233313307166, 0.800000037997961, 0.6240000296384096, 0.25600001215934753, 0.0, 0.0, 0.0, 0.0, 0.0, 1.7103949342646604E9, 0.0, 2024-03-13 22:42:14.264
24.0, -786.8225920777768, -390.43059577420354, -512.3083254802041, -450.1343586668372, 0.800000037997961, 0.6240000296384096, 0.25600001215934753, 0.0, 0.0, 0.0, 0.0, 0.0, 1.7103949342646604E9, 0.0, 2024-03-13 22:42:14.264
25.0, -793.2626998014748, -393.8226850340143, -501.4887949083932, -452.4343971395865, 0.800000037997961, 0.6240000296384096, 0.25600001215934753, 0.0, 0.0, 0.0, 0.0, 0.0, 1.710394934294885E9, 0.0, 2024-03-13 22:42:14.294
25.0, -792.5259395102039, -395.43084201496094, -514.9112958493643, -461.7018692297861, 0.800000037997961, 0.6240000296384096, 0.25600001215934753, 0.0, 0.0, 0.0, 0.0, 0.0, 1.710394934294885E9, 0.0, 2024-03-13 22:42:14.294
26.0, -786.904869876802, -392.24818715266883, -517.1140969232656, -458.2873405702412, 0.800000037997961, 0.6240000296384096, 0.25600001215934753, 0.0, 0.0, 0.0, 0.0, 0.0, 1.7103949342953908E9, 0.0, 2024-03-13 22:42:14.295
26.0, -795.4206220759079, -398.662115576677, -516.7064478280954, -469.5893182363361, 0.800000037997961, 0.6240000296384096, 0.25600001215934753, 0.0, 0.0, 0.0, 0.0, 0.0, 1.7103949342953908E9, 0.0, 2024-03-13 22:42:14.295
27.0, -786.6542965797707, -393.10088434256613, -523.2811919501983, -470.72998772282153, 0.800000037997961, 0.6240000296384096, 0.25600001215934753, 0.0, 0.0, 0.0, 0.0, 0.0, 1.7103949342961092E9, 0.0, 2024-03-13 22:42:14.296
27.0, -785.4014300946146, -386.7430544178933, -528.2328194915317, -457.1429311838001, 0.800000037997961, 0.6240000296384096, 0.25600001215934753, 0.0, 0.0, 0.0, 0.0, 0.0, 1.7103949342961092E9, 0.0, 2024-03-13 22:42:14.296
28.0, -781.9981211349368, -376.20027644280344, -507.64093033550307, -448.544901185669, 0.800000037997961, 0.6240000296384096, 0.25600001215934753, 0.0, 0.0, 0.0, 0.0, 0.0, 1.710394934308504E9, 0.0, 2024-03-13 22:42:14.308
28.0, -799.6990676252171, -406.10077658854425, -513.7781061627902, -464.4506956972182, 0.800000037997961, 0.6240000296384096, 0.25600001215934753, 0.0, 0.0, 0.0, 0.0, 0.0, 1.710394934308504E9, 0.0, 2024-03-13 22:42:14.308
29.0, -807.3546428345144, -408.6289489585906, -524.8220307319425, -467.2668403638527, 0.800000037997961, 0.6240000296384096, 0.25600001215934753, 0.0, 0.0, 0.0, 0.0, 0.0, 1.7103949343241673E9, 0.0, 2024-03-13 22:42:14.324
29.0, -816.2406451292336, -422.1636468982324, -526.0786371170543, -472.7083947993815, 0.800000037997961, 0.6240000296384096, 0.25600001215934753, 0.0, 0.0, 0.0, 0.0, 0.0, 1.7103949343241673E9, 0.0, 2024-03-13 22:42:14.324
30.0, -834.4315185137093, -422.7657707910985, -521.6842546691187, -480.1507957112044, 0.800000037997961, 0.6240000296384096, 0.2400000113993883, 0.0, 0.0, 0.0, 0.0, 0.0, 1.7103949343247707E9, 0.0, 2024-03-13 22:42:14.324
30.0, -826.5141503075138, -428.3083025254309, -532.2980907433666, -479.06622472405434, 0.800000037997961, 0.6240000296384096, 0.2400000113993883, 0.0, 0.0, 0.0, 0.0, 0.0, 1.7103949343247707E9, 0.0, 2024-03-13 22:42:14.324
31.0, -808.5364512205124, -403.4043087204918, -510.6627694997005, -457.4122039806098, 0.800000037997961, 0.6240000296384096, 0.2400000113993883, 0.0, 0.0, 0.0, 0.0, 0.0, 1.7103949343382592E9, 0.0, 2024-03-13 22:42:14.338
31.0, -842.8836924135685, -432.8672405714169, -532.3841084423475, -482.4620538838208, 0.800000037997961, 0.6240000296384096, 0.2400000113993883, 0.0, 0.0, 0.0, 0.0, 0.0, 1.7103949343382592E9, 0.0, 2024-03-13 22:42:14.338
32.0, -851.8893715068698, -437.19056492019445, -533.2742046318017, -490.6711342865601, 0.800000037997961, 0.6240000296384096, 0.2400000113993883, 0.0, 0.0, 0.0, 0.0, 0.0, 1.710394934353988E9, 0.0, 2024-03-13 22:42:14.353
32.0, -849.5968128340319, -447.6174059966579, -549.7260245368816, -492.98987225908786, 0.800000037997961, 0.6240000296384096, 0.2400000113993883, 0.0, 0.0, 0.0, 0.0, 0.0, 1.710394934353988E9, 0.0, 2024-03-13 22:42:14.353
33.0, -844.4245311953127, -432.1641393797472, -526.2768518147059, -475.0757514713332, 0.800000037997961, 0.6240000296384096, 0.2400000113993883, 0.0, 0.0, 0.0, 0.0, 0.0, 1.7103949343547287E9, 0.0, 2024-03-13 22:42:14.354
33.0, -841.8140810262412, -440.8706264765933, -528.5469710878097, -484.59005695860833, 0.800000037997961, 0.6240000296384096, 0.2400000113993883, 0.0, 0.0, 0.0, 0.0, 0.0, 1.7103949343547287E9, 0.0, 2024-03-13 22:42:14.354
34.0, -845.1912106862292, -436.70811782591045, -532.9899722351693, -483.57654407061636, 0.800000037997961, 0.6240000296384096, 0.2400000113993883, 0.0, 0.0, 0.0, 0.0, 0.0, 1.710394934368271E9, 0.0, 2024-03-13 22:42:14.368
34.0, -839.9740502480417, -442.4974829573184, -539.1009687627666, -489.54168449994177, 0.800000037997961, 0.6240000296384096, 0.2400000113993883, 0.0, 0.0, 0.0, 0.0, 0.0, 1.710394934368271E9, 0.0, 2024-03-13 22:42:14.368
35.0, -844.2375361975282, -439.44572459347546, -534.9272404122166, -495.690080027096, 0.800000037997961, 0.6240000296384096, 0.2400000113993883, 0.0, 0.0, 0.0, 0.0, 0.0, 1.7103949343840084E9, 0.0, 2024-03-13 22:42:14.384
35.0, -844.5928266933188, -435.93021863512695, -539.1645470620133, -486.9274944309145, 0.800000037997961, 0.6240000296384096, 0.2400000113993883, 0.0, 0.0, 0.0, 0.0, 0.0, 1.7103949343840084E9, 0.0, 2024-03-13 22:42:14.384
36.0, -840.7220302391797, -434.9092259472236, -533.10216923384, -483.84581686742604, 0.800000037997961, 0.6240000296384096, 0.2400000113993883, 0.0, 0.0, 0.0, 0.0, 0.0, 1.710394934384729E9, 0.0, 2024-03-13 22:42:14.384
36.0, -842.0796139230952, -435.77688273694366, -537.6424077800475, -487.1668480280787, 0.800000037997961, 0.6240000296384096, 0.2400000113993883, 0.0, 0.0, 0.0, 0.0, 0.0, 1.710394934384729E9, 0.0, 2024-03-13 22:42:14.384
37.0, -828.0961279887706, -417.9487796481699, -535.4620461058803, -484.47038016002625, 0.800000037997961, 0.6240000296384096, 0.2400000113993883, 0.0, 0.0, 0.0, 0.0, 0.0, 1.7103949343982077E9, 0.0, 2024-03-13 22:42:14.398
37.0, -813.6750737596303, -402.8545434270054, -526.3703493135981, -470.6589296236634, 0.800000037997961, 0.6240000296384096, 0.2400000113993883, 0.0, 0.0, 0.0, 0.0, 0.0, 1.7103949343982077E9, 0.0, 2024-03-13 22:42:14.398
38.0, -797.6533423494548, -396.1040240069851, -506.42546284990385, -457.9320500744507, 0.800000037997961, 0.6240000296384096, 0.2400000113993883, 0.0, 0.0, 0.0, 0.0, 0.0, 1.710394934413924E9, 0.0, 2024-03-13 22:42:14.413
38.0, -811.1207220898941, -413.47585930116475, -522.0956436642446, -471.4069096148014, 0.800000037997961, 0.6240000296384096, 0.2400000113993883, 0.0, 0.0, 0.0, 0.0, 0.0, 1.710394934413924E9, 0.0, 2024-03-13 22:42:14.413
39.0, -829.5247697718441, -424.22807167377323, -533.3938814303838, -479.2195606222376, 0.800000037997961, 0.6240000296384096, 0.2400000113993883, 0.0, 0.0, 0.0, 0.0, 0.0, 1.710394934414662E9, 0.0, 2024-03-13 22:42:14.414
39.0, -816.3865012275055, -407.0469712773338, -518.7035544044338, -461.63829093053937, 0.800000037997961, 0.6240000296384096, 0.2400000113993883, 0.0, 0.0, 0.0, 0.0, 0.0, 1.710394934414662E9, 0.0, 2024-03-13 22:42:14.414
40.0, -825.2388444226235, -421.39696740731597, -508.4749280256219, -467.2556206639856, 0.800000037997961, 0.6240000296384096, 0.2400000113993883, 0.0, 0.0, 0.0, 0.0, 0.0, 1.710394934428202E9, 0.0, 2024-03-13 22:42:14.428
40.0, -852.9589828941971, -450.6990835601464, -543.1026617153548, -496.1613074215129, 0.800000037997961, 0.6240000296384096, 0.2400000113993883, 0.0, 0.0, 0.0, 0.0, 0.0, 1.710394934428202E9, 0.0, 2024-03-13 22:42:14.428
41.0, -839.6898178514093, -428.30082272551954, -527.9897259944119, -472.42790230270475, 0.800000037997961, 0.6240000296384096, 0.2400000113993883, 0.0, 0.0, 0.0, 0.0, 0.0, 1.710394934444316E9, 0.0, 2024-03-13 22:42:14.444
41.0, -840.3218609439209, -434.494097052142, -525.0800838288851, -482.6827079812065, 0.800000037997961, 0.6240000296384096, 0.2400000113993883, 0.0, 0.0, 0.0, 0.0, 0.0, 1.710394934444316E9, 0.0, 2024-03-13 22:42:14.444
42.0, -842.7640156149864, -438.67156530264765, -535.3947279066779, -490.16998769249767, 0.800000037997961, 0.6240000296384096, 0.2400000113993883, 0.0, 0.0, 0.0, 0.0, 0.0, 1.710394934444706E9, 0.0, 2024-03-13 22:42:14.444
42.0, -837.015789383091, -429.1609997153282, -537.3581753834151, -488.98443940654397, 0.800000037997961, 0.6240000296384096, 0.2400000113993883, 0.0, 0.0, 0.0, 0.0, 0.0, 1.710394934444706E9, 0.0, 2024-03-13 22:42:14.444
43.0, -832.7261241339147, -431.59567458648235, -543.6075482093729, -492.4962054649368, 0.800000037997961, 0.6240000296384096, 0.2400000113993883, 0.0, 0.0, 0.0, 0.0, 0.0, 1.7103949344585626E9, 0.0, 2024-03-13 22:42:14.458
43.0, -834.7643696097657, -428.95904511772096, -529.2575520793907, -488.9320808071643, 0.800000037997961, 0.6240000296384096, 0.2400000113993883, 0.0, 0.0, 0.0, 0.0, 0.0, 1.7103949344585626E9, 0.0, 2024-03-13 22:42:14.458
44.0, -815.4552661385387, -415.9030543724075, -523.3485101494007, -476.31739825662225, 0.800000037997961, 0.6240000296384096, 0.2400000113993883, 0.0, 0.0, 0.0, 0.0, 0.0, 1.7103949344741843E9, 0.0, 2024-03-13 22:42:14.474
44.0, -820.0890021836385, -412.4623464131728, -524.0890103406273, -475.87609006185085, 0.800000037997961, 0.6240000296384096, 0.2400000113993883, 0.0, 0.0, 0.0, 0.0, 0.0, 1.7103949344741843E9, 0.0, 2024-03-13 22:42:14.474
45.0, -840.4826766420156, -432.5381293753162, -532.8403762369417, -488.5954898111522, 0.800000037997961, 0.6240000296384096, 0.2400000113993883, 0.0, 0.0, 0.0, 0.0, 0.0, 1.7103949344747202E9, 0.0, 2024-03-13 22:42:14.474
45.0, -837.0419686827809, -426.4607919473201, -541.8011765307747, -478.1574290348217, 0.800000037997961, 0.6240000296384096, 0.2400000113993883, 0.0, 0.0, 0.0, 0.0, 0.0, 1.7103949344747202E9, 0.0, 2024-03-13 22:42:14.474
46.0, -837.8385673733428, -418.8239162378013, -537.8929810770787, -477.1065171472728, 0.800000037997961, 0.6240000296384096, 0.2400000113993883, 0.0, 0.0, 0.0, 0.0, 0.0, 1.7103949344885347E9, 0.0, 2024-03-13 22:42:14.488
46.0, -824.7077786289155, -415.44304667785764, -508.7105417228304, -461.30543983448297, 0.800000037997961, 0.6240000296384096, 0.2400000113993883, 0.0, 0.0, 0.0, 0.0, 0.0, 1.7103949344885347E9, 0.0, 2024-03-13 22:42:14.488
47.0, -825.3585212212056, -418.1320347459987, -516.807425126899, -466.24210777599365, 0.800000037997961, 0.6240000296384096, 0.2400000113993883, 0.0, 0.0, 0.0, 0.0, 0.0, 1.7103949345039563E9, 0.0, 2024-03-13 22:42:14.503
47.0, -824.7152584288269, -415.44304667785764, -520.5884639821015, -462.6667634183541, 0.800000037997961, 0.6240000296384096, 0.2400000113993883, 0.0, 0.0, 0.0, 0.0, 0.0, 1.7103949345039563E9, 0.0, 2024-03-13 22:42:14.503
48.0, -844.2861548969522, -438.3162748068571, -548.1216074558906, -488.344916514121, 0.800000037997961, 0.6240000296384096, 0.2400000113993883, 0.0, 0.0, 0.0, 0.0, 0.0, 1.7103949345046573E9, 0.0, 2024-03-13 22:42:14.504
48.0, -834.8653469085693, -430.18573230318725, -528.554450887721, -478.7520731277764, 0.800000037997961, 0.6240000296384096, 0.2400000113993883, 0.0, 0.0, 0.0, 0.0, 0.0, 1.7103949345046573E9, 0.0, 2024-03-13 22:42:14.504
49.0, -817.6094485130161, -414.55669038835913, -522.5107725593261, -469.9745279317722, 0.800000037997961, 0.6240000296384096, 0.2400000113993883, 0.0, 0.0, 0.0, 0.0, 0.0, 1.710394934518221E9, 0.0, 2024-03-13 22:42:14.518
49.0, -809.0899564139545, -408.7486257571727, -502.09465870121494, -461.53357373178005, 0.800000037997961, 0.6240000296384096, 0.2400000113993883, 0.0, 0.0, 0.0, 0.0, 0.0, 1.710394934518221E9, 0.0, 2024-03-13 22:42:14.518
50.0, -822.5498563544825, -422.7620308911428, -528.4684331887402, -483.785978468135, 0.800000037997961, 0.6240000296384096, 0.2400000113993883, 0.0, 0.0, 0.0, 0.0, 0.0, 1.7103949345340018E9, 0.0, 2024-03-13 22:42:14.534
50.0, -830.792595856823, -429.62848720978945, -546.7939429716207, -488.70020700991154, 0.800000037997961, 0.6240000296384096, 0.2400000113993883, 0.0, 0.0, 0.0, 0.0, 0.0, 1.7103949345340018E9, 0.0, 2024-03-13 22:42:14.534
51.0, -802.9490406867117, -407.5368981715292, -522.7837852560915, -465.38567068614066, 0.800000037997961, 0.6240000296384096, 0.2400000113993883, 0.0, 0.0, 0.0, 0.0, 0.0, 1.7103949345347009E9, 0.0, 2024-03-13 22:42:14.534
51.0, -818.1554739065468, -416.6472944635898, -524.5490180351771, -474.60826397687197, 0.800000037997961, 0.6240000296384096, 0.2400000113993883, 0.0, 0.0, 0.0, 0.0, 0.0, 1.7103949345347009E9, 0.0, 2024-03-13 22:42:14.534
52.0, -837.4047389784828, -423.2444779854268, -529.0443777819164, -479.2307803221047, 0.800000037997961, 0.6240000296384096, 0.2400000113993883, 0.0, 0.0, 0.0, 0.0, 0.0, 1.7103949345482197E9, 0.0, 2024-03-13 22:42:14.548
52.0, -811.7153661828488, -408.793504556641, -531.6922269505449, -469.2302878405899, 0.800000037997961, 0.6240000296384096, 0.2400000113993883, 0.0, 0.0, 0.0, 0.0, 0.0, 1.7103949345482197E9, 0.0, 2024-03-13 22:42:14.548
53.0, -823.8999602384865, -417.8590220492333, -522.3349972614087, -476.9008226497099, 0.800000037997961, 0.6240000296384096, 0.2400000113993883, 0.0, 0.0, 0.0, 0.0, 0.0, 1.7103949345642395E9, 0.0, 2024-03-13 22:42:14.564
53.0, -829.0423226775602, -438.1068404093385, -530.3683023662306, -491.06382378190756, 0.800000037997961, 0.6240000296384096, 0.2400000113993883, 0.0, 0.0, 0.0, 0.0, 0.0, 1.7103949345642395E9, 0.0, 2024-03-13 22:42:14.564
54.0, -832.4942503366619, -430.6793990973383, -536.6849933913909, -486.65448173414916, 0.800000037997961, 0.6240000296384096, 0.2400000113993883, 0.0, 0.0, 0.0, 0.0, 0.0, 1.7103949345650585E9, 0.0, 2024-03-13 22:42:14.565
54.0, -817.7964435108006, -418.2030928451568, -531.3855551541783, -478.40052253194153, 0.800000037997961, 0.6240000296384096, 0.2400000113993883, 0.0, 0.0, 0.0, 0.0, 0.0, 1.7103949345650585E9, 0.0, 2024-03-13 22:42:14.565
55.0, -819.8085096869618, -418.28537064418197, -521.8862092667259, -475.90974916145205, 0.800000037997961, 0.6240000296384096, 0.2400000113993883, 0.0, 0.0, 0.0, 0.0, 0.0, 1.7103949345783184E9, 0.0, 2024-03-13 22:42:14.578
55.0, -798.326524341479, -402.3421771330759, -512.7384139751084, -462.94351601507515, 0.800000037997961, 0.6240000296384096, 0.2400000113993883, 0.0, 0.0, 0.0, 0.0, 0.0, 1.7103949345783184E9, 0.0, 2024-03-13 22:42:14.578
56.0, -805.0658240616322, -402.9256015261635, -528.8873019837774, -466.8068326693028, 0.800000037997961, 0.6240000296384096, 0.2400000113993883, 0.0, 0.0, 0.0, 0.0, 0.0, 1.7103949345939803E9, 0.0, 2024-03-13 22:42:14.593
56.0, -811.2740579880774, -404.39164230879396, -510.5917114005424, -464.60777149535716, 0.800000037997961, 0.6240000296384096, 0.2400000113993883, 0.0, 0.0, 0.0, 0.0, 0.0, 1.7103949345939803E9, 0.0, 2024-03-13 22:42:14.593
57.0, -793.3300180006772, -399.69432796444744, -500.16861022403464, -450.48964916262776, 0.800000037997961, 0.6240000296384096, 0.2400000113993883, 0.0, 0.0, 0.0, 0.0, 0.0, 1.7103949345947144E9, 0.0, 2024-03-13 22:42:14.594
57.0, -797.1110568558797, -404.12984931189567, -515.191788346041, -457.0756129845977, 0.800000037997961, 0.6240000296384096, 0.2400000113993883, 0.0, 0.0, 0.0, 0.0, 0.0, 1.7103949345947144E9, 0.0, 2024-03-13 22:42:14.594
58.0, -804.175727872178, -399.5297723663971, -506.9602685435675, -457.96944907400757, 0.800000037997961, 0.6240000296384096, 0.2400000113993883, 0.0, 0.0, 0.0, 0.0, 0.0, 1.7103949346082757E9, 0.0, 2024-03-13 22:42:14.608
58.0, -810.6644542953, -404.4813999077305, -502.50230779638514, -464.61525129526854, 0.800000037997961, 0.6240000296384096, 0.2400000113993883, 0.0, 0.0, 0.0, 0.0, 0.0, 1.7103949346082757E9, 0.0, 2024-03-13 22:42:14.608
59.0, -807.9717263272032, -404.234566510655, -504.08428547764197, -457.34862568136305, 0.800000037997961, 0.6240000296384096, 0.2400000113993883, 0.0, 0.0, 0.0, 0.0, 0.0, 1.7103949346242862E9, 0.0, 2024-03-13 22:42:14.624
59.0, -789.7322342433035, -388.9159362921491, -501.97498190263286, -448.52246178593487, 0.800000037997961, 0.6240000296384096, 0.2400000113993883, 0.0, 0.0, 0.0, 0.0, 0.0, 1.7103949346242862E9, 0.0, 2024-03-13 22:42:14.624
60.0, -811.1506412895396, -407.8660093676299, -512.0652319830842, -464.9967210907489, 0.800000037997961, 0.6240000296384096, 0.2400000113993883, 0.0, 0.0, 0.0, 0.0, 0.0, 1.7103949346250217E9, 0.0, 2024-03-13 22:42:14.625
60.0, -788.0604989631101, -393.5160132376477, -508.8900569207035, -455.5572136025876, 0.800000037997961, 0.6240000296384096, 0.2400000113993883, 0.0, 0.0, 0.0, 0.0, 0.0, 1.7103949346250217E9, 0.0, 2024-03-13 22:42:14.625
61.0, -783.1126113217324, -389.2263479884714, -498.4407764445059, -446.8058477062732, 0.800000037997961, 0.6240000296384096, 0.2400000113993883, 0.0, 0.0, 0.0, 0.0, 0.0, 1.7103949346386554E9, 0.0, 2024-03-13 22:42:14.638
61.0, -790.9776209285483, -395.25132681708783, -502.05351980170235, -452.247402141802, 0.800000037997961, 0.6240000296384096, 0.2400000113993883, 0.0, 0.0, 0.0, 0.0, 0.0, 1.7103949346386554E9, 0.0, 2024-03-13 22:42:14.638
62.0, -811.049663990736, -414.908240984194, -534.8449626131915, -475.8274713624269, 0.800000037997961, 0.6240000296384096, 0.2400000113993883, 0.0, 0.0, 0.0, 0.0, 0.0, 1.7103949346539695E9, 0.0, 2024-03-13 22:42:14.653
62.0, -789.1338502503932, -392.9961671438068, -516.8822231260128, -454.7381755122915, 0.800000037997961, 0.6240000296384096, 0.2400000113993883, 0.0, 0.0, 0.0, 0.0, 0.0, 1.7103949346539695E9, 0.0, 2024-03-13 22:42:14.653
63.0, -812.1940733771771, -408.6289489585906, -520.5323654827662, -465.49412778485566, 0.800000037997961, 0.6240000296384096, 0.2400000113993883, 0.0, 0.0, 0.0, 0.0, 0.0, 1.7103949346547337E9, 0.0, 2024-03-13 22:42:14.654
63.0, -805.0059856623411, -399.6681486647576, -508.1158976298757, -458.0779061727226, 0.800000037997961, 0.6240000296384096, 0.2400000113993883, 0.0, 0.0, 0.0, 0.0, 0.0, 1.7103949346547337E9, 0.0, 2024-03-13 22:42:14.654
64.0, -806.5692638438195, -393.71796783525497, -515.4835005425848, -453.9864556211978, 0.800000037997961, 0.6240000296384096, 0.2400000113993883, 0.0, 0.0, 0.0, 0.0, 0.0, 1.7103949346682763E9, 0.0, 2024-03-13 22:42:14.668
64.0, -801.2286867070943, -395.490680414252, -505.1164978654124, -450.68038406036794, 0.800000037997961, 0.6240000296384096, 0.2400000113993883, 0.0, 0.0, 0.0, 0.0, 0.0, 1.7103949346682763E9, 0.0, 2024-03-13 22:42:14.668
65.0, -810.6307951956987, -404.47018020786345, -495.8191065755673, -452.83082653488964, 0.800000037997961, 0.6240000296384096, 0.2400000113993883, 0.0, 0.0, 0.0, 0.0, 0.0, 1.7103949346840441E9, 0.0, 2024-03-13 22:42:14.684
65.0, -820.9379594735801, -411.31793702673167, -508.8227387215011, -461.79910662863404, 0.800000037997961, 0.6240000296384096, 0.2400000113993883, 0.0, 0.0, 0.0, 0.0, 0.0, 1.7103949346840441E9, 0.0, 2024-03-13 22:42:14.684
66.0, -808.3644158225507, -399.8663633624092, -515.3114651446231, -459.3195529580116, 0.800000037997961, 0.6240000296384096, 0.2400000113993883, 0.0, 0.0, 0.0, 0.0, 0.0, 1.7103949346846812E9, 0.0, 2024-03-13 22:42:14.684
66.0, -802.8144042883068, -408.06796396523714, -511.75856018671766, -462.4087103214115, 0.800000037997961, 0.6240000296384096, 0.2400000113993883, 0.0, 0.0, 0.0, 0.0, 0.0, 1.7103949346846812E9, 0.0, 2024-03-13 22:42:14.684
67.0, -806.9843927389011, -411.6021694233641, -518.5988372056745, -472.94774839654565, 0.800000037997961, 0.6240000296384096, 0.2400000113993883, 0.0, 0.0, 0.0, 0.0, 0.0, 1.710394934698248E9, 0.0, 2024-03-13 22:42:14.698
67.0, -818.1741734063253, -409.35448954999447, -520.3004916855134, -471.42934901453555, 0.800000037997961, 0.6240000296384096, 0.2400000113993883, 0.0, 0.0, 0.0, 0.0, 0.0, 1.710394934698248E9, 0.0, 2024-03-13 22:42:14.698
68.0, -817.5458702137694, -413.13926830515265, -515.9210688374005, -469.8959900327027, 0.800000037997961, 0.6240000296384096, 0.2400000113993883, 0.0, 0.0, 0.0, 0.0, 0.0, 1.7103949347141345E9, 0.0, 2024-03-13 22:42:14.714
68.0, -845.6175592811778, -430.18199240323156, -525.2222000272013, -487.18180762790143, 0.800000037997961, 0.6240000296384096, 0.2400000113993883, 0.0, 0.0, 0.0, 0.0, 0.0, 1.7103949347141345E9, 0.0, 2024-03-13 22:42:14.714
69.0, -816.3341426281258, -412.5296646123752, -532.0849164458923, -472.9701877962798, 0.800000037997961, 0.6240000296384096, 0.2400000113993883, 0.0, 0.0, 0.0, 0.0, 0.0, 1.7103949347147007E9, 0.0, 2024-03-13 22:42:14.714
69.0, -814.7334654470906, -413.5394376004115, -525.9066017190926, -475.35624396800995, 0.800000037997961, 0.6240000296384096, 0.2400000113993883, 0.0, 0.0, 0.0, 0.0, 0.0, 1.7103949347147007E9, 0.0, 2024-03-13 22:42:14.714
70.0, -822.8191291512921, -423.5249704821035, -521.8712496669032, -479.4963132189587, 0.800000037997961, 0.6240000296384096, 0.25600001215934753, 0.0, 0.0, 0.0, 0.0, 0.0, 1.7103949347283654E9, 0.0, 2024-03-13 22:42:14.728
70.0, -829.8239617682993, -429.0114037171006, -523.8646163432859, -483.9729734659195, 0.800000037997961, 0.6240000296384096, 0.25600001215934753, 0.0, 0.0, 0.0, 0.0, 0.0, 1.7103949347283654E9, 0.0, 2024-03-13 22:42:14.728
71.0, -812.1903334772214, -416.47151916567236, -528.5245316880755, -475.4871404664591, 0.800000037997961, 0.6240000296384096, 0.25600001215934753, 0.0, 0.0, 0.0, 0.0, 0.0, 1.710394934743978E9, 0.0, 2024-03-13 22:42:14.743
71.0, -822.6059548538178, -430.6046010982245, -532.9899722351693, -491.72952597402036, 0.800000037997961, 0.6240000296384096, 0.25600001215934753, 0.0, 0.0, 0.0, 0.0, 0.0, 1.710394934743978E9, 0.0, 2024-03-13 22:42:14.743
72.0, -827.1312338002026, -423.47635178267956, -533.2368056322448, -482.83978377934545, 0.800000037997961, 0.6240000296384096, 0.25600001215934753, 0.0, 0.0, 0.0, 0.0, 0.0, 1.7103949347446744E9, 0.0, 2024-03-13 22:42:14.744
72.0, -812.0893561784178, -402.5291721308604, -524.5564978350885, -466.1112112775445, 0.800000037997961, 0.6240000296384096, 0.25600001215934753, 0.0, 0.0, 0.0, 0.0, 0.0, 1.7103949347446744E9, 0.0, 2024-03-13 22:42:14.744
73.0, -806.6852007424459, -403.3332506213337, -510.1429234058596, -459.0390604613349, 0.800000037997961, 0.6240000296384096, 0.25600001215934753, 0.0, 0.0, 0.0, 0.0, 0.0, 1.710394934758284E9, 0.0, 2024-03-13 22:42:14.758
73.0, -807.6052161315456, -407.36112287361175, -521.8001915677451, -465.93917587958276, 0.800000037997961, 0.6240000296384096, 0.25600001215934753, 0.0, 0.0, 0.0, 0.0, 0.0, 1.710394934758284E9, 0.0, 2024-03-13 22:42:14.758
74.0, -812.9906720677391, -408.13902206439525, -531.2546586557291, -473.65458948817104, 0.800000037997961, 0.6240000296384096, 0.25600001215934753, 0.0, 0.0, 0.0, 0.0, 0.0, 1.7103949347742465E9, 0.0, 2024-03-13 22:42:14.774
74.0, -820.5153507785872, -409.8144972445443, -528.9920191825368, -472.8205917980522, 0.800000037997961, 0.6240000296384096, 0.25600001215934753, 0.0, 0.0, 0.0, 0.0, 0.0, 1.7103949347742465E9, 0.0, 2024-03-13 22:42:14.774
75.0, -812.231472376734, -411.4899724246934, -524.2460861387663, -475.5656783655286, 0.800000037997961, 0.6240000296384096, 0.25600001215934753, 0.0, 0.0, 0.0, 0.0, 0.0, 1.7103949347747943E9, 0.0, 2024-03-13 22:42:14.774
75.0, -812.1454546777532, -406.97217327822, -538.0388371753506, -476.6652089525014, 0.800000037997961, 0.6240000296384096, 0.25600001215934753, 0.0, 0.0, 0.0, 0.0, 0.0, 1.7103949347747943E9, 0.0, 2024-03-13 22:42:14.774
76.0, -786.5720187807456, -376.93703673407435, -492.89450481021777, -439.08669419772923, 0.800000037997961, 0.6240000296384096, 0.25600001215934753, 0.0, 0.0, 0.0, 0.0, 0.0, 1.7103949347886107E9, 0.0, 2024-03-13 22:42:14.788
76.0, -806.5430845441297, -402.3459170330316, -507.72320813452825, -456.64552448969334, 0.800000037997961, 0.6240000296384096, 0.25600001215934753, 0.0, 0.0, 0.0, 0.0, 0.0, 1.7103949347886107E9, 0.0, 2024-03-13 22:42:14.788
77.0, -805.5183519562706, -398.0861709835008, -518.1276098112576, -468.3775906506926, 0.800000037997961, 0.6240000296384096, 0.25600001215934753, 0.0, 0.0, 0.0, 0.0, 0.0, 1.7103949348042312E9, 0.0, 2024-03-13 22:42:14.804
77.0, -805.2266397597268, -406.5720039829612, -541.7600376312621, -474.8588372739032, 0.800000037997961, 0.6240000296384096, 0.25600001215934753, 0.0, 0.0, 0.0, 0.0, 0.0, 1.7103949348042312E9, 0.0, 2024-03-13 22:42:14.804
78.0, -791.0187598280609, -397.3681101920083, -511.0778983947821, -463.20530901197344, 0.800000037997961, 0.6240000296384096, 0.25600001215934753, 0.0, 0.0, 0.0, 0.0, 0.0, 1.7103949348048232E9, 0.0, 2024-03-13 22:42:14.804
78.0, -804.8152507646009, -401.822331039235, -522.4920730595477, -473.3329580919817, 0.800000037997961, 0.6240000296384096, 0.25600001215934753, 0.0, 0.0, 0.0, 0.0, 0.0, 1.7103949348048232E9, 0.0, 2024-03-13 22:42:14.804
79.0, -806.8310568407178, -397.7346203876659, -519.7544662919827, -463.5157207082957, 0.800000037997961, 0.6240000296384096, 0.25600001215934753, 0.0, 0.0, 0.0, 0.0, 0.0, 1.7103949348184958E9, 0.0, 2024-03-13 22:42:14.818
79.0, -794.3285712888464, -392.3080255519599, -502.38637089775875, -448.9263709811494, 0.800000037997961, 0.6240000296384096, 0.25600001215934753, 0.0, 0.0, 0.0, 0.0, 0.0, 1.7103949348184958E9, 0.0, 2024-03-13 22:42:14.818
80.0, -822.4152199560776, -414.4295337898657, -532.5411842404865, -477.90685573779047, 0.800000037997961, 0.6240000296384096, 0.25600001215934753, 0.0, 0.0, 0.0, 0.0, 0.0, 1.710394934833999E9, 0.0, 2024-03-13 22:42:14.833
80.0, -818.9146735975519, -417.163400657475, -553.8511341880076, -481.88236939068884, 0.800000037997961, 0.6240000296384096, 0.25600001215934753, 0.0, 0.0, 0.0, 0.0, 0.0, 1.710394934833999E9, 0.0, 2024-03-13 22:42:14.833
81.0, -783.3145659193397, -389.8434314811602, -534.441053417977, -464.2300415998325, 0.800000037997961, 0.6240000296384096, 0.25600001215934753, 0.0, 0.0, 0.0, 0.0, 0.0, 1.7103949348346424E9, 0.0, 2024-03-13 22:42:14.834
81.0, -809.2694716118276, -409.0552975535393, -535.9257937003858, -478.98020702507347, 0.800000037997961, 0.6240000296384096, 0.25600001215934753, 0.0, 0.0, 0.0, 0.0, 0.0, 1.7103949348346424E9, 0.0, 2024-03-13 22:42:14.834
82.0, -803.7568590771407, -401.65777544118464, -537.7471249788068, -479.0363055244088, 0.800000037997961, 0.6240000296384096, 0.25600001215934753, 0.0, 0.0, 0.0, 0.0, 0.0, 1.7103949348482773E9, 0.0, 2024-03-13 22:42:14.848
82.0, -792.7503335075453, -389.45822178572416, -535.5331042050384, -469.34996463917196, 0.800000037997961, 0.6240000296384096, 0.25600001215934753, 0.0, 0.0, 0.0, 0.0, 0.0, 1.7103949348482773E9, 0.0, 2024-03-13 22:42:14.848
83.0, -789.5227998457849, -389.61529758386314, -519.8404839909635, -461.7430081292987, 0.800000037997961, 0.6240000296384096, 0.25600001215934753, 0.0, 0.0, 0.0, 0.0, 0.0, 1.7103949348638887E9, 0.0, 2024-03-13 22:42:14.863
83.0, -794.9344350816682, -392.0761517547071, -500.4491027207114, -453.6236853254959, 0.800000037997961, 0.6240000296384096, 0.25600001215934753, 0.0, 0.0, 0.0, 0.0, 0.0, 1.7103949348638887E9, 0.0, 2024-03-13 22:42:14.863
84.0, -780.9808683469892, -389.1440701894462, -504.75746746966615, -444.11311973817647, 0.800000037997961, 0.6240000296384096, 0.25600001215934753, 0.0, 0.0, 0.0, 0.0, 0.0, 1.71039493486463E9, 0.0, 2024-03-13 22:42:14.864
84.0, -791.3927498236299, -393.5870713368058, -508.4001300265081, -451.7986141471192, 0.800000037997961, 0.6240000296384096, 0.25600001215934753, 0.0, 0.0, 0.0, 0.0, 0.0, 1.71039493486463E9, 0.0, 2024-03-13 22:42:14.864
85.0, -814.3258163519204, -409.91921444330364, -499.5814459309913, -452.187563742511, 0.800000037997961, 0.6240000296384096, 0.25600001215934753, 0.0, 0.0, 0.0, 0.0, 0.0, 1.710394934878277E9, 0.0, 2024-03-13 22:42:14.878
85.0, -808.1961203245446, -409.0029389541596, -506.1748895528726, -451.873412146233, 0.800000037997961, 0.6240000296384096, 0.25600001215934753, 0.0, 0.0, 0.0, 0.0, 0.0, 1.710394934878277E9, 0.0, 2024-03-13 22:42:14.878
86.0, -790.5512723335996, -388.35869119875133, -479.92827166384086, -436.21819093171507, 0.800000037997961, 0.6240000296384096, 0.25600001215934753, 0.0, 0.0, 0.0, 0.0, 0.0, 1.7103949348939412E9, 0.0, 2024-03-13 22:42:14.893
86.0, -806.0419379500672, -401.91956843808293, -505.374550962355, -458.2162824710831, 0.800000037997961, 0.6240000296384096, 0.25600001215934753, 0.0, 0.0, 0.0, 0.0, 0.0, 1.7103949348939412E9, 0.0, 2024-03-13 22:42:14.893
87.0, -801.9093484990299, -397.2222540937364, -505.13519736519083, -454.2931274175644, 0.800000037997961, 0.6240000296384096, 0.25600001215934753, 0.0, 0.0, 0.0, 0.0, 0.0, 1.7103949348947475E9, 0.0, 2024-03-13 22:42:14.894
87.0, -785.0610991986468, -381.01726758573204, -502.6668633944355, -440.9155052760616, 0.800000037997961, 0.6240000296384096, 0.25600001215934753, 0.0, 0.0, 0.0, 0.0, 0.0, 1.7103949348947475E9, 0.0, 2024-03-13 22:42:14.894
88.0, -783.0340734226629, -378.9865019097924, -496.31651326967403, -442.29552835971117, 0.800000037997961, 0.6240000296384096, 0.25600001215934753, 0.0, 0.0, 0.0, 0.0, 0.0, 1.7103949349086716E9, 0.0, 2024-03-13 22:42:14.908
88.0, -790.0725651392713, -397.263392993249, -509.36128431512043, -457.6889565773308, 0.800000037997961, 0.6240000296384096, 0.25600001215934753, 0.0, 0.0, 0.0, 0.0, 0.0, 1.7103949349086716E9, 0.0, 2024-03-13 22:42:14.908
89.0, -795.648755973205, -382.3748512696475, -501.7019692058675, -442.74805625434965, 0.800000037997961, 0.6240000296384096, 0.25600001215934753, 0.0, 0.0, 0.0, 0.0, 0.0, 1.710394934924126E9, 0.0, 2024-03-13 22:42:14.924
89.0, -779.9112569596618, -377.954289522022, -483.48491652170196, -427.47430483531207, 0.800000037997961, 0.6240000296384096, 0.25600001215934753, 0.0, 0.0, 0.0, 0.0, 0.0, 1.710394934924126E9, 0.0, 2024-03-13 22:42:14.924
90.0, -790.5512723335996, -388.05949920229614, -494.12493189563975, -446.52535520959646, 0.800000037997961, 0.6240000296384096, 0.25600001215934753, 0.0, 0.0, 0.0, 0.0, 0.0, 1.7103949349246788E9, 0.0, 2024-03-13 22:42:14.924
90.0, -799.7551661245525, -398.7182140760124, -515.0870711472817, -462.9248165152967, 0.800000037997961, 0.6240000296384096, 0.25600001215934753, 0.0, 0.0, 0.0, 0.0, 0.0, 1.7103949349246788E9, 0.0, 2024-03-13 22:42:14.924
91.0, -790.884123429656, -383.5940586552024, -512.6823154757731, -447.71464339550585, 0.800000037997961, 0.6240000296384096, 0.25600001215934753, 0.0, 0.0, 0.0, 0.0, 0.0, 1.7103949349383087E9, 0.0, 2024-03-13 22:42:14.938
91.0, -806.7973977411166, -407.28632487449795, -513.3554974677972, -461.5560131315142, 0.800000037997961, 0.6240000296384096, 0.25600001215934753, 0.0, 0.0, 0.0, 0.0, 0.0, 1.7103949349383087E9, 0.0, 2024-03-13 22:42:14.938
92.0, -813.4245004625991, -415.68988007493317, -529.508125376422, -475.0869711712003, 0.800000037997961, 0.6240000296384096, 0.25600001215934753, 0.0, 0.0, 0.0, 0.0, 0.0, 1.7103949349539917E9, 0.0, 2024-03-13 22:42:14.953
92.0, -793.4983134986833, -392.0462325550616, -527.1519884043373, -458.12278497219086, 0.800000037997961, 0.6240000296384096, 0.25600001215934753, 0.0, 0.0, 0.0, 0.0, 0.0, 1.7103949349539917E9, 0.0, 2024-03-13 22:42:14.953
93.0, -805.2528190594167, -402.6039701299742, -518.677375104744, -462.6181447189301, 0.800000037997961, 0.6240000296384096, 0.25600001215934753, 0.0, 0.0, 0.0, 0.0, 0.0, 1.7103949349549143E9, 0.0, 2024-03-13 22:42:14.954
93.0, -812.0968359783292, -415.6861401749775, -526.407748313155, -473.7817460866645, 0.800000037997961, 0.6240000296384096, 0.25600001215934753, 0.0, 0.0, 0.0, 0.0, 0.0, 1.7103949349549143E9, 0.0, 2024-03-13 22:42:14.954
94.0, -805.8699025521055, -407.8660093676299, -516.1604224345647, -459.78704045247287, 0.800000037997961, 0.6240000296384096, 0.25600001215934753, 0.0, 0.0, 0.0, 0.0, 0.0, 1.7103949349682417E9, 0.0, 2024-03-13 22:42:14.968
94.0, -804.3702026698738, -406.17557458765805, -511.68750208755955, -459.90297735109925, 0.800000037997961, 0.6240000296384096, 0.25600001215934753, 0.0, 0.0, 0.0, 0.0, 0.0, 1.7103949349682417E9, 0.0, 2024-03-13 22:42:14.968
95.0, -799.1081634322181, -405.70060729328543, -504.6714497706853, -460.7668942408636, 0.800000037997961, 0.6240000296384096, 0.25600001215934753, 0.0, 0.0, 0.0, 0.0, 0.0, 1.7103949349839828E9, 0.0, 2024-03-13 22:42:14.983
95.0, -809.1984135126695, -403.80821791570634, -521.7029541688971, -470.16526282951236, 0.800000037997961, 0.6240000296384096, 0.25600001215934753, 0.0, 0.0, 0.0, 0.0, 0.0, 1.7103949349839828E9, 0.0, 2024-03-13 22:42:14.983
96.0, -787.2938194721937, -393.5197531376034, -513.0563054713421, -454.6970366127789, 0.800000037997961, 0.6240000296384096, 0.25600001215934753, 0.0, 0.0, 0.0, 0.0, 0.0, 1.7103949349846745E9, 0.0, 2024-03-13 22:42:14.984
96.0, -789.1525497501716, -395.8497108099982, -511.0367594952695, -456.19299659505486, 0.800000037997961, 0.6240000296384096, 0.25600001215934753, 0.0, 0.0, 0.0, 0.0, 0.0, 1.7103949349846745E9, 0.0, 2024-03-13 22:42:14.984
97.0, -797.5710645504296, -410.17352764029056, -525.0950434287079, -466.9564286675304, 0.800000037997961, 0.6240000296384096, 0.25600001215934753, 0.0, 0.0, 0.0, 0.0, 0.0, 1.7103949349982555E9, 0.0, 2024-03-13 22:42:14.998
97.0, -796.0040464689955, -404.8142510037869, -527.6456551984884, -460.5836391430348, 0.800000037997961, 0.6240000296384096, 0.25600001215934753, 0.0, 0.0, 0.0, 0.0, 0.0, 1.7103949349982555E9, 0.0, 2024-03-13 22:42:14.998
98.0, -791.4301488231868, -402.79844492767006, -512.7683331747539, -458.5453936671838, 0.800000037997961, 0.6240000296384096, 0.25600001215934753, 0.0, 0.0, 0.0, 0.0, 0.0, 1.7103949350139327E9, 0.0, 2024-03-13 22:42:15.013
98.0, -788.3970899591222, -390.5876715723425, -484.6592451077886, -444.8461401294917, 0.800000037997961, 0.6240000296384096, 0.25600001215934753, 0.0, 0.0, 0.0, 0.0, 0.0, 1.7103949350139327E9, 0.0, 2024-03-13 22:42:15.013
99.0, -807.7435924299061, -394.9371752208099, -505.3670711624436, -454.816713411361, 0.800000037997961, 0.6240000296384096, 0.25600001215934753, 0.0, 0.0, 0.0, 0.0, 0.0, 1.7103949350146139E9, 0.0, 2024-03-13 22:42:15.014
99.0, -788.9917340520769, -384.6674099424854, -515.3413843442686, -450.59810626134276, 0.800000037997961, 0.6240000296384096, 0.25600001215934753, 0.0, 0.0, 0.0, 0.0, 0.0, 1.7103949350146139E9, 0.0, 2024-03-13 22:42:15.014
100.0, -795.5440387744457, -392.1098108543083, -515.9771673367359, -458.9306033626199, 0.800000037997961, 0.6240000296384096, 0.25600001215934753, 0.0, 0.0, 0.0, 0.0, 0.0, 1.7103949350293295E9, 0.0, 2024-03-13 22:42:15.029
100.0, -791.0038002282381, -387.1768828127533, -513.4415151667781, -453.8069404233247, 0.800000037997961, 0.6240000296384096, 0.25600001215934753, 0.0, 0.0, 0.0, 0.0, 0.0, 1.7103949350293295E9, 0.0, 2024-03-13 22:42:15.029
0.0, -783.4155432181433, -386.18019947456196, -525.7607456208207, -462.72286191768944, 0.800000037997961, 0.6240000296384096, 0.25600001215934753, 0.0, 0.0, 0.0, 0.0, 0.0, 1.710394935029747E9, 0.0, 2024-03-13 22:42:15.029
1.0, -810.5859163962305, -410.2464556894265, -540.1219614506699, -472.98140749614686, 0.800000037997961, 0.6240000296384096, 0.25600001215934753, 0.0, 0.0, 0.0, 0.0, 0.0, 1.7103949350432324E9, 0.0, 2024-03-13 22:42:15.043
1.0, -809.7182596065104, -407.213396825362, -531.1873404565267, -469.32378533948213, 0.800000037997961, 0.6240000296384096, 0.25600001215934753, 0.0, 0.0, 0.0, 0.0, 0.0, 1.7103949350432324E9, 0.0, 2024-03-13 22:42:15.043
2.0, -803.487586280331, -408.93375080497935, -534.1530811213888, -465.83071878086776, 0.800000037997961, 0.6240000296384096, 0.25600001215934753, 0.0, 0.0, 0.0, 0.0, 0.0, 1.7103949350590825E9, 0.0, 2024-03-13 22:42:15.059
2.0, -800.8172977119684, -404.27009556023404, -526.4825463122688, -467.5959515599534, 0.800000037997961, 0.6240000296384096, 0.25600001215934753, 0.0, 0.0, 0.0, 0.0, 0.0, 1.7103949350590825E9, 0.0, 2024-03-13 22:42:15.059
3.0, -814.0976824546233, -411.3235468766652, -521.4561207718216, -472.0726118069142, 0.800000037997961, 0.6240000296384096, 0.25600001215934753, 0.0, 0.0, 0.0, 0.0, 0.0, 1.7103949350598516E9, 0.0, 2024-03-13 22:42:15.059
3.0, -805.8736424520612, -404.85725985327736, -526.5610842113383, -470.7374675227329, 0.800000037997961, 0.6240000296384096, 0.25600001215934753, 0.0, 0.0, 0.0, 0.0, 0.0, 1.7103949350598516E9, 0.0, 2024-03-13 22:42:15.059
4.0, -779.511087664403, -388.6410536454059, -510.76748669845983, -451.71633634809405, 0.800000037997961, 0.6240000296384096, 0.25600001215934753, 0.0, 0.0, 0.0, 0.0, 0.0, 1.7103949350736933E9, 0.0, 2024-03-13 22:42:15.073
4.0, -801.2773054065183, -405.33970694756135, -515.7639930392615, -469.4172828383744, 0.800000037997961, 0.6240000296384096, 0.25600001215934753, 0.0, 0.0, 0.0, 0.0, 0.0, 1.7103949350736933E9, 0.0, 2024-03-13 22:42:15.073
5.0, -790.4128960352391, -394.0302494815551, -513.2545201689936, -458.38457796908915, 0.800000037997961, 0.6240000296384096, 0.25600001215934753, 0.0, 0.0, 0.0, 0.0, 0.0, 1.7103949350893087E9, 0.0, 2024-03-13 22:42:15.089
5.0, -765.0526344357058, -369.10755617683753, -488.6160592609085, -435.6534660384059, 0.800000037997961, 0.6240000296384096, 0.25600001215934753, 0.0, 0.0, 0.0, 0.0, 0.0, 1.7103949350893087E9, 0.0, 2024-03-13 22:42:15.089
6.0, -782.8283789251, -384.47480509476736, -504.57795227179304, -452.83082653488964, 0.800000037997961, 0.6240000296384096, 0.25600001215934753, 0.0, 0.0, 0.0, 0.0, 0.0, 1.7103949350899231E9, 0.0, 2024-03-13 22:42:15.089
6.0, -782.7161819264293, -387.8407150548883, -508.5235467250459, -450.8038007589057, 0.800000037997961, 0.6240000296384096, 0.25600001215934753, 0.0, 0.0, 0.0, 0.0, 0.0, 1.7103949350899231E9, 0.0, 2024-03-13 22:42:15.089
7.0, -774.0096948295832, -378.9846319598146, -506.6947356467135, -443.75034944247454, 0.800000037997961, 0.6240000296384096, 0.25600001215934753, 0.0, 0.0, 0.0, 0.0, 0.0, 1.7103949351032376E9, 0.0, 2024-03-13 22:42:15.103
7.0, -769.0094485888258, -374.601469211746, -482.6583986314945, -432.9794375700876, 0.800000037997961, 0.6240000296384096, 0.25600001215934753, 0.0, 0.0, 0.0, 0.0, 0.0, 1.7103949351032376E9, 0.0, 2024-03-13 22:42:15.103
8.0, -804.1009298730642, -410.04824099177495, -511.7847394864075, -463.029533714056, 0.800000037997961, 0.6240000296384096, 0.25600001215934753, 0.0, 0.0, 0.0, 0.0, 0.0, 1.7103949351189861E9, 0.0, 2024-03-13 22:42:15.118
8.0, -811.9248005803674, -416.23403551848605, -525.1249626283534, -467.1883024647832, 0.800000037997961, 0.6240000296384096, 0.25600001215934753, 0.0, 0.0, 0.0, 0.0, 0.0, 1.7103949351189861E9, 0.0, 2024-03-13 22:42:15.118
9.0, -782.622684427537, -388.7906496436335, -497.5506802550517, -441.79064186569303, 0.800000037997961, 0.6240000296384096, 0.25600001215934753, 0.0, 0.0, 0.0, 0.0, 0.0, 1.710394935119708E9, 0.0, 2024-03-13 22:42:15.119
9.0, -812.8448159694672, -415.2841009297408, -513.9464016607963, -460.0002147499472, 0.800000037997961, 0.6240000296384096, 0.25600001215934753, 0.0, 0.0, 0.0, 0.0, 0.0, 1.710394935119708E9, 0.0, 2024-03-13 22:42:15.119
10.0, -796.4752738634124, -396.4200455532409, -502.3788910978474, -443.85880654118955, 0.800000037997961, 0.6240000296384096, 0.25600001215934753, 0.0, 0.0, 0.0, 0.0, 0.0, 1.710394935133252E9, 0.0, 2024-03-13 22:42:15.133
10.0, -777.5513800876215, -375.11009560571983, -489.5061554503627, -424.93117286544293, 0.800000037997961, 0.6240000296384096, 0.25600001215934753, 0.0, 0.0, 0.0, 0.0, 0.0, 1.710394935133252E9, 0.0, 2024-03-13 22:42:15.133
11.0, -794.7362203840166, -392.137860103976, -504.80234626913443, -443.3613998470828, 0.800000037997961, 0.6240000296384096, 0.25600001215934753, 0.0, 0.0, 0.0, 0.0, 0.0, 1.7103949351491067E9, 0.0, 2024-03-13 22:42:15.149
11.0, -811.1955200890079, -407.0638008271344, -511.1601761938073, -464.6227310951799, 0.800000037997961, 0.6240000296384096, 0.25600001215934753, 0.0, 0.0, 0.0, 0.0, 0.0, 1.7103949351491067E9, 0.0, 2024-03-13 22:42:15.149
12.0, -791.3890099236742, -395.10734066879377, -504.7761669694446, -453.63490502536297, 0.800000037997961, 0.6240000296384096, 0.25600001215934753, 0.0, 0.0, 0.0, 0.0, 0.0, 1.7103949351497397E9, 0.0, 2024-03-13 22:42:15.149
12.0, -800.5555047150701, -399.66627871477976, -515.0122731481679, -466.8816306684166, 0.800000037997961, 0.6240000296384096, 0.25600001215934753, 0.0, 0.0, 0.0, 0.0, 0.0, 1.7103949351497397E9, 0.0, 2024-03-13 22:42:15.149
13.0, -794.5529652861878, -401.5885872920044, -506.6610765471123, -462.704162417911, 0.800000037997961, 0.6240000296384096, 0.25600001215934753, 0.0, 0.0, 0.0, 0.0, 0.0, 1.7103949351633053E9, 0.0, 2024-03-13 22:42:15.163
13.0, -774.4958818238229, -383.80910290265456, -501.9188834032975, -446.5851936088875, 0.800000037997961, 0.6240000296384096, 0.25600001215934753, 0.0, 0.0, 0.0, 0.0, 0.0, 1.7103949351633053E9, 0.0, 2024-03-13 22:42:15.163
14.0, -774.8736117193475, -375.33448960306123, -491.30130742909387, -436.21819093171507, 0.800000037997961, 0.6240000296384096, 0.25600001215934753, 0.0, 0.0, 0.0, 0.0, 0.0, 1.7103949351789825E9, 0.0, 2024-03-13 22:42:15.178
14.0, -791.2057548258454, -391.45345841208473, -502.31905269855633, -451.27502815332264, 0.800000037997961, 0.6240000296384096, 0.25600001215934753, 0.0, 0.0, 0.0, 0.0, 0.0, 1.7103949351789825E9, 0.0, 2024-03-13 22:42:15.178
15.0, -792.006093416363, -391.19166541518643, -512.3494643797167, -452.8794452343136, 0.800000037997961, 0.6240000296384096, 0.25600001215934753, 0.0, 0.0, 0.0, 0.0, 0.0, 1.7103949351797016E9, 0.0, 2024-03-13 22:42:15.179
15.0, -792.5072400104254, -393.58894128678367, -523.2288333508186, -455.56843330245465, 0.800000037997961, 0.6240000296384096, 0.25600001215934753, 0.0, 0.0, 0.0, 0.0, 0.0, 1.7103949351797016E9, 0.0, 2024-03-13 22:42:15.179
16.0, -793.1205836031586, -387.0441163643263, -518.7110342043452, -464.0654860017821, 0.800000037997961, 0.6240000296384096, 0.25600001215934753, 0.0, 0.0, 0.0, 0.0, 0.0, 1.7103949351933284E9, 0.0, 2024-03-13 22:42:15.193
16.0, -795.8507105708122, -400.9789835992269, -528.7825847850181, -474.7915190747008, 0.800000037997961, 0.6240000296384096, 0.25600001215934753, 0.0, 0.0, 0.0, 0.0, 0.0, 1.7103949351933284E9, 0.0, 2024-03-13 22:42:15.193
17.0, -756.4807837372646, -371.5272714481689, -512.297105780337, -452.5877330377698, 0.800000037997961, 0.6240000296384096, 0.25600001215934753, 0.0, 0.0, 0.0, 0.0, 0.0, 1.7103949352090805E9, 0.0, 2024-03-13 22:42:15.209
17.0, -769.0655470881611, -384.3551282961853, -509.5221000132151, -456.79138058796525, 0.800000037997961, 0.6240000296384096, 0.25600001215934753, 0.0, 0.0, 0.0, 0.0, 0.0, 1.7103949352090805E9, 0.0, 2024-03-13 22:42:15.209
18.0, -774.5856394227594, -391.2477639145218, -518.2734659095295, -465.2659938875586, 0.800000037997961, 0.6240000296384096, 0.25600001215934753, 0.0, 0.0, 0.0, 0.0, 0.0, 1.710394935209714E9, 0.0, 2024-03-13 22:42:15.209
18.0, -771.6946967570111, -380.2374984449707, -507.6334505355917, -451.7425156477839, 0.800000037997961, 0.6240000296384096, 0.25600001215934753, 0.0, 0.0, 0.0, 0.0, 0.0, 1.710394935209714E9, 0.0, 2024-03-13 22:42:15.209
19.0, -745.7397910645232, -353.75526685873047, -477.26172299543396, -420.1553206220269, 0.800000037997961, 0.6240000296384096, 0.25600001215934753, 0.0, 0.0, 0.0, 0.0, 0.0, 1.710394935223481E9, 0.0, 2024-03-13 22:42:15.223
19.0, -771.5039618592709, -378.99585165968165, -488.5487410617061, -433.2898492664099, 0.800000037997961, 0.6240000296384096, 0.25600001215934753, 0.0, 0.0, 0.0, 0.0, 0.0, 1.710394935223481E9, 0.0, 2024-03-13 22:42:15.223
20.0, -765.7819149270654, -369.1898339758627, -499.0653397371061, -423.37163458392024, 0.800000037997961, 0.6240000296384096, 0.25600001215934753, 0.0, 0.0, 0.0, 0.0, 0.0, 1.7103949352392087E9, 0.0, 2024-03-13 22:42:15.239
20.0, -739.482938438654, -348.1117578255944, -484.8462401055731, -409.8294568443671, 0.800000037997961, 0.6240000296384096, 0.25600001215934753, 0.0, 0.0, 0.0, 0.0, 0.0, 1.7103949352392087E9, 0.0, 2024-03-13 22:42:15.239
21.0, -762.5095024658367, -374.5939894118346, -486.01682879170403, -428.40180002432317, 0.800000037997961, 0.6240000296384096, 0.25600001215934753, 0.0, 0.0, 0.0, 0.0, 0.0, 1.710394935239715E9, 0.0, 2024-03-13 22:42:15.239
21.0, -757.18762482889, -365.54717141902074, -491.5219615264796, -436.52112282812595, 0.800000037997961, 0.6240000296384096, 0.25600001215934753, 0.0, 0.0, 0.0, 0.0, 0.0, 1.710394935239715E9, 0.0, 2024-03-13 22:42:15.239
22.0, -751.2337040994316, -365.3040779219009, -500.98016851441935, -439.6888180905953, 0.800000037997961, 0.6240000296384096, 0.25600001215934753, 0.0, 0.0, 0.0, 0.0, 0.0, 1.71039493525329E9, 0.0, 2024-03-13 22:42:15.253
22.0, -740.2047391301021, -359.27535919332877, -495.83032627543435, -434.32954145409167, 0.800000037997961, 0.6240000296384096, 0.25600001215934753, 0.0, 0.0, 0.0, 0.0, 0.0, 1.71039493525329E9, 0.0, 2024-03-13 22:42:15.253
23.0, -760.093527094461, -372.84371623257175, -497.09441246045753, -445.3921655230224, 0.800000037997961, 0.6240000296384096, 0.25600001215934753, 0.0, 0.0, 0.0, 0.0, 0.0, 1.710394935269225E9, 0.0, 2024-03-13 22:42:15.269
23.0, -761.7764820745215, -363.5650244425051, -493.67614390095696, -434.6923117497936, 0.800000037997961, 0.6240000296384096, 0.25600001215934753, 0.0, 0.0, 0.0, 0.0, 0.0, 1.710394935269225E9, 0.0, 2024-03-13 22:42:15.269
24.0, -760.9050853848457, -366.3512499094941, -483.6270327200182, -424.10465497523546, 0.800000037997961, 0.6240000296384096, 0.25600001215934753, 0.0, 0.0, 0.0, 0.0, 0.0, 1.7103949352699518E9, 0.0, 2024-03-13 22:42:15.269
24.0, -758.8257010094821, -363.69218104099855, -487.7035236717202, -426.9881178410724, 0.800000037997961, 0.6240000296384096, 0.25600001215934753, 0.0, 0.0, 0.0, 0.0, 0.0, 1.7103949352699518E9, 0.0, 2024-03-13 22:42:15.269
25.0, -774.8586521195248, -381.307109832298, -517.3459707205184, -447.4640700984746, 0.800000037997961, 0.6240000296384096, 0.25600001215934753, 0.0, 0.0, 0.0, 0.0, 0.0, 1.710394935283285E9, 0.0, 2024-03-13 22:42:15.283
25.0, -768.5569206941873, -374.5939894118346, -516.6540892287157, -447.00406240392476, 0.800000037997961, 0.6240000296384096, 0.25600001215934753, 0.0, 0.0, 0.0, 0.0, 0.0, 1.710394935283285E9, 0.0, 2024-03-13 22:42:15.283
26.0, -774.7501950208098, -380.14026104612276, -511.2910726922564, -449.92866416927427, 0.800000037997961, 0.6240000296384096, 0.25600001215934753, 0.0, 0.0, 0.0, 0.0, 0.0, 1.7103949352989843E9, 0.0, 2024-03-13 22:42:15.298
26.0, -785.1620764974505, -386.99923756485805, -517.2262939219363, -458.7062093652785, 0.800000037997961, 0.6240000296384096, 0.25600001215934753, 0.0, 0.0, 0.0, 0.0, 0.0, 1.7103949352989843E9, 0.0, 2024-03-13 22:42:15.298
27.0, -765.0227152360603, -369.1673945761286, -497.6927964533679, -438.9969365987927, 0.800000037997961, 0.6240000296384096, 0.25600001215934753, 0.0, 0.0, 0.0, 0.0, 0.0, 1.7103949352996733E9, 0.0, 2024-03-13 22:42:15.299
27.0, -780.2665474554524, -368.35583628574386, -489.177044254262, -437.52715591620654, 0.800000037997961, 0.6240000296384096, 0.25600001215934753, 0.0, 0.0, 0.0, 0.0, 0.0, 1.7103949352996733E9, 0.0, 2024-03-13 22:42:15.299
28.0, -788.460668258369, -390.18189242715016, -514.4026694553904, -453.7321424242109, 0.800000037997961, 0.6240000296384096, 0.25600001215934753, 0.0, 0.0, 0.0, 0.0, 0.0, 1.710394935313286E9, 0.0, 2024-03-13 22:42:15.313
28.0, -756.9594909315929, -369.0813768771477, -501.98246170254424, -434.9578446466476, 0.800000037997961, 0.6240000296384096, 0.25600001215934753, 0.0, 0.0, 0.0, 0.0, 0.0, 1.710394935313286E9, 0.0, 2024-03-13 22:42:15.313
29.0, -748.8663474274799, -352.4163826745935, -471.8052089600824, -412.9672329071909, 0.800000037997961, 0.6240000296384096, 0.25600001215934753, 0.0, 0.0, 0.0, 0.0, 0.0, 1.7103949353289802E9, 0.0, 2024-03-13 22:42:15.328
29.0, -772.5212146472186, -368.35583628574386, -478.71654407819733, -432.1416999800131, 0.800000037997961, 0.6240000296384096, 0.25600001215934753, 0.0, 0.0, 0.0, 0.0, 0.0, 1.7103949353289802E9, 0.0, 2024-03-13 22:42:15.328
30.0, -777.8879710836336, -374.6725273109041, -491.60797922546044, -436.6968981260434, 0.800000037997961, 0.6240000296384096, 0.27200001291930676, 0.0, 0.0, 0.0, 0.0, 0.0, 1.7103949353296907E9, 0.0, 2024-03-13 22:42:15.329
30.0, -746.6523266537115, -353.9235623567365, -460.21525899739936, -408.88326215557754, 0.800000037997961, 0.6240000296384096, 0.27200001291930676, 0.0, 0.0, 0.0, 0.0, 0.0, 1.7103949353296907E9, 0.0, 2024-03-13 22:42:15.329
31.0, -752.2285174876451, -352.771673170384, -458.03115742327645, -416.7819308619946, 0.800000037997961, 0.6240000296384096, 0.27200001291930676, 0.0, 0.0, 0.0, 0.0, 0.0, 1.7103949353433049E9, 0.0, 2024-03-13 22:42:15.343
31.0, -774.6417379220948, -377.95241957204416, -499.9928349261172, -443.8438469413668, 0.800000037997961, 0.6240000296384096, 0.27200001291930676, 0.0, 0.0, 0.0, 0.0, 0.0, 1.7103949353433049E9, 0.0, 2024-03-13 22:42:15.343
32.0, -744.2774901818484, -354.2900725523941, -493.0665402081795, -426.77868344355375, 0.800000037997961, 0.6240000296384096, 0.27200001291930676, 0.0, 0.0, 0.0, 0.0, 0.0, 1.7103949353594403E9, 0.0, 2024-03-13 22:42:15.359
32.0, -751.9742042906582, -370.7194530577399, -490.515928438399, -435.9863171344623, 0.800000037997961, 0.6240000296384096, 0.27200001291930676, 0.0, 0.0, 0.0, 0.0, 0.0, 1.7103949353594403E9, 0.0, 2024-03-13 22:42:15.359
33.0, -775.965662506409, -386.7598839676939, -509.3051858157851, -452.9654629332945, 0.800000037997961, 0.6240000296384096, 0.27200001291930676, 0.0, 0.0, 0.0, 0.0, 0.0, 1.7103949353599887E9, 0.0, 2024-03-13 22:42:15.359
33.0, -773.4225305365399, -371.3739355499856, -507.1061246418394, -441.86169996485114, 0.800000037997961, 0.6240000296384096, 0.27200001291930676, 0.0, 0.0, 0.0, 0.0, 0.0, 1.7103949353599887E9, 0.0, 2024-03-13 22:42:15.359
34.0, -773.8488791314885, -366.4896262078546, -504.7761669694446, -442.34040715917945, 0.800000037997961, 0.6240000296384096, 0.27200001291930676, 0.0, 0.0, 0.0, 0.0, 0.0, 1.7103949353732767E9, 0.0, 2024-03-13 22:42:15.373
34.0, -780.7751738494262, -372.13687514094636, -511.2648933925666, -450.75518205948174, 0.800000037997961, 0.6240000296384096, 0.27200001291930676, 0.0, 0.0, 0.0, 0.0, 0.0, 1.7103949353732767E9, 0.0, 2024-03-13 22:42:15.373
35.0, -769.9706028774381, -364.9712268258445, -515.8051319387741, -443.33522054739296, 0.800000037997961, 0.6240000296384096, 0.27200001291930676, 0.0, 0.0, 0.0, 0.0, 0.0, 1.7103949353892982E9, 0.0, 2024-03-13 22:42:15.389
35.0, -754.7043312583119, -351.0027004913427, -514.5373058537953, -435.00646334607154, 0.800000037997961, 0.6240000296384096, 0.27200001291930676, 0.0, 0.0, 0.0, 0.0, 0.0, 1.7103949353892982E9, 0.0, 2024-03-13 22:42:15.389
36.0, -762.6890176637098, -362.9329813499935, -502.3676713979803, -441.1062401738018, 0.800000037997961, 0.6240000296384096, 0.27200001291930676, 0.0, 0.0, 0.0, 0.0, 0.0, 1.71039493538989E9, 0.0, 2024-03-13 22:42:15.389
36.0, -765.0376748358831, -364.2569059343077, -493.361992304679, -435.3617538418621, 0.800000037997961, 0.6240000296384096, 0.27200001291930676, 0.0, 0.0, 0.0, 0.0, 0.0, 1.71039493538989E9, 0.0, 2024-03-13 22:42:15.389
37.0, -754.3901796620339, -355.9655477325432, -480.9417845518328, -422.92284658923745, 0.800000037997961, 0.6240000296384096, 0.27200001291930676, 0.0, 0.0, 0.0, 0.0, 0.0, 1.7103949354032931E9, 0.0, 2024-03-13 22:42:15.403
37.0, -761.5595678770915, -362.5702110542916, -468.1662863031961, -417.5224310532212, 0.800000037997961, 0.6240000296384096, 0.27200001291930676, 0.0, 0.0, 0.0, 0.0, 0.0, 1.7103949354032931E9, 0.0, 2024-03-13 22:42:15.403
38.0, -790.1324035385624, -384.1195145989768, -499.27103423466906, -447.0339816035703, 0.800000037997961, 0.6240000296384096, 0.27200001291930676, 0.0, 0.0, 0.0, 0.0, 0.0, 1.7103949354192493E9, 0.0, 2024-03-13 22:42:15.419
38.0, -779.4662088649347, -375.2783911037259, -497.4422231563367, -438.60050720348954, 0.800000037997961, 0.6240000296384096, 0.27200001291930676, 0.0, 0.0, 0.0, 0.0, 0.0, 1.7103949354192493E9, 0.0, 2024-03-13 22:42:15.419
39.0, -776.9642157945782, -373.84226952074096, -485.19405080145225, -433.2823694664985, 0.800000037997961, 0.6240000296384096, 0.27200001291930676, 0.0, 0.0, 0.0, 0.0, 0.0, 1.7103949354196892E9, 0.0, 2024-03-13 22:42:15.419
39.0, -797.2830922538415, -388.278283349704, -494.86917198682204, -447.04146140348166, 0.800000037997961, 0.6240000296384096, 0.27200001291930676, 0.0, 0.0, 0.0, 0.0, 0.0, 1.7103949354196892E9, 0.0, 2024-03-13 22:42:15.419
40.0, -777.6261780867353, -381.40060733119026, -504.42461637360975, -447.49772919807583, 0.800000037997961, 0.6240000296384096, 0.27200001291930676, 0.0, 0.0, 0.0, 0.0, 0.0, 1.7103949354333043E9, 0.0, 2024-03-13 22:42:15.433
40.0, -763.8708260497078, -367.1553283999674, -495.2581215822138, -436.40518592949957, 0.800000037997961, 0.6240000296384096, 0.27200001291930676, 0.0, 0.0, 0.0, 0.0, 0.0, 1.7103949354333043E9, 0.0, 2024-03-13 22:42:15.433
41.0, -773.6693639336154, -369.46658657258376, -482.1834313371219, -431.43859878834337, 0.800000037997961, 0.6240000296384096, 0.27200001291930676, 0.0, 0.0, 0.0, 0.0, 0.0, 1.7103949354490108E9, 0.0, 2024-03-13 22:42:15.449
41.0, -768.3848852962255, -364.87398942699656, -499.1176983364858, -436.3453475302085, 0.800000037997961, 0.6240000296384096, 0.27200001291930676, 0.0, 0.0, 0.0, 0.0, 0.0, 1.7103949354490108E9, 0.0, 2024-03-13 22:42:15.449
42.0, -767.5172285065055, -372.2602918394841, -519.9339814898558, -446.9479639045894, 0.800000037997961, 0.6240000296384096, 0.27200001291930676, 0.0, 0.0, 0.0, 0.0, 0.0, 1.7103949354498355E9, 0.0, 2024-03-13 22:42:15.449
42.0, -764.6861242400482, -362.72354695247486, -491.45090342732146, -431.9360054824501, 0.800000037997961, 0.6240000296384096, 0.27200001291930676, 0.0, 0.0, 0.0, 0.0, 0.0, 1.7103949354498355E9, 0.0, 2024-03-13 22:42:15.449
43.0, -773.17943703942, -380.1178216463886, -522.2788987620734, -454.05003392044455, 0.800000037997961, 0.6240000296384096, 0.27200001291930676, 0.0, 0.0, 0.0, 0.0, 0.0, 1.7103949354632857E9, 0.0, 2024-03-13 22:42:15.463
43.0, -764.8992985375226, -367.69013409363106, -514.8215382504277, -441.7569827660918, 0.800000037997961, 0.6240000296384096, 0.27200001291930676, 0.0, 0.0, 0.0, 0.0, 0.0, 1.7103949354632857E9, 0.0, 2024-03-13 22:42:15.463
44.0, -771.8816917547956, -383.4238932072185, -513.695828363765, -450.0595606677234, 0.800000037997961, 0.6240000296384096, 0.27200001291930676, 0.0, 0.0, 0.0, 0.0, 0.0, 1.710394935478963E9, 0.0, 2024-03-13 22:42:15.478
44.0, -786.1531499857083, -395.81044186046347, -509.20046861702576, -460.2994067464024, 0.800000037997961, 0.6240000296384096, 0.27200001291930676, 0.0, 0.0, 0.0, 0.0, 0.0, 1.710394935478963E9, 0.0, 2024-03-13 22:42:15.478
45.0, -802.9677401864901, -408.86643260577694, -524.8930888311006, -469.6005379362032, 0.800000037997961, 0.6240000296384096, 0.27200001291930676, 0.0, 0.0, 0.0, 0.0, 0.0, 1.710394935479718E9, 0.0, 2024-03-13 22:42:15.479
45.0, -773.0148814413697, -385.70897208014503, -507.60727123590186, -444.094420238398, 0.800000037997961, 0.6240000296384096, 0.27200001291930676, 0.0, 0.0, 0.0, 0.0, 0.0, 1.710394935479718E9, 0.0, 2024-03-13 22:42:15.479
46.0, -786.1344504859298, -389.8041625316255, -504.17030317662284, -447.2808150006458, 0.800000037997961, 0.6240000296384096, 0.27200001291930676, 0.0, 0.0, 0.0, 0.0, 0.0, 1.710394935493255E9, 0.0, 2024-03-13 22:42:15.493
46.0, -791.1197371268645, -395.19335836777464, -521.3738429727964, -454.27442791778594, 0.800000037997961, 0.6240000296384096, 0.27200001291930676, 0.0, 0.0, 0.0, 0.0, 0.0, 1.710394935493255E9, 0.0, 2024-03-13 22:42:15.493
47.0, -769.4133577840403, -376.1684872931801, -514.1932350578718, -442.45634405780584, 0.800000037997961, 0.6240000296384096, 0.27200001291930676, 0.0, 0.0, 0.0, 0.0, 0.0, 1.7103949355092573E9, 0.0, 2024-03-13 22:42:15.509
47.0, -788.135296962224, -389.6807458330877, -501.46261560870335, -455.6694106012583, 0.800000037997961, 0.6240000296384096, 0.27200001291930676, 0.0, 0.0, 0.0, 0.0, 0.0, 1.7103949355092573E9, 0.0, 2024-03-13 22:42:15.509
48.0, -777.3269860902801, -391.1355669158511, -499.4804686321877, -452.86822553444654, 0.800000037997961, 0.6240000296384096, 0.27200001291930676, 0.0, 0.0, 0.0, 0.0, 0.0, 1.7103949355098588E9, 0.0, 2024-03-13 22:42:15.509
48.0, -784.612311203964, -389.9537585298531, -507.83166523324326, -447.9614767925814, 0.800000037997961, 0.6240000296384096, 0.27200001291930676, 0.0, 0.0, 0.0, 0.0, 0.0, 1.7103949355098588E9, 0.0, 2024-03-13 22:42:15.509
49.0, -780.7489945497364, -384.3027696968056, -494.04639399657026, -440.4629773814231, 0.800000037997961, 0.6240000296384096, 0.27200001291930676, 0.0, 0.0, 0.0, 0.0, 0.0, 1.7103949355236206E9, 0.0, 2024-03-13 22:42:15.523
49.0, -784.986301199533, -388.9365057419054, -501.5448934077285, -449.49109587445855, 0.800000037997961, 0.6240000296384096, 0.27200001291930676, 0.0, 0.0, 0.0, 0.0, 0.0, 1.7103949355236206E9, 0.0, 2024-03-13 22:42:15.523
50.0, -793.285139201209, -395.5449089636095, -524.8856090311892, -467.4463555617258, 0.800000037997961, 0.6240000296384096, 0.27200001291930676, 0.0, 0.0, 0.0, 0.0, 0.0, 1.7103949355392966E9, 0.0, 2024-03-13 22:42:15.539
50.0, -782.8695178246126, -391.96582470601425, -517.4357283194549, -461.27926053479314, 0.800000037997961, 0.6240000296384096, 0.27200001291930676, 0.0, 0.0, 0.0, 0.0, 0.0, 1.7103949355392966E9, 0.0, 2024-03-13 22:42:15.539
51.0, -791.6695024203509, -398.78740222519264, -523.1802146513946, -465.90551677998155, 0.800000037997961, 0.6240000296384096, 0.27200001291930676, 0.0, 0.0, 0.0, 0.0, 0.0, 1.7103949355398524E9, 0.0, 2024-03-13 22:42:15.539
51.0, -780.1319110570475, -386.6102879694663, -518.9391681016423, -464.42077649757266, 0.800000037997961, 0.6240000296384096, 0.27200001291930676, 0.0, 0.0, 0.0, 0.0, 0.0, 1.7103949355398524E9, 0.0, 2024-03-13 22:42:15.539
52.0, -769.536774482578, -371.8563826442696, -502.2517344993539, -443.49229634553194, 0.800000037997961, 0.6240000296384096, 0.27200001291930676, 0.0, 0.0, 0.0, 0.0, 0.0, 1.7103949355536294E9, 0.0, 2024-03-13 22:42:15.553
52.0, -780.8686713483185, -385.6453937808983, -513.7668864629231, -452.00430864468217, 0.800000037997961, 0.6240000296384096, 0.27200001291930676, 0.0, 0.0, 0.0, 0.0, 0.0, 1.7103949355536294E9, 0.0, 2024-03-13 22:42:15.553
53.0, -798.434981440194, -399.88693281216547, -506.2235082522966, -456.34633249323815, 0.800000037997961, 0.6240000296384096, 0.27200001291930676, 0.0, 0.0, 0.0, 0.0, 0.0, 1.7103949355689497E9, 0.0, 2024-03-13 22:42:15.568
53.0, -801.4343812046573, -399.0192760224454, -516.324978032615, -460.991288238205, 0.800000037997961, 0.6240000296384096, 0.27200001291930676, 0.0, 0.0, 0.0, 0.0, 0.0, 1.7103949355689497E9, 0.0, 2024-03-13 22:42:15.568
54.0, -803.64466207847, -410.9607765809633, -516.5044932304882, -462.49472802039236, 0.800000037997961, 0.6240000296384096, 0.27200001291930676, 0.0, 0.0, 0.0, 0.0, 0.0, 1.710394935569695E9, 0.0, 2024-03-13 22:42:15.569
54.0, -800.8023381121457, -396.15825255634263, -497.28140745824203, -452.46057643927634, 0.800000037997961, 0.6240000296384096, 0.27200001291930676, 0.0, 0.0, 0.0, 0.0, 0.0, 1.710394935569695E9, 0.0, 2024-03-13 22:42:15.569
55.0, -793.9134423937649, -406.5102956336923, -515.7639930392615, -457.5131812794134, 0.800000037997961, 0.6240000296384096, 0.27200001291930676, 0.0, 0.0, 0.0, 0.0, 0.0, 1.7103949355832844E9, 0.0, 2024-03-13 22:42:15.583
55.0, -781.7737271375954, -387.25729066180065, -494.64103808952495, -439.34100739471614, 0.800000037997961, 0.6240000296384096, 0.27200001291930676, 0.0, 0.0, 0.0, 0.0, 0.0, 1.7103949355832844E9, 0.0, 2024-03-13 22:42:15.583
56.0, -789.3619841476902, -395.3840932655148, -499.12517813639715, -445.2837084243074, 0.800000037997961, 0.6240000296384096, 0.27200001291930676, 0.0, 0.0, 0.0, 0.0, 0.0, 1.7103949355989623E9, 0.0, 2024-03-13 22:42:15.598
56.0, -796.4378748638555, -398.6153668272309, -516.8373443265446, -457.79741367604584, 0.800000037997961, 0.6240000296384096, 0.27200001291930676, 0.0, 0.0, 0.0, 0.0, 0.0, 1.7103949355989623E9, 0.0, 2024-03-13 22:42:15.598
57.0, -789.4966205460951, -391.81248880783096, -516.4296952313744, -450.60558606125414, 0.800000037997961, 0.6240000296384096, 0.27200001291930676, 0.0, 0.0, 0.0, 0.0, 0.0, 1.710394935599684E9, 0.0, 2024-03-13 22:42:15.599
57.0, -790.607370832935, -395.4289720649831, -509.24534741649404, -456.12567839585245, 0.800000037997961, 0.6240000296384096, 0.27200001291930676, 0.0, 0.0, 0.0, 0.0, 0.0, 1.710394935599684E9, 0.0, 2024-03-13 22:42:15.599
58.0, -785.614604392089, -394.63985317433253, -511.7735197865404, -458.6538507658988, 0.800000037997961, 0.6240000296384096, 0.27200001291930676, 0.0, 0.0, 0.0, 0.0, 0.0, 1.7103949356132555E9, 0.0, 2024-03-13 22:42:15.613
58.0, -765.2508491333574, -375.6449012993835, -520.3304108851589, -452.38577844016254, 0.800000037997961, 0.6240000296384096, 0.27200001291930676, 0.0, 0.0, 0.0, 0.0, 0.0, 1.7103949356132555E9, 0.0, 2024-03-13 22:42:15.613
59.0, -763.7735886508599, -369.186094075907, -499.87315812753513, -438.4247319055721, 0.800000037997961, 0.6240000296384096, 0.27200001291930676, 0.0, 0.0, 0.0, 0.0, 0.0, 1.7103949356289587E9, 0.0, 2024-03-13 22:42:15.628
59.0, -786.5682788807899, -380.84336223779246, -514.5335659538396, -459.6673636538908, 0.800000037997961, 0.6240000296384096, 0.27200001291930676, 0.0, 0.0, 0.0, 0.0, 0.0, 1.7103949356289587E9, 0.0, 2024-03-13 22:42:15.628
60.0, -791.3590907240286, -395.8740201597102, -542.4257398233749, -471.71732131112367, 0.800000037997961, 0.6240000296384096, 0.27200001291930676, 0.0, 0.0, 0.0, 0.0, 0.0, 1.710394935629682E9, 0.0, 2024-03-13 22:42:15.629
60.0, -770.5054085711017, -372.3014307389967, -507.5249934368767, -444.22531673684716, 0.800000037997961, 0.6240000296384096, 0.27200001291930676, 0.0, 0.0, 0.0, 0.0, 0.0, 1.710394935629682E9, 0.0, 2024-03-13 22:42:15.629
61.0, -781.9756817352027, -388.977644641418, -514.3577906559221, -458.15644407179207, 0.800000037997961, 0.6400000303983688, 0.27200001291930676, 0.0, 0.0, 0.0, 0.0, 0.0, 1.7103949356433015E9, 0.0, 2024-03-13 22:42:15.643
61.0, -787.1891022734344, -391.0944280163385, -515.6480561406352, -461.87016472779214, 0.800000037997961, 0.6400000303983688, 0.27200001291930676, 0.0, 0.0, 0.0, 0.0, 0.0, 1.7103949356433015E9, 0.0, 2024-03-13 22:42:15.643
62.0, -786.9460087763146, -396.96981084672734, -518.84567060275, -456.8848780868575, 0.800000037997961, 0.6400000303983688, 0.27200001291930676, 0.0, 0.0, 0.0, 0.0, 0.0, 1.7103949356593487E9, 0.0, 2024-03-13 22:42:15.659
62.0, -803.7830383768305, -410.3698723879643, -515.4648010428064, -466.35804467462003, 0.800000037997961, 0.6400000303983688, 0.27200001291930676, 0.0, 0.0, 0.0, 0.0, 0.0, 1.7103949356593487E9, 0.0, 2024-03-13 22:42:15.659
63.0, -818.2788906050846, -419.0427003852092, -514.8813766497187, -470.4457553261891, 0.800000037997961, 0.6400000303983688, 0.27200001291930676, 0.0, 0.0, 0.0, 0.0, 0.0, 1.7103949356599913E9, 0.0, 2024-03-13 22:42:15.659
63.0, -805.9073015516624, -407.63226562039927, -514.8589372499846, -462.1469173245132, 0.800000037997961, 0.6400000303983688, 0.27200001291930676, 0.0, 0.0, 0.0, 0.0, 0.0, 1.7103949356599913E9, 0.0, 2024-03-13 22:42:15.659
64.0, -780.0122342584655, -383.26307750912383, -480.7697491538711, -431.22542449086905, 0.800000037997961, 0.6400000303983688, 0.27200001291930676, 0.0, 0.0, 0.0, 0.0, 0.0, 1.7103949356736271E9, 0.0, 2024-03-13 22:42:15.673
64.0, -800.1553354198113, -404.2887950600125, -504.2563208756037, -456.0022616973147, 0.800000037997961, 0.6400000303983688, 0.27200001291930676, 0.0, 0.0, 0.0, 0.0, 0.0, 1.7103949356736271E9, 0.0, 2024-03-13 22:42:15.673
65.0, -802.956520486623, -406.19240413745865, -519.3842161963694, -464.0019077025354, 0.800000037997961, 0.6400000303983688, 0.27200001291930676, 0.0, 0.0, 0.0, 0.0, 0.0, 1.7103949356895225E9, 0.0, 2024-03-13 22:42:15.689
65.0, -790.3530576359481, -396.7267173496075, -512.0053935837932, -456.45104969199747, 0.800000037997961, 0.6400000303983688, 0.27200001291930676, 0.0, 0.0, 0.0, 0.0, 0.0, 1.7103949356895225E9, 0.0, 2024-03-13 22:42:15.689
66.0, -803.7979979766533, -402.78535527782515, -518.4941200069152, -463.1192913129926, 0.800000037997961, 0.6400000303983688, 0.27200001291930676, 0.0, 0.0, 0.0, 0.0, 0.0, 1.7103949356899464E9, 0.0, 2024-03-13 22:42:15.689
66.0, -793.0944043034688, -400.1674253088422, -515.0421923478134, -460.9950281381607, 0.800000037997961, 0.6400000303983688, 0.27200001291930676, 0.0, 0.0, 0.0, 0.0, 0.0, 1.7103949356899464E9, 0.0, 2024-03-13 22:42:15.689
67.0, -777.1811299920082, -385.5705957817845, -521.4262015721761, -450.3587526641786, 0.800000037997961, 0.6400000303983688, 0.27200001291930676, 0.0, 0.0, 0.0, 0.0, 0.0, 1.7103949357032962E9, 0.0, 2024-03-13 22:42:15.703
67.0, -802.9116416871548, -408.97114980453625, -529.6839006743394, -467.8914036564529, 0.800000037997961, 0.6400000303983688, 0.27200001291930676, 0.0, 0.0, 0.0, 0.0, 0.0, 1.7103949357032962E9, 0.0, 2024-03-13 22:42:15.703
