%OpenBCI Raw EXG Data
%Number of channels = 4
%Sample Rate = 200 Hz
%Board = OpenBCI_GUI$BoardGanglionBLE
Sample Index, EXG Channel 0, EXG Channel 1, EXG Channel 2, EXG Channel 3, Accel Channel 0, Accel Channel 1, Accel Channel 2, Other, Other, Other, Other, Other, Timestamp, Other, Timestamp (Formatted)
2.0, -3.7623393554240465, 4.132589451037347, -5.905302030034363, 5.205940738320351, 0.6880000326782465, 0.0, 0.0, 0.0, 0.0, 0.0, 0.0, 0.0, 1.7103957273806217E9, 0.0, 2024-03-13 22:55:27.380
2.0, -15.348549418151379, -16.05165060982108, -10.09398998040706, -13.542177739553154, 0.6880000326782465, 0.0, 0.0, 0.0, 0.0, 0.0, 0.0, 0.0, 1.7103957273806217E9, 0.0, 2024-03-13 22:55:27.380
3.0, -1.4024624833837152, -0.06357829924672842, 1.4548210827633739, 2.2813389729708433, 0.6880000326782465, 0.0, 0.0, 0.0, 0.0, 0.0, 0.0, 0.0, 1.7103957273948946E9, 0.0, 2024-03-13 22:55:27.394
3.0, -13.512258539907634, -6.3802693244069815, -5.314397837035358, 1.9896267764270306, 0.6880000326782465, 0.0, 0.0, 0.0, 0.0, 0.0, 0.0, 0.0, 1.7103957273948946E9, 0.0, 2024-03-13 22:55:27.394
4.0, -4.611296645365655, -3.8932358538731933, 6.944994217716157, 2.337437472306192, 0.6880000326782465, 0.0, 0.0, 0.0, 0.0, 0.0, 0.0, 0.0, 1.7103957273957605E9, 0.0, 2024-03-13 22:55:27.395
4.0, -17.992658686824143, -13.800230836495757, -11.69092726148665, -8.87478259485215, 0.6880000326782465, 0.0, 0.0, 0.0, 0.0, 0.0, 0.0, 0.0, 1.7103957273957605E9, 0.0, 2024-03-13 22:55:27.395
5.0, 4.641215845011175, 6.361569824628532, 5.849203530699015, 11.634828762151301, 0.6880000326782465, 0.0, 0.0, 0.0, 0.0, 0.0, 0.0, 0.0, 1.7103957274256225E9, 0.0, 2024-03-13 22:55:27.425
5.0, 2.247679873369634, -1.0770911872386932, 11.64604846201837, 9.319830689579248, 0.6880000326782465, 0.0, 0.0, 0.0, 0.0, 0.0, 0.0, 0.0, 1.7103957274256225E9, 0.0, 2024-03-13 22:55:27.425
6.0, -11.096283168531954, -19.088449373841286, -6.612143121659756, -12.835336647927761, 0.6880000326782465, 0.0, 0.0, 0.0, 0.0, 0.0, 0.0, 0.0, 1.710395727426556E9, 0.0, 2024-03-13 22:55:27.426
6.0, -12.315490554086864, -17.34939589444548, -10.89058867096901, -4.588857245631516, 0.6880000326782465, 0.0, 0.0, 0.0, 0.0, 0.0, 0.0, 0.0, 1.710395727426556E9, 0.0, 2024-03-13 22:55:27.426
7.0, -11.967679858207703, -13.501038840040565, -3.6875413563102484, -4.82073104288429, 0.6880000326782465, 0.0, 0.0, 0.0, 0.0, 0.0, 0.0, 0.0, 1.7103957274272408E9, 0.0, 2024-03-13 22:55:27.427
7.0, -12.44264715258032, -16.90808769967407, 3.134036162868142, -7.128249315544963, 0.6880000326782465, 0.0, 0.0, 0.0, 0.0, 0.0, 0.0, 0.0, 1.7103957274272408E9, 0.0, 2024-03-13 22:55:27.427
8.0, -14.140561732463539, -10.509118875488639, -3.784778755158186, -5.355536736547947, 0.6880000326782465, 0.0, 0.0, 0.0, 0.0, 0.0, 0.0, 0.0, 1.7103957274391358E9, 0.0, 2024-03-13 22:55:27.439
8.0, -9.510565587319434, -7.285325113683939, -2.7525663673877716, -2.7862254669889808, 0.6880000326782465, 0.0, 0.0, 0.0, 0.0, 0.0, 0.0, 0.0, 1.7103957274391358E9, 0.0, 2024-03-13 22:55:27.439
9.0, -2.501993070356548, -10.711073473095894, -2.9545209649950266, -11.69092726148665, 0.6880000326782465, 0.0, 0.0, 0.0, 0.0, 0.0, 0.0, 0.0, 1.7103957274548173E9, 0.0, 2024-03-13 22:55:27.454
9.0, -7.3040246134623885, -8.814944195561111, -6.915075018070638, -7.311504413373768, 0.6880000326782465, 0.0, 0.0, 0.0, 0.0, 0.0, 0.0, 0.0, 1.7103957274548173E9, 0.0, 2024-03-13 22:55:27.454
10.0, -21.923293540254235, -11.122462468221784, -15.363509017974138, -5.5724509339779615, 0.6880000326782465, 0.0, 0.41600001975893974, 0.0, 0.0, 0.0, 0.0, 0.0, 1.7103957274555447E9, 0.0, 2024-03-13 22:55:27.455
10.0, -4.753412843681872, -6.294251625426114, -4.9291881415992975, -1.8662100778892636, 0.6880000326782465, 0.0, 0.41600001975893974, 0.0, 0.0, 0.0, 0.0, 0.0, 1.7103957274555447E9, 0.0, 2024-03-13 22:55:27.455
11.0, -6.249372825957835, -9.424547888338566, -4.558938045985997, -6.585963821969926, 0.6880000326782465, 0.6720000319182873, 0.41600001975893974, 0.0, 0.0, 0.0, 0.0, 0.0, 1.710395727469273E9, 0.0, 2024-03-13 22:55:27.469
11.0, -10.699853773228824, -8.489572899416089, -18.396567882038653, -8.725186596624553, 0.6880000326782465, 0.6720000319182873, 0.41600001975893974, 0.0, 0.0, 0.0, 0.0, 0.0, 1.710395727469273E9, 0.0, 2024-03-13 22:55:27.469
12.0, -8.186641003005207, -3.7959984550252557, 0.7741592908278108, -5.2096806382760406, 0.6880000326782465, 0.6720000319182873, 0.41600001975893974, 0.0, 0.0, 0.0, 0.0, 0.0, 1.7103957274848611E9, 0.0, 2024-03-13 22:55:27.484
12.0, 3.1639553625136614, -6.84401691891253, 2.5468718698248267, -6.264332425780594, 0.6880000326782465, 0.6720000319182873, 0.41600001975893974, 0.0, 0.0, 0.0, 0.0, 0.0, 1.7103957274848611E9, 0.0, 2024-03-13 22:55:27.484
13.0, 3.8745363540947437, 5.385455936193466, -4.132589451037347, 6.264332425780594, 0.6880000326782465, 0.6720000319182873, 0.41600001975893974, 0.0, 0.0, 0.0, 0.0, 0.0, 1.710395727485571E9, 0.0, 2024-03-13 22:55:27.485
13.0, 12.251912254840136, 8.44095419999212, 1.5408387817442417, 14.07698343321681, 0.6880000326782465, 0.6720000319182873, 0.41600001975893974, 0.0, 0.0, 0.0, 0.0, 0.0, 1.710395727485571E9, 0.0, 2024-03-13 22:55:27.485
14.0, 5.759445931762457, 3.8408772544935346, 8.257699102163315, 7.820130807347596, 0.6880000326782465, 0.6720000319182873, 0.41600001975893974, 0.0, 0.0, 0.0, 0.0, 0.0, 1.7103957274991736E9, 0.0, 2024-03-13 22:55:27.499
14.0, -15.569203515537083, -16.691173502244055, -12.812897248193622, -10.621315874159336, 0.6880000326782465, 0.6720000319182873, 0.41600001975893974, 0.0, 0.0, 0.0, 0.0, 0.0, 1.7103957274991736E9, 0.0, 2024-03-13 22:55:27.499
15.0, -6.155875327065587, -4.162508650682867, -7.068410916253924, -2.1616621743887663, 0.6880000326782465, 0.6720000319182873, 0.41600001975893974, 0.0, 0.0, 0.0, 0.0, 0.0, 1.710395727515237E9, 0.0, 2024-03-13 22:55:27.515
15.0, -3.5940438574180007, -7.083370516076684, -1.2603462850674987, -1.61189688090235, 0.6880000326782465, 0.6720000319182873, 0.41600001975893974, 0.0, 0.0, 0.0, 0.0, 0.0, 1.710395727515237E9, 0.0, 2024-03-13 22:55:27.515
16.0, -19.72797226626426, -24.88529430516064, -15.748718713410199, -16.391981505788863, 0.6880000326782465, 0.6720000319182873, 0.41600001975893974, 0.0, 0.0, 0.0, 0.0, 0.0, 1.710395727515548E9, 0.0, 2024-03-13 22:55:27.515
16.0, -11.64978836197406, -5.680908032692969, -18.347949182614684, -5.0114659406244755, 0.6880000326782465, 0.6720000319182873, 0.41600001975893974, 0.0, 0.0, 0.0, 0.0, 0.0, 1.710395727515548E9, 0.0, 2024-03-13 22:55:27.515
17.0, -9.873335883021355, -8.564370898529887, -13.228026143275201, -9.323570589534938, 0.6880000326782465, 0.6720000319182873, 0.41600001975893974, 0.0, 0.0, 0.0, 0.0, 0.0, 1.7103957275295763E9, 0.0, 2024-03-13 22:55:27.529
17.0, -21.998091539368033, -26.317675988189876, -15.629041914828122, -15.31489031855017, 0.6880000326782465, 0.6720000319182873, 0.41600001975893974, 0.0, 0.0, 0.0, 0.0, 0.0, 1.7103957275295763E9, 0.0, 2024-03-13 22:55:27.529
18.0, -25.536036897450686, -28.064209267497063, -28.17266636621207, -18.355428982526064, 0.6880000326782465, 0.6720000319182873, 0.41600001975893974, 0.0, 0.0, 0.0, 0.0, 0.0, 1.710395727545192E9, 0.0, 2024-03-13 22:55:27.545
18.0, -16.997845298610628, -13.27664484269917, -20.808803353458643, -13.186887243762612, 0.6880000326782465, 0.6720000319182873, 0.41600001975893974, 0.0, 0.0, 0.0, 0.0, 0.0, 1.710395727545192E9, 0.0, 2024-03-13 22:55:27.545
19.0, -8.403555200435221, -12.46508655231446, -7.865009606815875, -9.615282786078751, 0.6880000326782465, 0.6720000319182873, 0.41600001975893974, 0.0, 0.0, 0.0, 0.0, 0.0, 1.7103957275458252E9, 0.0, 2024-03-13 22:55:27.545
19.0, -9.892035382799804, -8.321277401410043, -11.174821067601442, -11.066363968886435, 0.6880000326782465, 0.6720000319182873, 0.41600001975893974, 0.0, 0.0, 0.0, 0.0, 0.0, 1.7103957275458252E9, 0.0, 2024-03-13 22:55:27.545
20.0, 1.484740282408893, -3.904455553740263, -4.757152743637562, -2.4421546710655093, 0.6880000326782465, 0.6720000319182873, 0.41600001975893974, 0.0, 0.0, 0.0, 0.0, 0.0, 1.7103957275594E9, 0.0, 2024-03-13 22:55:27.559
20.0, -9.68260098528117, -13.594536338932812, -8.47461329959333, -8.900961894541979, 0.6880000326782465, 0.6720000319182873, 0.41600001975893974, 0.0, 0.0, 0.0, 0.0, 0.0, 1.7103957275594E9, 0.0, 2024-03-13 22:55:27.559
21.0, -12.663301249966025, -23.602508620359004, -17.177360496483743, -19.2679645717144, 0.6880000326782465, 0.6720000319182873, 0.41600001975893974, 0.0, 0.0, 0.0, 0.0, 0.0, 1.710395727574989E9, 0.0, 2024-03-13 22:55:27.574
21.0, -4.7309734439477324, -7.692974208854139, -11.399215064942837, -2.3636167719960213, 0.6880000326782465, 0.6720000319182873, 0.41600001975893974, 0.0, 0.0, 0.0, 0.0, 0.0, 1.710395727574989E9, 0.0, 2024-03-13 22:55:27.574
22.0, -7.678014609031379, -12.360369353555143, -8.500792599283159, -7.63687570951879, 0.6880000326782465, 0.6720000319182873, 0.41600001975893974, 0.0, 0.0, 0.0, 0.0, 0.0, 1.7103957275755293E9, 0.0, 2024-03-13 22:55:27.575
22.0, -11.212220067158341, -13.493559040129185, -6.402708724141121, -10.318383977748454, 0.6880000326782465, 0.6720000319182873, 0.41600001975893974, 0.0, 0.0, 0.0, 0.0, 0.0, 1.7103957275755293E9, 0.0, 2024-03-13 22:55:27.575
23.0, -18.14973448496312, -17.813143488951027, -20.449772957712412, -11.773205060511827, 0.6880000326782465, 0.6720000319182873, 0.41600001975893974, 0.0, 0.0, 0.0, 0.0, 0.0, 1.7103957275892076E9, 0.0, 2024-03-13 22:55:27.589
23.0, -8.336237001232803, -14.249018831178546, -12.577283550985157, -1.6044170809909701, 0.6880000326782465, 0.6720000319182873, 0.41600001975893974, 0.0, 0.0, 0.0, 0.0, 0.0, 1.7103957275892076E9, 0.0, 2024-03-13 22:55:27.589
24.0, -14.780084624886513, -15.995552110485733, -5.826764130964875, -7.760292408056557, 0.6880000326782465, 0.6720000319182873, 0.41600001975893974, 0.0, 0.0, 0.0, 0.0, 0.0, 1.7103957276048656E9, 0.0, 2024-03-13 22:55:27.604
24.0, -17.162400896660984, -21.949472839944065, -23.161200425587595, -19.238045372068882, 0.6880000326782465, 0.6720000319182873, 0.41600001975893974, 0.0, 0.0, 0.0, 0.0, 0.0, 1.7103957276048656E9, 0.0, 2024-03-13 22:55:27.604
25.0, -6.967433617450297, -8.747625996358693, -11.264578666538, -5.912781829945743, 0.6880000326782465, 0.6720000319182873, 0.41600001975893974, 0.0, 0.0, 0.0, 0.0, 0.0, 1.710395727605602E9, 0.0, 2024-03-13 22:55:27.605
25.0, -7.767772207967937, -9.533004987053573, -12.034998057410121, -10.224886478856206, 0.6880000326782465, 0.6720000319182873, 0.41600001975893974, 0.0, 0.0, 0.0, 0.0, 0.0, 1.710395727605602E9, 0.0, 2024-03-13 22:55:27.605
26.0, -2.6815082682296634, -1.3164447844028473, -8.489572899416089, -7.24044631421566, 0.6880000326782465, 0.6720000319182873, 0.41600001975893974, 0.0, 0.0, 0.0, 0.0, 0.0, 1.710395727619124E9, 0.0, 2024-03-13 22:55:27.619
26.0, 12.726879549212754, 11.874182359315455, -7.9884263053536415, 2.617929968982935, 0.6880000326782465, 0.6720000319182873, 0.41600001975893974, 0.0, 0.0, 0.0, 0.0, 0.0, 1.710395727619124E9, 0.0, 2024-03-13 22:55:27.619
27.0, 14.155521332286298, 15.329849918372929, 3.6800615563988686, 8.366156200878322, 0.6880000326782465, 0.6720000319182873, 0.41600001975893974, 0.0, 0.0, 0.0, 0.0, 0.0, 1.7103957276348894E9, 0.0, 2024-03-13 22:55:27.634
27.0, 8.87478259485215, 7.737853008322418, 7.9098884062841535, 9.349749889224768, 0.6880000326782465, 0.6720000319182873, 0.41600001975893974, 0.0, 0.0, 0.0, 0.0, 0.0, 1.7103957276348894E9, 0.0, 2024-03-13 22:55:27.634
28.0, 15.943193511106074, 12.240692554973066, 0.845217389985919, 11.937760658562183, 0.6880000326782465, 0.6720000319182873, 0.41600001975893974, 0.0, 0.0, 0.0, 0.0, 0.0, 1.7103957276359096E9, 0.0, 2024-03-13 22:55:27.635
28.0, -3.186394762247801, 1.4024624833837152, -12.696960349567235, -0.24683339707553387, 0.6880000326782465, 0.6720000319182873, 0.41600001975893974, 0.0, 0.0, 0.0, 0.0, 0.0, 1.7103957276359096E9, 0.0, 2024-03-13 22:55:27.635
29.0, -8.01834550499916, -10.714813373051584, -15.595382815226912, -11.25709886662662, 0.6880000326782465, 0.6720000319182873, 0.41600001975893974, 0.0, 0.0, 0.0, 0.0, 0.0, 1.7103957276495044E9, 0.0, 2024-03-13 22:55:27.649
29.0, -12.322970353998244, -12.730619449168444, -16.350842606276274, -4.9703270411118865, 0.6880000326782465, 0.6720000319182873, 0.41600001975893974, 0.0, 0.0, 0.0, 0.0, 0.0, 1.7103957276495044E9, 0.0, 2024-03-13 22:55:27.649
30.0, -7.591996910050511, -9.368449389003217, -7.517198910936713, -0.12341669853776693, 0.6880000326782465, 0.6720000319182873, 0.41600001975893974, 0.0, 0.0, 0.0, 0.0, 0.0, 1.7103957276650934E9, 0.0, 2024-03-13 22:55:27.665
30.0, -6.316691025160253, -7.995906105265021, -3.2911119610071182, 4.102670251391828, 0.6880000326782465, 0.6720000319182873, 0.41600001975893974, 0.0, 0.0, 0.0, 0.0, 0.0, 1.7103957276650934E9, 0.0, 2024-03-13 22:55:27.665
31.0, -5.61732973344624, -9.832196983508766, 2.501993070356548, 5.314397837035358, 0.6880000326782465, 0.6720000319182873, 0.41600001975893974, 0.0, 0.0, 0.0, 0.0, 0.0, 1.710395727665656E9, 0.0, 2024-03-13 22:55:27.665
31.0, -1.8026317786425352, -1.6567756803706288, 1.5931973811239004, 10.213666778989136, 0.6880000326782465, 0.6720000319182873, 0.41600001975893974, 0.0, 0.0, 0.0, 0.0, 0.0, 1.710395727665656E9, 0.0, 2024-03-13 22:55:27.665
32.0, 8.579330498352647, -0.5871642930433154, -1.8774297777563334, 8.149242003448308, 0.6880000326782465, 0.6720000319182873, 0.41600001975893974, 0.0, 0.0, 0.0, 0.0, 0.0, 1.7103957276791427E9, 0.0, 2024-03-13 22:55:27.679
32.0, 1.8250711783766747, -1.9671873766928911, 7.6331358095631, 5.176021538674831, 0.6880000326782465, 0.6720000319182873, 0.41600001975893974, 0.0, 0.0, 0.0, 0.0, 0.0, 1.7103957276791427E9, 0.0, 2024-03-13 22:55:27.679
33.0, 9.66764138545841, 5.871642930433154, -0.7778991907835007, 12.207033455371857, 0.6880000326782465, 0.6720000319182873, 0.41600001975893974, 0.0, 0.0, 0.0, 0.0, 0.0, 1.7103957276953318E9, 0.0, 2024-03-13 22:55:27.695
33.0, 9.596583286300302, 1.4174220832064748, -6.088557127863169, 7.752812608145177, 0.6880000326782465, 0.6720000319182873, 0.41600001975893974, 0.0, 0.0, 0.0, 0.0, 0.0, 1.7103957276953318E9, 0.0, 2024-03-13 22:55:27.695
34.0, 2.655328968539834, -1.4249018831178546, -5.538791834376752, 4.113889951258898, 0.6880000326782465, 0.6720000319182873, 0.41600001975893974, 0.0, 0.0, 0.0, 0.0, 0.0, 1.7103957276956813E9, 0.0, 2024-03-13 22:55:27.695
34.0, -3.6501423567533493, -6.645802221260965, -6.997352817095816, -0.12341669853776693, 0.6880000326782465, 0.6720000319182873, 0.41600001975893974, 0.0, 0.0, 0.0, 0.0, 0.0, 1.7103957276956813E9, 0.0, 2024-03-13 22:55:27.695
35.0, -1.125709886662662, -1.970927276648581, -5.336837236769497, 3.418268559500575, 0.6880000326782465, 0.6720000319182873, 0.41600001975893974, 0.0, 0.0, 0.0, 0.0, 0.0, 1.710395727709155E9, 0.0, 2024-03-13 22:55:27.709
35.0, -12.87647554744035, -17.585009591653943, -2.5917506692931056, -1.2753058848902583, 0.6880000326782465, 0.6720000319182873, 0.41600001975893974, 0.0, 0.0, 0.0, 0.0, 0.0, 1.710395727709155E9, 0.0, 2024-03-13 22:55:27.709
36.0, -5.183501338586211, -14.675367426127195, 2.180361674167216, -0.24683339707553387, 0.6880000326782465, 0.6720000319182873, 0.41600001975893974, 0.0, 0.0, 0.0, 0.0, 0.0, 1.7103957277248733E9, 0.0, 2024-03-13 22:55:27.724
36.0, -15.385948417708278, -13.69551363773644, -17.831842988729477, -6.249372825957835, 0.6880000326782465, 0.6720000319182873, 0.41600001975893974, 0.0, 0.0, 0.0, 0.0, 0.0, 1.7103957277248733E9, 0.0, 2024-03-13 22:55:27.724
37.0, -3.261192761361599, -7.5882570100948215, -4.106410151347518, 0.9723739884793758, 0.6880000326782465, 0.6720000319182873, 0.41600001975893974, 0.0, 0.0, 0.0, 0.0, 0.0, 1.710395727726078E9, 0.0, 2024-03-13 22:55:27.726
37.0, -5.176021538674831, -10.209926879033446, -0.725540591403842, -0.7218006914481521, 0.6880000326782465, 0.6720000319182873, 0.41600001975893974, 0.0, 0.0, 0.0, 0.0, 0.0, 1.710395727726078E9, 0.0, 2024-03-13 22:55:27.726
38.0, -1.21172758564353, -4.884309342131019, 2.7637860672548413, 3.8333974545821548, 0.6880000326782465, 0.6720000319182873, 0.41600001975893974, 0.0, 0.0, 0.0, 0.0, 0.0, 1.710395727739134E9, 0.0, 2024-03-13 22:55:27.739
38.0, 3.5566448578611016, 1.7166140796616673, 3.21631396189332, 10.987826069816947, 0.6880000326782465, 0.6720000319182873, 0.41600001975893974, 0.0, 0.0, 0.0, 0.0, 0.0, 1.710395727739134E9, 0.0, 2024-03-13 22:55:27.739
39.0, 4.6486956449225545, -3.130296262912452, 4.753412843681872, 3.6351827569305897, 0.6880000326782465, 0.6720000319182873, 0.41600001975893974, 0.0, 0.0, 0.0, 0.0, 0.0, 1.710395727754997E9, 0.0, 2024-03-13 22:55:27.754
39.0, -3.493066558614373, -4.532758746296167, -8.265178902074695, -3.388349359855056, 0.6880000326782465, 0.6720000319182873, 0.41600001975893974, 0.0, 0.0, 0.0, 0.0, 0.0, 1.710395727754997E9, 0.0, 2024-03-13 22:55:27.754
40.0, 12.218253155238926, 7.442400911822915, -3.900715653784573, 8.45217389985919, 0.6880000326782465, 0.6720000319182873, 0.41600001975893974, 0.0, 0.0, 0.0, 0.0, 0.0, 1.7103957277556105E9, 0.0, 2024-03-13 22:55:27.755
40.0, -2.5880107693374157, -9.091696792282164, -10.576437074691057, -5.1722816387191415, 0.6880000326782465, 0.6720000319182873, 0.41600001975893974, 0.0, 0.0, 0.0, 0.0, 0.0, 1.7103957277556105E9, 0.0, 2024-03-13 22:55:27.755
41.0, 9.076737192459404, 0.321631396189332, 4.895529041998088, 4.764632543548942, 0.6880000326782465, 0.6720000319182873, 0.41600001975893974, 0.0, 0.0, 0.0, 0.0, 0.0, 1.7103957277694955E9, 0.0, 2024-03-13 22:55:27.769
41.0, 5.3330973368138075, -3.339730660431087, -10.927987670525908, 0.6993612917140126, 0.6880000326782465, 0.6720000319182873, 0.41600001975893974, 0.0, 0.0, 0.0, 0.0, 0.0, 1.7103957277694955E9, 0.0, 2024-03-13 22:55:27.769
42.0, -13.800230836495757, -20.356275458820164, -26.418653286993504, -19.66439396701753, 0.7040000334382057, 0.6720000319182873, 0.41600001975893974, 0.0, 0.0, 0.0, 0.0, 0.0, 1.710395727784902E9, 0.0, 2024-03-13 22:55:27.784
42.0, -15.221392819657922, -26.306456288322806, -20.382454758509994, -23.097622126340866, 0.7040000334382057, 0.6720000319182873, 0.41600001975893974, 0.0, 0.0, 0.0, 0.0, 0.0, 1.710395727784902E9, 0.0, 2024-03-13 22:55:27.784
43.0, -16.05539050977677, -22.323462835513055, -23.445432822220027, -17.940300087444484, 0.7040000334382057, 0.6720000319182873, 0.41600001975893974, 0.0, 0.0, 0.0, 0.0, 0.0, 1.7103957277856224E9, 0.0, 2024-03-13 22:55:27.785
43.0, -8.766325496137142, -15.034397821873426, -19.638214667327702, -13.340223141945899, 0.7040000334382057, 0.6720000319182873, 0.41600001975893974, 0.0, 0.0, 0.0, 0.0, 0.0, 1.7103957277856224E9, 0.0, 2024-03-13 22:55:27.785
44.0, -18.194613284431398, -26.048403191380203, -11.814343960024416, -14.86610232386738, 0.7040000334382057, 0.6720000319182873, 0.41600001975893974, 0.0, 0.0, 0.0, 0.0, 0.0, 1.7103957277991683E9, 0.0, 2024-03-13 22:55:27.799
44.0, -14.824963424354792, -23.27713732421398, -19.009911474771798, -12.719399749301374, 0.7040000334382057, 0.6720000319182873, 0.41600001975893974, 0.0, 0.0, 0.0, 0.0, 0.0, 1.7103957277991683E9, 0.0, 2024-03-13 22:55:27.799
45.0, -28.004370868206024, -30.427826039493084, -34.448218491859734, -21.956952639855444, 0.7040000334382057, 0.6720000319182873, 0.41600001975893974, 0.0, 0.0, 0.0, 0.0, 0.0, 1.7103957278152497E9, 0.0, 2024-03-13 22:55:27.815
45.0, -17.6747671905905, -19.72797226626426, -11.64978836197406, -10.262285478413105, 0.7040000334382057, 0.6720000319182873, 0.41600001975893974, 0.0, 0.0, 0.0, 0.0, 0.0, 1.7103957278152497E9, 0.0, 2024-03-13 22:55:27.815
46.0, -21.519384345039725, -21.107995349913836, -20.281477459706366, -14.742685625329614, 0.7040000334382057, 0.6720000319182873, 0.41600001975893974, 0.0, 0.0, 0.0, 0.0, 0.0, 1.710395727815646E9, 0.0, 2024-03-13 22:55:27.815
46.0, -14.810003824532032, -17.633628291077912, -27.914613269269466, -14.45471332874149, 0.7040000334382057, 0.6720000319182873, 0.41600001975893974, 0.0, 0.0, 0.0, 0.0, 0.0, 1.710395727815646E9, 0.0, 2024-03-13 22:55:27.815
47.0, -32.18183911871165, -33.94707189779729, -24.694559407420456, -22.1963062370196, 0.7040000334382057, 0.6720000319182873, 0.41600001975893974, 0.0, 0.0, 0.0, 0.0, 0.0, 1.710395727829121E9, 0.0, 2024-03-13 22:55:27.829
47.0, -29.302116152830422, -33.82365519925952, -14.297637530602515, -21.934513240121305, 0.7040000334382057, 0.6720000319182873, 0.41600001975893974, 0.0, 0.0, 0.0, 0.0, 0.0, 1.710395727829121E9, 0.0, 2024-03-13 22:55:27.829
48.0, -39.81871482823044, -42.23095029965043, -29.81074254680425, -27.454605574719608, 0.7040000334382057, 0.6720000319182873, 0.41600001975893974, 0.0, 0.0, 0.0, 0.0, 0.0, 1.7103957278451748E9, 0.0, 2024-03-13 22:55:27.845
48.0, -26.321415888145566, -33.73015770036727, -18.351689082570374, -19.529757568612695, 0.7040000334382057, 0.6720000319182873, 0.41600001975893974, 0.0, 0.0, 0.0, 0.0, 0.0, 1.7103957278451748E9, 0.0, 2024-03-13 22:55:27.845
49.0, -35.46921117976308, -41.00052321422845, -21.635321243666112, -27.888433969579637, 0.7040000334382057, 0.6720000319182873, 0.41600001975893974, 0.0, 0.0, 0.0, 0.0, 0.0, 1.710395727845729E9, 0.0, 2024-03-13 22:55:27.845
49.0, -22.48053863365203, -31.695652124471962, -20.50213155709207, -21.66150054335594, 0.7040000334382057, 0.6720000319182873, 0.41600001975893974, 0.0, 0.0, 0.0, 0.0, 0.0, 1.710395727845729E9, 0.0, 2024-03-13 22:55:27.845
50.0, -24.290650212205946, -26.785163482651114, -31.4600384272635, -25.958645592443645, 0.7040000334382057, 0.6720000319182873, 0.4000000189989805, 0.0, 0.0, 0.0, 0.0, 0.0, 1.710395727859478E9, 0.0, 2024-03-13 22:55:27.859
50.0, -20.745225054211915, -21.257591348141432, -12.319230454042554, -13.138268544338644, 0.7040000334382057, 0.6720000319182873, 0.4000000189989805, 0.0, 0.0, 0.0, 0.0, 0.0, 1.710395727859478E9, 0.0, 2024-03-13 22:55:27.859
51.0, -19.425040369853377, -26.96841858047992, -20.06456326227635, -21.878414740785956, 0.7040000334382057, 0.6720000319182873, 0.4000000189989805, 0.0, 0.0, 0.0, 0.0, 0.0, 1.710395727875126E9, 0.0, 2024-03-13 22:55:27.875
51.0, -10.785871472209692, -10.561477474868298, -21.968172339722514, -10.85318967141211, 0.7040000334382057, 0.6720000319182873, 0.4000000189989805, 0.0, 0.0, 0.0, 0.0, 0.0, 1.710395727875126E9, 0.0, 2024-03-13 22:55:27.875
52.0, -0.4899268941953778, -5.808064631186426, -17.70468639023602, -12.999892245978117, 0.7040000334382057, 0.6720000319182873, 0.4000000189989805, 0.0, 0.0, 0.0, 0.0, 0.0, 1.7103957278756592E9, 0.0, 2024-03-13 22:55:27.875
52.0, 2.6441092686727643, -6.357829924672842, -12.394028453156352, -12.46508655231446, 0.7040000334382057, 0.6720000319182873, 0.4000000189989805, 0.0, 0.0, 0.0, 0.0, 0.0, 1.7103957278756592E9, 0.0, 2024-03-13 22:55:27.875
53.0, -7.9884263053536415, -16.406941105611622, -25.947425892576575, -16.231165807694197, 0.7040000334382057, 0.6720000319182873, 0.4000000189989805, 0.0, 0.0, 0.0, 0.0, 0.0, 1.7103957279056003E9, 0.0, 2024-03-13 22:55:27.905
53.0, -2.902162365615368, -9.944393982179463, -10.43432087637484, -4.686094644479454, 0.7040000334382057, 0.6720000319182873, 0.4000000189989805, 0.0, 0.0, 0.0, 0.0, 0.0, 1.7103957279056003E9, 0.0, 2024-03-13 22:55:27.905
54.0, -4.4056021478027105, -11.545071163214743, -2.9208618653938174, -2.135482874698937, 0.7040000334382057, 0.6720000319182873, 0.4000000189989805, 0.0, 0.0, 0.0, 0.0, 0.0, 1.7103957279062512E9, 0.0, 2024-03-13 22:55:27.906
54.0, 1.088310887105763, -6.481246623210609, -7.337683713063598, -2.4384147711098194, 0.7040000334382057, 0.6720000319182873, 0.4000000189989805, 0.0, 0.0, 0.0, 0.0, 0.0, 1.7103957279062512E9, 0.0, 2024-03-13 22:55:27.906
55.0, 4.667395144701004, 2.4458945710211992, -5.793105031363666, 8.684047697111964, 0.7040000334382057, 0.6720000319182873, 0.4000000189989805, 0.0, 0.0, 0.0, 0.0, 0.0, 1.7103957279069855E9, 0.0, 2024-03-13 22:55:27.906
55.0, 3.5566448578611016, -1.7016544798389077, 3.579084257595241, 2.8011850668117404, 0.7040000334382057, 0.6720000319182873, 0.4000000189989805, 0.0, 0.0, 0.0, 0.0, 0.0, 1.7103957279069855E9, 0.0, 2024-03-13 22:55:27.906
56.0, -12.682000749744475, -22.20004613697529, -14.07698343321681, -16.388241605833173, 0.7040000334382057, 0.6720000319182873, 0.4000000189989805, 0.0, 0.0, 0.0, 0.0, 0.0, 1.710395727919171E9, 0.0, 2024-03-13 22:55:27.919
56.0, -16.324663306586444, -21.156614049337804, -14.88854172360152, -10.767171972431242, 0.7040000334382057, 0.6720000319182873, 0.4000000189989805, 0.0, 0.0, 0.0, 0.0, 0.0, 1.710395727919171E9, 0.0, 2024-03-13 22:55:27.919
57.0, -10.213666778989136, -11.866702559404075, -2.5506117697805166, -2.4309349711984396, 0.7040000334382057, 0.6720000319182873, 0.4000000189989805, 0.0, 0.0, 0.0, 0.0, 0.0, 1.7103957279348512E9, 0.0, 2024-03-13 22:55:27.934
57.0, -10.48293957579881, -22.271104236133397, -1.406202383339405, -8.83738359529525, 0.7040000334382057, 0.6720000319182873, 0.4000000189989805, 0.0, 0.0, 0.0, 0.0, 0.0, 1.7103957279348512E9, 0.0, 2024-03-13 22:55:27.934
58.0, -16.414420905523002, -22.622654831968248, -21.3810080466792, -9.989272781647742, 0.7040000334382057, 0.6720000319182873, 0.4000000189989805, 0.0, 0.0, 0.0, 0.0, 0.0, 1.710395727935564E9, 0.0, 2024-03-13 22:55:27.935
58.0, -4.241046549752355, -13.538437839597464, -9.144055391661823, -2.1616621743887663, 0.7040000334382057, 0.6720000319182873, 0.4000000189989805, 0.0, 0.0, 0.0, 0.0, 0.0, 1.710395727935564E9, 0.0, 2024-03-13 22:55:27.935
59.0, -0.3253712961450219, -11.103762968443334, -4.398122347891331, -1.5146594820544124, 0.7040000334382057, 0.6720000319182873, 0.4000000189989805, 0.0, 0.0, 0.0, 0.0, 0.0, 1.7103957279493937E9, 0.0, 2024-03-13 22:55:27.949
59.0, -10.565217374823987, -13.972266234457493, -10.550257775001228, -3.504286258481443, 0.7040000334382057, 0.6720000319182873, 0.4000000189989805, 0.0, 0.0, 0.0, 0.0, 0.0, 1.7103957279493937E9, 0.0, 2024-03-13 22:55:27.949
60.0, 4.147549050860107, -1.249126585200429, -0.9835936883464456, 6.155875327065587, 0.7040000334382057, 0.6720000319182873, 0.41600001975893974, 0.0, 0.0, 0.0, 0.0, 0.0, 1.7103957279648528E9, 0.0, 2024-03-13 22:55:27.964
60.0, 1.1182300867512822, -3.7174605559557676, -4.42804154753685, 1.125709886662662, 0.7040000334382057, 0.6720000319182873, 0.41600001975893974, 0.0, 0.0, 0.0, 0.0, 0.0, 1.7103957279648528E9, 0.0, 2024-03-13 22:55:27.964
61.0, -5.0114659406244755, -14.177960732020438, -9.342270089313388, -5.909041929990053, 0.7040000334382057, 0.6720000319182873, 0.41600001975893974, 0.0, 0.0, 0.0, 0.0, 0.0, 1.7103957279655652E9, 0.0, 2024-03-13 22:55:27.965
61.0, 8.100623304024339, 2.535652169957757, -7.008572516962886, 3.7922585550695658, 0.7040000334382057, 0.6720000319182873, 0.41600001975893974, 0.0, 0.0, 0.0, 0.0, 0.0, 1.7103957279655652E9, 0.0, 2024-03-13 22:55:27.965
62.0, 21.68767984304577, 9.600323186255991, 5.920261629857123, 9.23755289055407, 0.7040000334382057, 0.6720000319182873, 0.41600001975893974, 0.0, 0.0, 0.0, 0.0, 0.0, 1.7103957279795153E9, 0.0, 2024-03-13 22:55:27.979
62.0, 0.3141515962779522, -10.239846078678966, -2.7974451668560505, -3.9156752536073327, 0.7040000334382057, 0.6720000319182873, 0.41600001975893974, 0.0, 0.0, 0.0, 0.0, 0.0, 1.7103957279795153E9, 0.0, 2024-03-13 22:55:27.979
63.0, -1.888649477623403, -17.543870692141354, -15.32611001841724, -8.960800293833017, 0.7040000334382057, 0.6720000319182873, 0.41600001975893974, 0.0, 0.0, 0.0, 0.0, 0.0, 1.7103957279948976E9, 0.0, 2024-03-13 22:55:27.994
63.0, -5.0488649401813745, -16.698653302155435, -12.07239705696702, -5.665948432870209, 0.7040000334382057, 0.6720000319182873, 0.41600001975893974, 0.0, 0.0, 0.0, 0.0, 0.0, 1.7103957279948976E9, 0.0, 2024-03-13 22:55:27.994
64.0, -15.774898013100028, -26.078322391025722, -13.097129644826055, -13.415021141059697, 0.7040000334382057, 0.6720000319182873, 0.41600001975893974, 0.0, 0.0, 0.0, 0.0, 0.0, 1.7103957279955473E9, 0.0, 2024-03-13 22:55:27.995
64.0, 3.575344357639551, -10.88310887105763, -0.35155059583485126, -0.7180607914924622, 0.7040000334382057, 0.6720000319182873, 0.41600001975893974, 0.0, 0.0, 0.0, 0.0, 0.0, 1.7103957279955473E9, 0.0, 2024-03-13 22:55:27.995
65.0, 4.947887641377747, -7.218006914481521, -2.0419853758066893, 5.4116352358832955, 0.7040000334382057, 0.6720000319182873, 0.41600001975893974, 0.0, 0.0, 0.0, 0.0, 0.0, 1.7103957280092022E9, 0.0, 2024-03-13 22:55:28.009
65.0, -1.7465332793071866, -13.968526334501803, -1.813851478509605, -0.845217389985919, 0.7040000334382057, 0.6720000319182873, 0.41600001975893974, 0.0, 0.0, 0.0, 0.0, 0.0, 1.7103957280092022E9, 0.0, 2024-03-13 22:55:28.009
66.0, -10.524078475311399, -21.414667146280408, -8.732666396535933, -13.362662541680038, 0.7040000334382057, 0.6720000319182873, 0.41600001975893974, 0.0, 0.0, 0.0, 0.0, 0.0, 1.7103957280248024E9, 0.0, 2024-03-13 22:55:28.024
66.0, -7.468580211512744, -21.074336250312626, -14.847402824088931, -9.383408988825977, 0.7040000334382057, 0.6720000319182873, 0.41600001975893974, 0.0, 0.0, 0.0, 0.0, 0.0, 1.7103957280248024E9, 0.0, 2024-03-13 22:55:28.024
67.0, -11.309457466006279, -20.023424362763762, -9.099176592193544, -6.365309724584222, 0.7040000334382057, 0.6720000319182873, 0.41600001975893974, 0.0, 0.0, 0.0, 0.0, 0.0, 1.7103957280255399E9, 0.0, 2024-03-13 22:55:28.025
67.0, -11.384255465120077, -23.565109620802104, -6.208233926445246, -9.604063086211681, 0.7040000334382057, 0.6720000319182873, 0.41600001975893974, 0.0, 0.0, 0.0, 0.0, 0.0, 1.7103957280255399E9, 0.0, 2024-03-13 22:55:28.025
68.0, 3.979253552854061, -5.841723730787635, -3.2312735617160797, 3.904455553740263, 0.7040000334382057, 0.6720000319182873, 0.41600001975893974, 0.0, 0.0, 0.0, 0.0, 0.0, 1.7103957280391905E9, 0.0, 2024-03-13 22:55:28.039
68.0, -6.9823932172730565, -15.546764115802944, -5.415375135838985, -0.923755289055407, 0.7040000334382057, 0.6720000319182873, 0.41600001975893974, 0.0, 0.0, 0.0, 0.0, 0.0, 1.7103957280391905E9, 0.0, 2024-03-13 22:55:28.039
69.0, -11.563770662993193, -26.98711808025837, -3.018099264241755, -12.704440149478614, 0.7040000334382057, 0.6720000319182873, 0.41600001975893974, 0.0, 0.0, 0.0, 0.0, 0.0, 1.710395728054829E9, 0.0, 2024-03-13 22:55:28.054
69.0, -17.536390892229974, -25.588395496830344, -17.929080387577415, -15.210173119790852, 0.7040000334382057, 0.6720000319182873, 0.41600001975893974, 0.0, 0.0, 0.0, 0.0, 0.0, 1.710395728054829E9, 0.0, 2024-03-13 22:55:28.054
70.0, 2.5580915696918964, -7.128249315544963, -3.055498263798654, 1.20424778573215, 0.7040000334382057, 0.6720000319182873, 0.41600001975893974, 0.0, 0.0, 0.0, 0.0, 0.0, 1.7103957280556617E9, 0.0, 2024-03-13 22:55:28.055
70.0, 2.1467025745660067, -6.2194536263123155, -5.007726040668786, 2.131742974743247, 0.7040000334382057, 0.6720000319182873, 0.41600001975893974, 0.0, 0.0, 0.0, 0.0, 0.0, 1.7103957280556617E9, 0.0, 2024-03-13 22:55:28.055
71.0, 0.34781069587916136, -7.165648315101862, -2.6852481681853533, -0.6283031925559044, 0.7040000334382057, 0.6720000319182873, 0.41600001975893974, 0.0, 0.0, 0.0, 0.0, 0.0, 1.710395728069134E9, 0.0, 2024-03-13 22:55:28.069
71.0, -0.5048864940181375, -10.232366278767586, -10.662454773671925, -3.4332281593233347, 0.7040000334382057, 0.6720000319182873, 0.41600001975893974, 0.0, 0.0, 0.0, 0.0, 0.0, 1.710395728069134E9, 0.0, 2024-03-13 22:55:28.069
72.0, -6.312951125204563, -15.27001151908189, -10.957906870171428, -7.853789906948805, 0.7040000334382057, 0.6720000319182873, 0.41600001975893974, 0.0, 0.0, 0.0, 0.0, 0.0, 1.7103957280848904E9, 0.0, 2024-03-13 22:55:28.084
72.0, -5.938961129635572, -18.692019978538156, -3.3210311606526375, -10.45676027610898, 0.7040000334382057, 0.6720000319182873, 0.41600001975893974, 0.0, 0.0, 0.0, 0.0, 0.0, 1.7103957280848904E9, 0.0, 2024-03-13 22:55:28.084
73.0, -8.317537501454353, -17.513951492495835, -17.3045170949772, -9.779838384129107, 0.7040000334382057, 0.6720000319182873, 0.41600001975893974, 0.0, 0.0, 0.0, 0.0, 0.0, 1.710395728085589E9, 0.0, 2024-03-13 22:55:28.085
73.0, 1.5109195820987225, -14.959599822759628, -10.299684477970004, -4.779592143371701, 0.7040000334382057, 0.6720000319182873, 0.41600001975893974, 0.0, 0.0, 0.0, 0.0, 0.0, 1.710395728085589E9, 0.0, 2024-03-13 22:55:28.085
74.0, -7.782731807790697, -22.17386683728546, -9.028118493035436, -8.998199293389916, 0.7040000334382057, 0.6720000319182873, 0.41600001975893974, 0.0, 0.0, 0.0, 0.0, 0.0, 1.7103957280991251E9, 0.0, 2024-03-13 22:55:28.099
74.0, -12.199553655460477, -22.667533631436527, -18.684540178626776, -15.468226216733456, 0.7040000334382057, 0.6720000319182873, 0.41600001975893974, 0.0, 0.0, 0.0, 0.0, 0.0, 1.7103957280991251E9, 0.0, 2024-03-13 22:55:28.099
75.0, -10.8569295713678, -24.328049211762846, -13.355182741768658, -11.346856465563178, 0.7040000334382057, 0.6720000319182873, 0.41600001975893974, 0.0, 0.0, 0.0, 0.0, 0.0, 1.710395728115045E9, 0.0, 2024-03-13 22:55:28.115
75.0, -7.446140811778605, -21.066856450401247, -6.077337427996099, -9.68634088523686, 0.7040000334382057, 0.6720000319182873, 0.41600001975893974, 0.0, 0.0, 0.0, 0.0, 0.0, 1.710395728115045E9, 0.0, 2024-03-13 22:55:28.115
76.0, -6.312951125204563, -17.973959187045693, -9.375929188914597, -10.89806847088039, 0.7040000334382057, 0.6720000319182873, 0.41600001975893974, 0.0, 0.0, 0.0, 0.0, 0.0, 1.710395728115553E9, 0.0, 2024-03-13 22:55:28.115
76.0, 9.708780284970999, 0.5011465940624475, -4.775852243416011, -0.9013158893212676, 0.7040000334382057, 0.6720000319182873, 0.41600001975893974, 0.0, 0.0, 0.0, 0.0, 0.0, 1.710395728115553E9, 0.0, 2024-03-13 22:55:28.115
77.0, 0.10097729880362749, -10.546517875045538, -7.408741812221706, -2.6852481681853533, 0.7040000334382057, 0.6720000319182873, 0.41600001975893974, 0.0, 0.0, 0.0, 0.0, 0.0, 1.7103957281292E9, 0.0, 2024-03-13 22:55:28.129
77.0, 3.8333974545821548, -7.165648315101862, 0.7591996910050511, -5.632289333269, 0.7040000334382057, 0.6720000319182873, 0.41600001975893974, 0.0, 0.0, 0.0, 0.0, 0.0, 1.7103957281292E9, 0.0, 2024-03-13 22:55:28.129
78.0, 6.866456318646669, -11.373035765253007, -15.774898013100028, -9.177714491263032, 0.7040000334382057, 0.6720000319182873, 0.41600001975893974, 0.0, 0.0, 0.0, 0.0, 0.0, 1.7103957281453724E9, 0.0, 2024-03-13 22:55:28.145
78.0, -3.541685258038342, -9.981792981736362, -7.483539811335504, -1.125709886662662, 0.7040000334382057, 0.6720000319182873, 0.41600001975893974, 0.0, 0.0, 0.0, 0.0, 0.0, 1.7103957281453724E9, 0.0, 2024-03-13 22:55:28.145
79.0, -4.143809150904417, -13.624455538578331, -4.196167750284076, -10.0790303805843, 0.7040000334382057, 0.6720000319182873, 0.41600001975893974, 0.0, 0.0, 0.0, 0.0, 0.0, 1.710395728145882E9, 0.0, 2024-03-13 22:55:28.145
79.0, -1.0209926879033446, -10.827010371722281, -10.673674473538995, -9.331050389446318, 0.7040000334382057, 0.6720000319182873, 0.41600001975893974, 0.0, 0.0, 0.0, 0.0, 0.0, 1.710395728145882E9, 0.0, 2024-03-13 22:55:28.145
80.0, 11.810604060068727, -3.306071560829878, 0.4787071943283081, 6.683201220817864, 0.7040000334382057, 0.6720000319182873, 0.41600001975893974, 0.0, 0.0, 0.0, 0.0, 0.0, 1.7103957281593845E9, 0.0, 2024-03-13 22:55:28.159
80.0, -8.381115800701082, -18.16095418483019, -6.627102721482515, -11.197260467335582, 0.7040000334382057, 0.6720000319182873, 0.41600001975893974, 0.0, 0.0, 0.0, 0.0, 0.0, 1.7103957281593845E9, 0.0, 2024-03-13 22:55:28.159
81.0, -5.823024231009185, -19.477398969233036, -12.4501269524917, -15.400908017531037, 0.7040000334382057, 0.6720000319182873, 0.41600001975893974, 0.0, 0.0, 0.0, 0.0, 0.0, 1.7103957281749322E9, 0.0, 2024-03-13 22:55:28.174
81.0, -8.384855700656772, -18.52372448053211, -23.80820311792195, -18.88275487627834, 0.7040000334382057, 0.6720000319182873, 0.41600001975893974, 0.0, 0.0, 0.0, 0.0, 0.0, 1.7103957281749322E9, 0.0, 2024-03-13 22:55:28.174
82.0, -1.0583916874602437, -10.49415927566588, -7.887449006550014, -6.387749124318361, 0.6880000326782465, 0.6720000319182873, 0.41600001975893974, 0.0, 0.0, 0.0, 0.0, 0.0, 1.7103957281759372E9, 0.0, 2024-03-13 22:55:28.175
82.0, 4.263485949486494, -8.06322430446744, 4.222347049973905, -5.527572134509683, 0.6880000326782465, 0.6720000319182873, 0.41600001975893974, 0.0, 0.0, 0.0, 0.0, 0.0, 1.7103957281759372E9, 0.0, 2024-03-13 22:55:28.175
83.0, 0.9574143886566162, -7.9472874058410525, -15.29619081877172, -6.159615227021277, 0.6880000326782465, 0.6720000319182873, 0.41600001975893974, 0.0, 0.0, 0.0, 0.0, 0.0, 1.7103957281891465E9, 0.0, 2024-03-13 22:55:28.189
83.0, 9.521785287186503, -2.6777683682739735, 0.08975759893655777, 1.2341669853776693, 0.6880000326782465, 0.6720000319182873, 0.41600001975893974, 0.0, 0.0, 0.0, 0.0, 0.0, 1.7103957281891465E9, 0.0, 2024-03-13 22:55:28.189
84.0, 6.675721420906484, -13.568357039242983, 7.9884263053536415, -3.7735590552911162, 0.6880000326782465, 0.6720000319182873, 0.41600001975893974, 0.0, 0.0, 0.0, 0.0, 0.0, 1.7103957282212057E9, 0.0, 2024-03-13 22:55:28.221
84.0, -2.01206617616117, -12.592243150807917, -1.3949826834723353, -3.4706271588802338, 0.6880000326782465, 0.6720000319182873, 0.41600001975893974, 0.0, 0.0, 0.0, 0.0, 0.0, 1.7103957282212057E9, 0.0, 2024-03-13 22:55:28.221
85.0, 11.25335896667093, -1.8213312784209847, -8.534451698884368, 4.7272335439920425, 0.6880000326782465, 0.6720000319182873, 0.41600001975893974, 0.0, 0.0, 0.0, 0.0, 0.0, 1.7103957282219813E9, 0.0, 2024-03-13 22:55:28.221
85.0, 2.490773370489478, -4.510319346562028, -3.814697954803705, -2.8685032660141587, 0.6880000326782465, 0.6720000319182873, 0.41600001975893974, 0.0, 0.0, 0.0, 0.0, 0.0, 1.7103957282219813E9, 0.0, 2024-03-13 22:55:28.221
86.0, 8.979499793611467, 0.9686340885236859, 3.5267256582155824, 3.541685258038342, 0.6880000326782465, 0.6720000319182873, 0.41600001975893974, 0.0, 0.0, 0.0, 0.0, 0.0, 1.7103957282227187E9, 0.0, 2024-03-13 22:55:28.222
86.0, 3.6052635572850704, -0.6245632926002145, -7.446140811778605, 4.966587141156197, 0.6880000326782465, 0.6720000319182873, 0.41600001975893974, 0.0, 0.0, 0.0, 0.0, 0.0, 1.7103957282227187E9, 0.0, 2024-03-13 22:55:28.222
87.0, 10.146348579786718, -0.2094343975186348, 5.000246240757406, 10.782131572254002, 0.6880000326782465, 0.6720000319182873, 0.41600001975893974, 0.0, 0.0, 0.0, 0.0, 0.0, 1.7103957282235017E9, 0.0, 2024-03-13 22:55:28.223
87.0, 12.199553655460477, -2.7974451668560505, 6.690681020729244, 3.055498263798654, 0.6880000326782465, 0.6720000319182873, 0.41600001975893974, 0.0, 0.0, 0.0, 0.0, 0.0, 1.7103957282235017E9, 0.0, 2024-03-13 22:55:28.223
88.0, 18.98373217508197, 7.812651007436216, 1.1780684860423207, 11.182300867512822, 0.6880000326782465, 0.6720000319182873, 0.41600001975893974, 0.0, 0.0, 0.0, 0.0, 0.0, 1.71039572823428E9, 0.0, 2024-03-13 22:55:28.234
88.0, 28.19510576594621, 15.569203515537083, 2.692727968096733, 17.7495651897043, 0.6880000326782465, 0.6720000319182873, 0.41600001975893974, 0.0, 0.0, 0.0, 0.0, 0.0, 1.71039572823428E9, 0.0, 2024-03-13 22:55:28.234
89.0, 10.299684477970004, -0.28049249667674303, 8.627949197776616, 4.917968441732228, 0.6880000326782465, 0.6720000319182873, 0.41600001975893974, 0.0, 0.0, 0.0, 0.0, 0.0, 1.7103957282492328E9, 0.0, 2024-03-13 22:55:28.249
89.0, 3.0293189641088247, -10.509118875488639, -8.575590598396957, -3.6800615563988686, 0.6880000326782465, 0.6720000319182873, 0.41600001975893974, 0.0, 0.0, 0.0, 0.0, 0.0, 1.7103957282492328E9, 0.0, 2024-03-13 22:55:28.249
90.0, 6.757999219931662, -2.4084955714643, -11.533851463347673, 4.41682184766978, 0.6880000326782465, 0.6720000319182873, 0.41600001975893974, 0.0, 0.0, 0.0, 0.0, 0.0, 1.710395728265174E9, 0.0, 2024-03-13 22:55:28.265
90.0, -0.11967679858207703, -8.115582903847098, -14.46219312865287, -3.736160055734217, 0.6880000326782465, 0.6720000319182873, 0.41600001975893974, 0.0, 0.0, 0.0, 0.0, 0.0, 1.710395728265174E9, 0.0, 2024-03-13 22:55:28.265
91.0, -2.7114274678751826, -11.122462468221784, -14.024624833837152, -5.123662939295173, 0.6880000326782465, 0.6720000319182873, 0.41600001975893974, 0.0, 0.0, 0.0, 0.0, 0.0, 1.7103957282656462E9, 0.0, 2024-03-13 22:55:28.265
91.0, -5.179761438630521, -14.005925334058702, -19.230565572157502, -5.62106963340193, 0.6880000326782465, 0.6720000319182873, 0.41600001975893974, 0.0, 0.0, 0.0, 0.0, 0.0, 1.7103957282656462E9, 0.0, 2024-03-13 22:55:28.265
92.0, -0.04861869942396879, -6.986133117228746, -4.757152743637562, -0.8526971898972988, 0.6880000326782465, 0.6720000319182873, 0.41600001975893974, 0.0, 0.0, 0.0, 0.0, 0.0, 1.710395728279256E9, 0.0, 2024-03-13 22:55:28.279
92.0, 2.341177372261882, -12.936313946731389, -1.9858868764713407, -1.7876721788197756, 0.6880000326782465, 0.6720000319182873, 0.41600001975893974, 0.0, 0.0, 0.0, 0.0, 0.0, 1.710395728279256E9, 0.0, 2024-03-13 22:55:28.279
93.0, 0.6507425922900438, -13.923647535033524, -10.131388979963958, -6.107256627641618, 0.6880000326782465, 0.6720000319182873, 0.41600001975893974, 0.0, 0.0, 0.0, 0.0, 0.0, 1.71039572829518E9, 0.0, 2024-03-13 22:55:28.295
93.0, -3.055498263798654, -15.509365116246045, -12.517445151694119, -4.330804148688912, 0.6880000326782465, 0.6720000319182873, 0.41600001975893974, 0.0, 0.0, 0.0, 0.0, 0.0, 1.71039572829518E9, 0.0, 2024-03-13 22:55:28.295
94.0, -3.298591760918498, -11.055144269019365, -3.4332281593233347, -4.345763748511672, 0.6880000326782465, 0.6720000319182873, 0.41600001975893974, 0.0, 0.0, 0.0, 0.0, 0.0, 1.7103957282956843E9, 0.0, 2024-03-13 22:55:28.295
94.0, -1.3837629836052656, -9.420807988382876, -4.7272335439920425, -2.890942665748298, 0.6880000326782465, 0.6720000319182873, 0.41600001975893974, 0.0, 0.0, 0.0, 0.0, 0.0, 1.7103957282956843E9, 0.0, 2024-03-13 22:55:28.295
95.0, 4.065271251834929, -7.087110416032374, -10.4492804761976, -1.0957906870171428, 0.6880000326782465, 0.6720000319182873, 0.41600001975893974, 0.0, 0.0, 0.0, 0.0, 0.0, 1.71039572830925E9, 0.0, 2024-03-13 22:55:28.309
95.0, 2.984440164640546, -10.714813373051584, -8.785024995915592, -4.884309342131019, 0.6880000326782465, 0.6720000319182873, 0.41600001975893974, 0.0, 0.0, 0.0, 0.0, 0.0, 1.71039572830925E9, 0.0, 2024-03-13 22:55:28.309
96.0, -1.3912427835166454, -18.811696777120233, -7.876229306682944, -5.6958676325157285, 0.6880000326782465, 0.6720000319182873, 0.41600001975893974, 0.0, 0.0, 0.0, 0.0, 0.0, 1.7103957283252363E9, 0.0, 2024-03-13 22:55:28.325
96.0, 8.253959202207625, 0.08227779902517796, -2.371096571907401, 7.363863012753427, 0.6880000326782465, 0.6720000319182873, 0.41600001975893974, 0.0, 0.0, 0.0, 0.0, 0.0, 1.7103957283252363E9, 0.0, 2024-03-13 22:55:28.325
97.0, 13.343963041901588, 1.9559676768258214, 11.421654464676976, 9.533004987053573, 0.6880000326782465, 0.6720000319182873, 0.41600001975893974, 0.0, 0.0, 0.0, 0.0, 0.0, 1.7103957283257482E9, 0.0, 2024-03-13 22:55:28.325
97.0, 20.17676026094705, 0.29545209649950266, 11.032704869285226, 8.265178902074695, 0.6880000326782465, 0.6720000319182873, 0.41600001975893974, 0.0, 0.0, 0.0, 0.0, 0.0, 1.7103957283257482E9, 0.0, 2024-03-13 22:55:28.325
98.0, -0.964894188567996, -4.951627541333437, -7.9884263053536415, 2.2439399734139442, 0.6880000326782465, 0.6720000319182873, 0.41600001975893974, 0.0, 0.0, 0.0, 0.0, 0.0, 1.7103957283391812E9, 0.0, 2024-03-13 22:55:28.339
98.0, 23.505271221511066, 18.306810283102095, 10.909288170747459, 23.849342017434537, 0.6880000326782465, 0.6720000319182873, 0.41600001975893974, 0.0, 0.0, 0.0, 0.0, 0.0, 1.7103957283391812E9, 0.0, 2024-03-13 22:55:28.339
99.0, 8.773805296048522, -0.643262792378664, 7.034751816652715, 4.603816845454276, 0.6880000326782465, 0.6720000319182873, 0.41600001975893974, 0.0, 0.0, 0.0, 0.0, 0.0, 1.710395728354857E9, 0.0, 2024-03-13 22:55:28.354
99.0, 2.1841015741229057, -12.016298557631671, -14.342516330070794, -6.522385522723198, 0.6880000326782465, 0.6720000319182873, 0.41600001975893974, 0.0, 0.0, 0.0, 0.0, 0.0, 1.710395728354857E9, 0.0, 2024-03-13 22:55:28.354
100.0, 0.9985532881692052, -5.422854935750365, -11.851742959581316, 0.4188687950372696, 0.6880000326782465, 0.6720000319182873, 0.41600001975893974, 0.0, 0.0, 0.0, 0.0, 0.0, 1.710395728355579E9, 0.0, 2024-03-13 22:55:28.355
100.0, 5.366756436415017, -6.683201220817864, 0.8639168897643685, 1.1518891863524914, 0.6880000326782465, 0.6720000319182873, 0.41600001975893974, 0.0, 0.0, 0.0, 0.0, 0.0, 1.710395728355579E9, 0.0, 2024-03-13 22:55:28.355
0.0, -893.4340501646511, -592.0037235859782, -573.7791911019012, -589.7092949631624, 0.6880000326782465, 0.6720000319182873, 0.41600001975893974, 0.0, 0.0, 0.0, 0.0, 0.0, 1.710395728369844E9, 0.0, 2024-03-13 22:55:28.369
1.0, -901.9572821636684, -594.2065246598795, -581.2215920137241, -586.590218400117, 0.6880000326782465, 0.6720000319182873, 0.41600001975893974, 0.0, 0.0, 0.0, 0.0, 0.0, 1.7103957283711605E9, 0.0, 2024-03-13 22:55:28.371
1.0, -883.7851082789712, -578.147394250147, -563.9544739183038, -574.2635081461631, 0.6880000326782465, 0.6720000319182873, 0.41600001975893974, 0.0, 0.0, 0.0, 0.0, 0.0, 1.7103957283711605E9, 0.0, 2024-03-13 22:55:28.371
2.0, -891.5603602868505, -593.368787069805, -571.6811072267592, -587.1736427932046, 0.7040000334382057, 0.6720000319182873, 0.41600001975893974, 0.0, 0.0, 0.0, 0.0, 0.0, 1.7103957283844204E9, 0.0, 2024-03-13 22:55:28.384
2.0, -903.0007142513059, -598.8589602047578, -577.4181137587875, -586.0105339069851, 0.7040000334382057, 0.6720000319182873, 0.41600001975893974, 0.0, 0.0, 0.0, 0.0, 0.0, 1.7103957283844204E9, 0.0, 2024-03-13 22:55:28.384
3.0, -899.791880089324, -594.5393757559359, -576.4644392700866, -584.7464477219619, 0.7040000334382057, 0.6720000319182873, 0.41600001975893974, 0.0, 0.0, 0.0, 0.0, 0.0, 1.7103957284000127E9, 0.0, 2024-03-13 22:55:28.400
3.0, -907.8700639936142, -605.7104569235817, -574.9909186875448, -595.5323191941716, 0.7040000334382057, 0.6720000319182873, 0.41600001975893974, 0.0, 0.0, 0.0, 0.0, 0.0, 1.7103957284000127E9, 0.0, 2024-03-13 22:55:28.400
4.0, -907.0360663034953, -607.0119421081617, -595.9081791397184, -603.5880636987276, 0.7040000334382057, 0.6720000319182873, 0.41600001975893974, 0.0, 0.0, 0.0, 0.0, 0.0, 1.710395728400612E9, 0.0, 2024-03-13 22:55:28.400
4.0, -897.379644617904, -595.7511033415794, -584.733358072117, -591.366070643533, 0.7040000334382057, 0.6720000319182873, 0.41600001975893974, 0.0, 0.0, 0.0, 0.0, 0.0, 1.710395728400612E9, 0.0, 2024-03-13 22:55:28.400
5.0, -899.4066703938879, -599.8388139931485, -582.3847008999437, -596.7103876802139, 0.7040000334382057, 0.6720000319182873, 0.41600001975893974, 0.0, 0.0, 0.0, 0.0, 0.0, 1.7103957284308465E9, 0.0, 2024-03-13 22:55:28.430
5.0, -894.1483710561879, -600.8934657806531, -586.8464015470818, -597.2751125735231, 0.7040000334382057, 0.6720000319182873, 0.41600001975893974, 0.0, 0.0, 0.0, 0.0, 0.0, 1.7103957284308465E9, 0.0, 2024-03-13 22:55:28.430
6.0, -903.2737269480713, -597.819268017076, -588.1142276320606, -589.6008378644474, 0.7040000334382057, 0.6720000319182873, 0.41600001975893974, 0.0, 0.0, 0.0, 0.0, 0.0, 1.7103957284312809E9, 0.0, 2024-03-13 22:55:28.431
6.0, -908.4460085867904, -599.9510109918192, -588.555535826832, -597.3162514730357, 0.7040000334382057, 0.6720000319182873, 0.41600001975893974, 0.0, 0.0, 0.0, 0.0, 0.0, 1.7103957284312809E9, 0.0, 2024-03-13 22:55:28.431
7.0, -914.0857777199708, -608.6948970882222, -581.9209533054382, -602.4324346124195, 0.7040000334382057, 0.6720000319182873, 0.41600001975893974, 0.0, 0.0, 0.0, 0.0, 0.0, 1.7103957284320455E9, 0.0, 2024-03-13 22:55:28.432
7.0, -909.126670378726, -599.4760436974466, -580.2080791257322, -590.9958205479197, 0.7040000334382057, 0.6720000319182873, 0.41600001975893974, 0.0, 0.0, 0.0, 0.0, 0.0, 1.7103957284320455E9, 0.0, 2024-03-13 22:55:28.432
8.0, -905.7158816191368, -598.7505031060427, -578.2857705485076, -587.0315265948884, 0.7040000334382057, 0.6720000319182873, 0.41600001975893974, 0.0, 0.0, 0.0, 0.0, 0.0, 1.71039572844475E9, 0.0, 2024-03-13 22:55:28.444
8.0, -903.542999744881, -600.2090640887618, -576.000691675581, -592.6787755279802, 0.7040000334382057, 0.6720000319182873, 0.41600001975893974, 0.0, 0.0, 0.0, 0.0, 0.0, 1.71039572844475E9, 0.0, 2024-03-13 22:55:28.444
9.0, -902.3985903584398, -597.8117882171646, -589.5989679144695, -594.8105185027234, 0.7040000334382057, 0.6720000319182873, 0.41600001975893974, 0.0, 0.0, 0.0, 0.0, 0.0, 1.7103957284600177E9, 0.0, 2024-03-13 22:55:28.460
9.0, -903.0493329507299, -589.5840083146468, -593.6567593663931, -594.5898644053377, 0.7040000334382057, 0.6720000319182873, 0.41600001975893974, 0.0, 0.0, 0.0, 0.0, 0.0, 1.7103957284600177E9, 0.0, 2024-03-13 22:55:28.460
10.0, -896.6840232261457, -590.2721499064937, -574.5346508929506, -585.576705512125, 0.7040000334382057, 0.6720000319182873, 0.41600001975893974, 0.0, 0.0, 0.0, 0.0, 0.0, 1.710395728460831E9, 0.0, 2024-03-13 22:55:28.460
10.0, -898.9167434996925, -594.4683176567778, -587.2353511424735, -595.0349125000648, 0.7040000334382057, 0.6720000319182873, 0.41600001975893974, 0.0, 0.0, 0.0, 0.0, 0.0, 1.710395728460831E9, 0.0, 2024-03-13 22:55:28.460
11.0, -903.2026688489132, -596.7010379303247, -595.792242241092, -597.0731579759158, 0.7040000334382057, 0.6720000319182873, 0.41600001975893974, 0.0, 0.0, 0.0, 0.0, 0.0, 1.7103957284742048E9, 0.0, 2024-03-13 22:55:28.474
11.0, -904.4256161344238, -600.942084480077, -585.6832926608622, -595.6519959927537, 0.7040000334382057, 0.6720000319182873, 0.41600001975893974, 0.0, 0.0, 0.0, 0.0, 0.0, 1.7103957284742048E9, 0.0, 2024-03-13 22:55:28.474
12.0, -898.6325111030601, -598.1072403136641, -580.9971980163828, -592.5142199299298, 0.7040000334382057, 0.6720000319182873, 0.41600001975893974, 0.0, 0.0, 0.0, 0.0, 0.0, 1.7103957284898689E9, 0.0, 2024-03-13 22:55:28.489
12.0, -899.0887788976543, -598.844000604935, -593.9559513628483, -597.3835696722381, 0.7040000334382057, 0.6720000319182873, 0.41600001975893974, 0.0, 0.0, 0.0, 0.0, 0.0, 1.7103957284898689E9, 0.0, 2024-03-13 22:55:28.489
13.0, -900.6146580795757, -598.1109802136198, -583.3047162890434, -594.0550587116741, 0.7040000334382057, 0.6720000319182873, 0.41600001975893974, 0.0, 0.0, 0.0, 0.0, 0.0, 1.710395728490596E9, 0.0, 2024-03-13 22:55:28.490
13.0, -907.3502178997733, -602.606339960359, -578.2259321492165, -596.9198220777325, 0.7040000334382057, 0.6720000319182873, 0.41600001975893974, 0.0, 0.0, 0.0, 0.0, 0.0, 1.710395728490596E9, 0.0, 2024-03-13 22:55:28.490
14.0, -895.1057854448445, -585.3205223651603, -570.3908417420462, -581.7470479574986, 0.7040000334382057, 0.6720000319182873, 0.41600001975893974, 0.0, 0.0, 0.0, 0.0, 0.0, 1.7103957285041616E9, 0.0, 2024-03-13 22:55:28.504
14.0, -895.9734422345646, -583.8956204820424, -581.5768825095147, -584.6566901230253, 0.7040000334382057, 0.6720000319182873, 0.41600001975893974, 0.0, 0.0, 0.0, 0.0, 0.0, 1.7103957285041616E9, 0.0, 2024-03-13 22:55:28.504
15.0, -888.5123418229632, -583.817082582973, -564.1377290161327, -579.9556358787231, 0.7040000334382057, 0.6720000319182873, 0.41600001975893974, 0.0, 0.0, 0.0, 0.0, 0.0, 1.7103957285198977E9, 0.0, 2024-03-13 22:55:28.519
15.0, -898.9578823992051, -591.824208388105, -578.3792680473998, -588.7144815749489, 0.7040000334382057, 0.6720000319182873, 0.41600001975893974, 0.0, 0.0, 0.0, 0.0, 0.0, 1.7103957285198977E9, 0.0, 2024-03-13 22:55:28.519
16.0, -890.4309105002321, -580.3015766246244, -579.258144536987, -581.608671659138, 0.7040000334382057, 0.6720000319182873, 0.41600001975893974, 0.0, 0.0, 0.0, 0.0, 0.0, 1.710395728520645E9, 0.0, 2024-03-13 22:55:28.520
16.0, -891.4631228880025, -577.5340506574139, -565.1063631046563, -573.9717959496193, 0.7040000334382057, 0.6720000319182873, 0.41600001975893974, 0.0, 0.0, 0.0, 0.0, 0.0, 1.710395728520645E9, 0.0, 2024-03-13 22:55:28.520
17.0, -898.886824300047, -593.9634311627597, -574.2242391966283, -586.5565593005158, 0.7040000334382057, 0.6720000319182873, 0.41600001975893974, 0.0, 0.0, 0.0, 0.0, 0.0, 1.7103957285341525E9, 0.0, 2024-03-13 22:55:28.534
17.0, -892.3569589774124, -583.7609840836376, -574.4000144945458, -578.594312294852, 0.7040000334382057, 0.6720000319182873, 0.41600001975893974, 0.0, 0.0, 0.0, 0.0, 0.0, 1.7103957285341525E9, 0.0, 2024-03-13 22:55:28.534
18.0, -896.4297100291587, -582.478198398836, -569.7550587495789, -571.6119190775789, 0.7040000334382057, 0.6720000319182873, 0.41600001975893974, 0.0, 0.0, 0.0, 0.0, 0.0, 1.7103957285502996E9, 0.0, 2024-03-13 22:55:28.550
18.0, -889.5183749110438, -583.3757743882015, -559.840583967045, -575.5201145312749, 0.7040000334382057, 0.6720000319182873, 0.41600001975893974, 0.0, 0.0, 0.0, 0.0, 0.0, 1.7103957285502996E9, 0.0, 2024-03-13 22:55:28.550
19.0, -900.6146580795757, -593.7390371654183, -578.1922730496153, -585.673942910973, 0.7040000334382057, 0.6720000319182873, 0.41600001975893974, 0.0, 0.0, 0.0, 0.0, 0.0, 1.7103957285507612E9, 0.0, 2024-03-13 22:55:28.550
19.0, -892.6187519743107, -587.4148663403466, -578.2857705485076, -583.8563515325077, 0.7040000334382057, 0.6720000319182873, 0.41600001975893974, 0.0, 0.0, 0.0, 0.0, 0.0, 1.7103957285507612E9, 0.0, 2024-03-13 22:55:28.550
20.0, -885.8270936547779, -579.9836851283908, -571.9840391231701, -586.0703723062761, 0.7040000334382057, 0.6720000319182873, 0.41600001975893974, 0.0, 0.0, 0.0, 0.0, 0.0, 1.7103957285642202E9, 0.0, 2024-03-13 22:55:28.564
20.0, -893.942676558625, -585.6346739614382, -576.0792295746505, -586.264847103972, 0.7040000334382057, 0.6720000319182873, 0.41600001975893974, 0.0, 0.0, 0.0, 0.0, 0.0, 1.7103957285642202E9, 0.0, 2024-03-13 22:55:28.564
21.0, -892.7870474723168, -583.6413072850555, -585.5262168627232, -586.1863092049025, 0.7040000334382057, 0.6720000319182873, 0.41600001975893974, 0.0, 0.0, 0.0, 0.0, 0.0, 1.710395728580021E9, 0.0, 2024-03-13 22:55:28.580
21.0, -894.6046388507821, -585.2494642660022, -581.0495566157624, -590.6480098520406, 0.7040000334382057, 0.6720000319182873, 0.41600001975893974, 0.0, 0.0, 0.0, 0.0, 0.0, 1.710395728580021E9, 0.0, 2024-03-13 22:55:28.580
22.0, -904.1114645381458, -595.2050779480487, -572.1710341209546, -590.9509417484514, 0.6880000326782465, 0.6720000319182873, 0.41600001975893974, 0.0, 0.0, 0.0, 0.0, 0.0, 1.7103957285951636E9, 0.0, 2024-03-13 22:55:28.595
22.0, -896.848578824196, -588.809849023819, -586.0460629565641, -590.5470325532369, 0.6880000326782465, 0.6720000319182873, 0.41600001975893974, 0.0, 0.0, 0.0, 0.0, 0.0, 1.7103957285951636E9, 0.0, 2024-03-13 22:55:28.595
23.0, -908.7414606832899, -597.0937274256721, -582.695112596266, -592.5067401300184, 0.6880000326782465, 0.6720000319182873, 0.41600001975893974, 0.0, 0.0, 0.0, 0.0, 0.0, 1.7103957285958807E9, 0.0, 2024-03-13 22:55:28.595
23.0, -907.3876168993302, -597.3555204225704, -578.5774827450514, -591.6054242406972, 0.6880000326782465, 0.6720000319182873, 0.41600001975893974, 0.0, 0.0, 0.0, 0.0, 0.0, 1.7103957285958807E9, 0.0, 2024-03-13 22:55:28.595
24.0, -904.4779747338034, -595.6276866430417, -581.7863169070333, -588.6396835758351, 0.6880000326782465, 0.6720000319182873, 0.41600001975893974, 0.0, 0.0, 0.0, 0.0, 0.0, 1.7103957286106722E9, 0.0, 2024-03-13 22:55:28.610
24.0, -902.8735576528125, -590.5264631034806, -578.3156897481531, -578.0744662010111, 0.6880000326782465, 0.6720000319182873, 0.41600001975893974, 0.0, 0.0, 0.0, 0.0, 0.0, 1.7103957286106722E9, 0.0, 2024-03-13 22:55:28.610
25.0, -903.6065780441277, -592.6656858781353, -568.6854473622516, -584.8324654209428, 0.6880000326782465, 0.6720000319182873, 0.41600001975893974, 0.0, 0.0, 0.0, 0.0, 0.0, 1.710395728610878E9, 0.0, 2024-03-13 22:55:28.610
25.0, -901.3102794713341, -598.0661014141515, -578.8056166423485, -594.0812380113639, 0.6880000326782465, 0.6720000319182873, 0.41600001975893974, 0.0, 0.0, 0.0, 0.0, 0.0, 1.710395728610878E9, 0.0, 2024-03-13 22:55:28.610
26.0, -905.5513260210864, -594.7375904535875, -590.0664554089308, -590.4909340539016, 0.6880000326782465, 0.6720000319182873, 0.41600001975893974, 0.0, 0.0, 0.0, 0.0, 0.0, 1.7103957286244614E9, 0.0, 2024-03-13 22:55:28.624
26.0, -897.2188289198093, -588.0244700331241, -578.884154541418, -587.7159282867797, 0.6880000326782465, 0.6720000319182873, 0.41600001975893974, 0.0, 0.0, 0.0, 0.0, 0.0, 1.7103957286244614E9, 0.0, 2024-03-13 22:55:28.624
27.0, -892.338259477634, -582.2276251018047, -564.1040699165314, -580.1351510765962, 0.6880000326782465, 0.6720000319182873, 0.41600001975893974, 0.0, 0.0, 0.0, 0.0, 0.0, 1.7103957286401644E9, 0.0, 2024-03-13 22:55:28.640
27.0, -896.1342579326592, -585.4850779632106, -577.3021768601611, -584.81750582112, 0.6880000326782465, 0.6720000319182873, 0.41600001975893974, 0.0, 0.0, 0.0, 0.0, 0.0, 1.7103957286401644E9, 0.0, 2024-03-13 22:55:28.640
28.0, -901.3027996714227, -591.9962437860668, -580.9710187166929, -591.6016843407415, 0.6880000326782465, 0.6720000319182873, 0.41600001975893974, 0.0, 0.0, 0.0, 0.0, 0.0, 1.7103957286406584E9, 0.0, 2024-03-13 22:55:28.640
28.0, -905.0651390268467, -597.5686947200447, -569.2277328558266, -592.0429925355129, 0.6880000326782465, 0.6720000319182873, 0.41600001975893974, 0.0, 0.0, 0.0, 0.0, 0.0, 1.7103957286406584E9, 0.0, 2024-03-13 22:55:28.640
29.0, -910.1439231666736, -601.0430617788807, -585.9600452575833, -596.6692487807013, 0.6880000326782465, 0.6720000319182873, 0.41600001975893974, 0.0, 0.0, 0.0, 0.0, 0.0, 1.710395728654382E9, 0.0, 2024-03-13 22:55:28.654
29.0, -904.833265229594, -597.9950433149934, -580.5932888211682, -591.2875327444635, 0.6880000326782465, 0.6720000319182873, 0.41600001975893974, 0.0, 0.0, 0.0, 0.0, 0.0, 1.710395728654382E9, 0.0, 2024-03-13 22:55:28.654
30.0, -902.9670551517047, -600.2539428882301, -575.0395373869687, -590.8163053500466, 0.6880000326782465, 0.6720000319182873, 0.41600001975893974, 0.0, 0.0, 0.0, 0.0, 0.0, 1.7103957286698625E9, 0.0, 2024-03-13 22:55:28.669
30.0, -910.8208450586535, -600.9121652804315, -565.3943354012445, -588.0562591827475, 0.6880000326782465, 0.6720000319182873, 0.41600001975893974, 0.0, 0.0, 0.0, 0.0, 0.0, 1.7103957286698625E9, 0.0, 2024-03-13 22:55:28.669
31.0, -903.7486942424439, -591.2482637949288, -575.5444238809869, -585.2101953164674, 0.6880000326782465, 0.6720000319182873, 0.41600001975893974, 0.0, 0.0, 0.0, 0.0, 0.0, 1.710395728670585E9, 0.0, 2024-03-13 22:55:28.670
31.0, -896.0258008339442, -589.2025385191664, -564.2274866150692, -582.2220152518712, 0.6880000326782465, 0.6720000319182873, 0.41600001975893974, 0.0, 0.0, 0.0, 0.0, 0.0, 1.710395728670585E9, 0.0, 2024-03-13 22:55:28.670
32.0, -895.1731036440469, -582.3921806998551, -560.3454704610631, -580.041653577704, 0.6880000326782465, 0.6720000319182873, 0.41600001975893974, 0.0, 0.0, 0.0, 0.0, 0.0, 1.7103957286842773E9, 0.0, 2024-03-13 22:55:28.684
32.0, -901.8563048648648, -590.5152434036136, -576.8833080651239, -581.0701260655187, 0.6880000326782465, 0.6720000319182873, 0.41600001975893974, 0.0, 0.0, 0.0, 0.0, 0.0, 1.7103957286842773E9, 0.0, 2024-03-13 22:55:28.684
33.0, -891.0666934926994, -580.3015766246244, -566.871595883742, -576.1633773236535, 0.6880000326782465, 0.6720000319182873, 0.41600001975893974, 0.0, 0.0, 0.0, 0.0, 0.0, 1.7103957286998804E9, 0.0, 2024-03-13 22:55:28.699
33.0, -898.2173822079785, -589.0492026209831, -568.4086947655305, -582.8129194448702, 0.6880000326782465, 0.6720000319182873, 0.41600001975893974, 0.0, 0.0, 0.0, 0.0, 0.0, 1.7103957286998804E9, 0.0, 2024-03-13 22:55:28.699
34.0, -889.1556046153419, -579.5087178340182, -561.0672711525112, -573.4968286552466, 0.6880000326782465, 0.6720000319182873, 0.41600001975893974, 0.0, 0.0, 0.0, 0.0, 0.0, 1.7103957287006063E9, 0.0, 2024-03-13 22:55:28.700
34.0, -879.2860086322762, -568.7639852613211, -562.9783600298688, -569.8541660984047, 0.6880000326782465, 0.6720000319182873, 0.41600001975893974, 0.0, 0.0, 0.0, 0.0, 0.0, 1.7103957287006063E9, 0.0, 2024-03-13 22:55:28.700
35.0, -890.0718801044859, -581.0009379163384, -564.5304185114801, -580.0117343780585, 0.6880000326782465, 0.6720000319182873, 0.41600001975893974, 0.0, 0.0, 0.0, 0.0, 0.0, 1.7103957287142837E9, 0.0, 2024-03-13 22:55:28.714
35.0, -889.0134884170257, -580.2791372248903, -558.4979598829523, -576.8066401160322, 0.6880000326782465, 0.6720000319182873, 0.41600001975893974, 0.0, 0.0, 0.0, 0.0, 0.0, 1.7103957287142837E9, 0.0, 2024-03-13 22:55:28.714
36.0, -900.7380747781135, -589.2474173186347, -576.531757469289, -583.6095181354322, 0.6880000326782465, 0.6720000319182873, 0.41600001975893974, 0.0, 0.0, 0.0, 0.0, 0.0, 1.7103957287300203E9, 0.0, 2024-03-13 22:55:28.730
36.0, -905.4204295226373, -591.1697258958593, -572.2420922201127, -589.2305877688341, 0.6880000326782465, 0.6720000319182873, 0.41600001975893974, 0.0, 0.0, 0.0, 0.0, 0.0, 1.7103957287300203E9, 0.0, 2024-03-13 22:55:28.730
37.0, -894.3428458538838, -584.0863553797826, -557.910795589909, -577.7116959053092, 0.6880000326782465, 0.6720000319182873, 0.41600001975893974, 0.0, 0.0, 0.0, 0.0, 0.0, 1.7103957287306511E9, 0.0, 2024-03-13 22:55:28.730
37.0, -899.6161047914065, -584.0414765803143, -577.388194559142, -585.8758975085802, 0.6880000326782465, 0.6720000319182873, 0.41600001975893974, 0.0, 0.0, 0.0, 0.0, 0.0, 1.7103957287306511E9, 0.0, 2024-03-13 22:55:28.730
38.0, -890.3224534015171, -582.4482791991904, -572.9900722112507, -582.8428386445157, 0.6880000326782465, 0.6720000319182873, 0.41600001975893974, 0.0, 0.0, 0.0, 0.0, 0.0, 1.7103957287443385E9, 0.0, 2024-03-13 22:55:28.744
38.0, -889.8138270075433, -582.0294104041532, -563.7039006212726, -575.5500337309204, 0.6880000326782465, 0.6720000319182873, 0.41600001975893974, 0.0, 0.0, 0.0, 0.0, 0.0, 1.7103957287443385E9, 0.0, 2024-03-13 22:55:28.744
39.0, -899.0700793978758, -591.3716804934666, -580.0098644280806, -586.3508648029529, 0.6880000326782465, 0.6720000319182873, 0.41600001975893974, 0.0, 0.0, 0.0, 0.0, 0.0, 1.7103957287603655E9, 0.0, 2024-03-13 22:55:28.760
39.0, -894.1857700557448, -579.3703415356576, -563.6777213215828, -572.7600683639757, 0.6880000326782465, 0.6720000319182873, 0.41600001975893974, 0.0, 0.0, 0.0, 0.0, 0.0, 1.7103957287603655E9, 0.0, 2024-03-13 22:55:28.760
40.0, -895.8313260362484, -588.4246393283829, -562.0882638404146, -576.5448471191339, 0.6880000326782465, 0.6720000319182873, 0.41600001975893974, 0.0, 0.0, 0.0, 0.0, 0.0, 1.7103957287612033E9, 0.0, 2024-03-13 22:55:28.761
40.0, -892.5925726746209, -581.7750972071663, -559.2795989736915, -576.9711957140826, 0.6880000326782465, 0.6720000319182873, 0.41600001975893974, 0.0, 0.0, 0.0, 0.0, 0.0, 1.7103957287612033E9, 0.0, 2024-03-13 22:55:28.761
41.0, -902.204115560744, -591.0313495974988, -577.7696643546224, -581.5899721593596, 0.6880000326782465, 0.6720000319182873, 0.41600001975893974, 0.0, 0.0, 0.0, 0.0, 0.0, 1.710395728774243E9, 0.0, 2024-03-13 22:55:28.774
41.0, -902.480868157465, -594.7562899533659, -581.5694027096033, -589.1183907701634, 0.6880000326782465, 0.6720000319182873, 0.41600001975893974, 0.0, 0.0, 0.0, 0.0, 0.0, 1.710395728774243E9, 0.0, 2024-03-13 22:55:28.774
42.0, -903.6215376439504, -600.1866246890277, -583.2785369893536, -600.5101260351948, 0.6880000326782465, 0.6720000319182873, 0.41600001975893974, 0.0, 0.0, 0.0, 0.0, 0.0, 1.7103957287898667E9, 0.0, 2024-03-13 22:55:28.789
42.0, -899.2383748958819, -586.1507801553234, -580.5035312222317, -590.5806916528381, 0.6880000326782465, 0.6720000319182873, 0.41600001975893974, 0.0, 0.0, 0.0, 0.0, 0.0, 1.7103957287898667E9, 0.0, 2024-03-13 22:55:28.789
43.0, -887.2594753378071, -572.7918575135991, -571.9167209239677, -576.7168825170957, 0.6880000326782465, 0.6720000319182873, 0.41600001975893974, 0.0, 0.0, 0.0, 0.0, 0.0, 1.7103957287905796E9, 0.0, 2024-03-13 22:55:28.790
43.0, -892.820706571918, -574.433673594147, -563.9432542184368, -575.0189679372124, 0.6880000326782465, 0.6720000319182873, 0.41600001975893974, 0.0, 0.0, 0.0, 0.0, 0.0, 1.7103957287905796E9, 0.0, 2024-03-13 22:55:28.790
44.0, -899.0102409985848, -585.8889871584252, -577.5976289566606, -584.8923038202338, 0.6880000326782465, 0.6720000319182873, 0.41600001975893974, 0.0, 0.0, 0.0, 0.0, 0.0, 1.710395728804224E9, 0.0, 2024-03-13 22:55:28.804
44.0, -901.7366280662827, -589.8645008113235, -576.255004872568, -580.6362976706587, 0.6880000326782465, 0.6720000319182873, 0.41600001975893974, 0.0, 0.0, 0.0, 0.0, 0.0, 1.710395728804224E9, 0.0, 2024-03-13 22:55:28.804
45.0, -899.7021224903874, -593.8250548643991, -572.8853550124913, -583.2953665391542, 0.6880000326782465, 0.6720000319182873, 0.41600001975893974, 0.0, 0.0, 0.0, 0.0, 0.0, 1.7103957288198545E9, 0.0, 2024-03-13 22:55:28.819
45.0, -896.2875938308425, -587.904793234542, -568.1955204680562, -578.0295874015428, 0.6880000326782465, 0.6720000319182873, 0.41600001975893974, 0.0, 0.0, 0.0, 0.0, 0.0, 1.7103957288198545E9, 0.0, 2024-03-13 22:55:28.819
46.0, -897.3609451181255, -585.384100664407, -572.9788525113836, -574.4991218433715, 0.6880000326782465, 0.6720000319182873, 0.41600001975893974, 0.0, 0.0, 0.0, 0.0, 0.0, 1.7103957288205757E9, 0.0, 2024-03-13 22:55:28.820
46.0, -892.0054083815776, -588.6303338259459, -572.1598144210875, -578.0482869013213, 0.6880000326782465, 0.6720000319182873, 0.41600001975893974, 0.0, 0.0, 0.0, 0.0, 0.0, 1.7103957288205757E9, 0.0, 2024-03-13 22:55:28.820
47.0, -900.4127034819685, -591.173465795815, -569.2464323556051, -586.4780214014463, 0.6880000326782465, 0.6720000319182873, 0.41600001975893974, 0.0, 0.0, 0.0, 0.0, 0.0, 1.7103957288343108E9, 0.0, 2024-03-13 22:55:28.834
47.0, -893.0712798689492, -580.8214227184653, -578.1174750505015, -582.1172980531119, 0.6880000326782465, 0.6720000319182873, 0.41600001975893974, 0.0, 0.0, 0.0, 0.0, 0.0, 1.7103957288343108E9, 0.0, 2024-03-13 22:55:28.834
48.0, -894.9711490464397, -588.5667555266991, -581.9733119048178, -588.4003299786709, 0.6880000326782465, 0.6720000319182873, 0.41600001975893974, 0.0, 0.0, 0.0, 0.0, 0.0, 1.710395728850113E9, 0.0, 2024-03-13 22:55:28.850
48.0, -886.5675938460045, -578.8280560420826, -560.6110033579171, -573.8147201514803, 0.6880000326782465, 0.6720000319182873, 0.41600001975893974, 0.0, 0.0, 0.0, 0.0, 0.0, 1.710395728850113E9, 0.0, 2024-03-13 22:55:28.850
49.0, -885.8831921541132, -574.7366054905578, -561.4599606478587, -568.5938198133372, 0.6880000326782465, 0.6720000319182873, 0.41600001975893974, 0.0, 0.0, 0.0, 0.0, 0.0, 1.7103957288506377E9, 0.0, 2024-03-13 22:55:28.850
49.0, -884.4134114715271, -570.0579906459898, -563.169094927609, -567.3334735282697, 0.6880000326782465, 0.6720000319182873, 0.41600001975893974, 0.0, 0.0, 0.0, 0.0, 0.0, 1.7103957288506377E9, 0.0, 2024-03-13 22:55:28.850
50.0, -903.2475476483814, -584.5426231743768, -564.5827771108598, -571.8250933750533, 0.6880000326782465, 0.6720000319182873, 0.41600001975893974, 0.0, 0.0, 0.0, 0.0, 0.0, 1.710395728864189E9, 0.0, 2024-03-13 22:55:28.864
50.0, -899.4365895935334, -582.223885201849, -561.7254935447127, -574.1064323480241, 0.6880000326782465, 0.6720000319182873, 0.41600001975893974, 0.0, 0.0, 0.0, 0.0, 0.0, 1.710395728864189E9, 0.0, 2024-03-13 22:55:28.864
51.0, -898.1575438086875, -581.7227386077866, -564.1190295163542, -567.3147740284912, 0.6880000326782465, 0.6720000319182873, 0.41600001975893974, 0.0, 0.0, 0.0, 0.0, 0.0, 1.7103957288804612E9, 0.0, 2024-03-13 22:55:28.880
51.0, -899.2495945957489, -592.415112581104, -567.7168132737279, -576.1446778238751, 0.6880000326782465, 0.6720000319182873, 0.41600001975893974, 0.0, 0.0, 0.0, 0.0, 0.0, 1.7103957288804612E9, 0.0, 2024-03-13 22:55:28.880
52.0, -897.1402910207398, -588.3573211291805, -566.4340275889263, -579.4844084843062, 0.6880000326782465, 0.6720000319182873, 0.41600001975893974, 0.0, 0.0, 0.0, 0.0, 0.0, 1.7103957288808763E9, 0.0, 2024-03-13 22:55:28.880
52.0, -896.7924803248607, -584.4715650752187, -573.8240699013695, -580.4680021726526, 0.6880000326782465, 0.6720000319182873, 0.41600001975893974, 0.0, 0.0, 0.0, 0.0, 0.0, 1.7103957288808763E9, 0.0, 2024-03-13 22:55:28.880
53.0, -887.0949197397567, -575.0881560863927, -565.809464296326, -573.6501645534299, 0.6880000326782465, 0.6720000319182873, 0.41600001975893974, 0.0, 0.0, 0.0, 0.0, 0.0, 1.7103957288945017E9, 0.0, 2024-03-13 22:55:28.894
53.0, -890.5879862983711, -577.810803254135, -571.2472788318992, -579.0094411899336, 0.6880000326782465, 0.6720000319182873, 0.41600001975893974, 0.0, 0.0, 0.0, 0.0, 0.0, 1.7103957288945017E9, 0.0, 2024-03-13 22:55:28.894
54.0, -894.376504953485, -577.3582753594965, -574.444893294014, -571.9111110740341, 0.6880000326782465, 0.6720000319182873, 0.41600001975893974, 0.0, 0.0, 0.0, 0.0, 0.0, 1.710395728925352E9, 0.0, 2024-03-13 22:55:28.925
54.0, -885.584000157658, -572.4477867176756, -579.6470941323787, -569.5998529014178, 0.6880000326782465, 0.6720000319182873, 0.41600001975893974, 0.0, 0.0, 0.0, 0.0, 0.0, 1.710395728925352E9, 0.0, 2024-03-13 22:55:28.925
55.0, -880.1910644215532, -568.7639852613211, -564.0404916172847, -570.4076712918468, 0.6880000326782465, 0.6720000319182873, 0.41600001975893974, 0.0, 0.0, 0.0, 0.0, 0.0, 1.7103957289262908E9, 0.0, 2024-03-13 22:55:28.926
55.0, -883.4447773830034, -575.4172672824934, -578.8691949415952, -580.7709340690635, 0.6880000326782465, 0.6720000319182873, 0.41600001975893974, 0.0, 0.0, 0.0, 0.0, 0.0, 1.7103957289262908E9, 0.0, 2024-03-13 22:55:28.926
56.0, -890.202776602935, -578.8916343413293, -593.6866785660386, -591.571765141096, 0.6880000326782465, 0.6720000319182873, 0.41600001975893974, 0.0, 0.0, 0.0, 0.0, 0.0, 1.7103957289406147E9, 0.0, 2024-03-13 22:55:28.940
56.0, -891.1227919920348, -583.6562668848783, -580.9784985166043, -586.2498875041492, 0.6880000326782465, 0.6720000319182873, 0.41600001975893974, 0.0, 0.0, 0.0, 0.0, 0.0, 1.7103957289406147E9, 0.0, 2024-03-13 22:55:28.940
57.0, -900.2331882840954, -596.5252626324072, -583.2411379897967, -592.4169825310819, 0.6880000326782465, 0.6720000319182873, 0.41600001975893974, 0.0, 0.0, 0.0, 0.0, 0.0, 1.7103957289412594E9, 0.0, 2024-03-13 22:55:28.941
57.0, -892.3569589774124, -583.2897566892207, -582.4370594993234, -582.5436466480605, 0.6880000326782465, 0.6720000319182873, 0.41600001975893974, 0.0, 0.0, 0.0, 0.0, 0.0, 1.7103957289412594E9, 0.0, 2024-03-13 22:55:28.941
58.0, -897.5778593155555, -590.4965439038351, -584.9876712691039, -587.0577058945782, 0.6880000326782465, 0.6720000319182873, 0.41600001975893974, 0.0, 0.0, 0.0, 0.0, 0.0, 1.7103957289420404E9, 0.0, 2024-03-13 22:55:28.942
58.0, -898.079005909618, -595.8333811406046, -582.8185292948037, -591.3922499432229, 0.6880000326782465, 0.6720000319182873, 0.41600001975893974, 0.0, 0.0, 0.0, 0.0, 0.0, 1.7103957289420404E9, 0.0, 2024-03-13 22:55:28.942
59.0, -895.2142425435595, -587.1343738436699, -581.1767132142559, -590.6816689516418, 0.6880000326782465, 0.6720000319182873, 0.41600001975893974, 0.0, 0.0, 0.0, 0.0, 0.0, 1.710395728954223E9, 0.0, 2024-03-13 22:55:28.954
59.0, -888.9873091173358, -579.2170056374744, -584.6622999729589, -582.9026770438068, 0.6880000326782465, 0.6720000319182873, 0.41600001975893974, 0.0, 0.0, 0.0, 0.0, 0.0, 1.710395728954223E9, 0.0, 2024-03-13 22:55:28.954
60.0, -891.3920647888444, -586.5808686502278, -572.6310418155044, -583.3290256387554, 0.6880000326782465, 0.6720000319182873, 0.41600001975893974, 0.0, 0.0, 0.0, 0.0, 0.0, 1.7103957289699664E9, 0.0, 2024-03-13 22:55:28.969
60.0, -899.103738497477, -593.320168370381, -584.7707570716739, -594.634743204806, 0.6880000326782465, 0.6720000319182873, 0.41600001975893974, 0.0, 0.0, 0.0, 0.0, 0.0, 1.7103957289699664E9, 0.0, 2024-03-13 22:55:28.969
61.0, -895.823846236337, -583.5291102863848, -584.9278328698128, -582.7530810455792, 0.6880000326782465, 0.6720000319182873, 0.41600001975893974, 0.0, 0.0, 0.0, 0.0, 0.0, 1.7103957289706142E9, 0.0, 2024-03-13 22:55:28.970
61.0, -907.7204679953866, -594.8049086527899, -588.3947201287374, -594.7058013039641, 0.6880000326782465, 0.6720000319182873, 0.41600001975893974, 0.0, 0.0, 0.0, 0.0, 0.0, 1.7103957289706142E9, 0.0, 2024-03-13 22:55:28.970
62.0, -900.5062009808607, -597.3704800223932, -587.4747047396377, -594.1335966107436, 0.6880000326782465, 0.6720000319182873, 0.41600001975893974, 0.0, 0.0, 0.0, 0.0, 0.0, 1.7103957289841905E9, 0.0, 2024-03-13 22:55:28.984
62.0, -905.0875784265809, -596.9927501268685, -594.3636004580185, -589.5148201654665, 0.6880000326782465, 0.6720000319182873, 0.41600001975893974, 0.0, 0.0, 0.0, 0.0, 0.0, 1.7103957289841905E9, 0.0, 2024-03-13 22:55:28.984
63.0, -890.0419609048404, -579.4600991345942, -566.2657320909202, -571.1631310828961, 0.6880000326782465, 0.6720000319182873, 0.41600001975893974, 0.0, 0.0, 0.0, 0.0, 0.0, 1.7103957289998832E9, 0.0, 2024-03-13 22:55:28.999
63.0, -908.1954352897592, -601.2300567766652, -579.9201068291441, -588.9912341716699, 0.6880000326782465, 0.6720000319182873, 0.41600001975893974, 0.0, 0.0, 0.0, 0.0, 0.0, 1.7103957289998832E9, 0.0, 2024-03-13 22:55:28.999
64.0, -911.9839539448731, -606.0208686199039, -588.1665862314403, -596.4485946833156, 0.6880000326782465, 0.6720000319182873, 0.41600001975893974, 0.0, 0.0, 0.0, 0.0, 0.0, 1.7103957290006611E9, 0.0, 2024-03-13 22:55:29.000
64.0, -901.9797215634026, -598.8402607049793, -586.0909417560324, -589.7728732624091, 0.6880000326782465, 0.6720000319182873, 0.41600001975893974, 0.0, 0.0, 0.0, 0.0, 0.0, 1.7103957290006611E9, 0.0, 2024-03-13 22:55:29.000
65.0, -907.2604603008367, -598.4288717098534, -579.534897133708, -589.7728732624091, 0.6880000326782465, 0.6720000319182873, 0.41600001975893974, 0.0, 0.0, 0.0, 0.0, 0.0, 1.7103957290147128E9, 0.0, 2024-03-13 22:55:29.014
65.0, -907.1632229019888, -602.9279713565484, -586.6444469494745, -595.8389909905382, 0.6880000326782465, 0.6720000319182873, 0.41600001975893974, 0.0, 0.0, 0.0, 0.0, 0.0, 1.7103957290147128E9, 0.0, 2024-03-13 22:55:29.014
66.0, -915.4882402033545, -603.7058705473319, -600.0594680905342, -597.7164207682945, 0.6880000326782465, 0.6720000319182873, 0.41600001975893974, 0.0, 0.0, 0.0, 0.0, 0.0, 1.710395729030259E9, 0.0, 2024-03-13 22:55:29.030
66.0, -907.7541270949878, -597.071288025938, -579.426440034993, -586.2611072040163, 0.6880000326782465, 0.6720000319182873, 0.41600001975893974, 0.0, 0.0, 0.0, 0.0, 0.0, 1.710395729030259E9, 0.0, 2024-03-13 22:55:29.030
67.0, -906.8565511056222, -604.4089717390016, -580.5558898216113, -594.7245008037426, 0.6880000326782465, 0.6720000319182873, 0.41600001975893974, 0.0, 0.0, 0.0, 0.0, 0.0, 1.7103957290308025E9, 0.0, 2024-03-13 22:55:29.030
67.0, -923.0577977136709, -612.1580444471911, -586.2816766537726, -593.6137505169027, 0.6880000326782465, 0.6720000319182873, 0.41600001975893974, 0.0, 0.0, 0.0, 0.0, 0.0, 1.7103957290308025E9, 0.0, 2024-03-13 22:55:29.030
68.0, -909.874650369864, -595.6426462428644, -563.8871557191014, -580.2323884754442, 0.6880000326782465, 0.6720000319182873, 0.41600001975893974, 0.0, 0.0, 0.0, 0.0, 0.0, 1.7103957290442986E9, 0.0, 2024-03-13 22:55:29.044
68.0, -912.2532267416827, -603.5151356495917, -569.7363592498004, -586.7846931978129, 0.6880000326782465, 0.6720000319182873, 0.41600001975893974, 0.0, 0.0, 0.0, 0.0, 0.0, 1.7103957290442986E9, 0.0, 2024-03-13 22:55:29.044
69.0, -911.5052467505448, -603.0252087553963, -572.9190141120926, -584.6716497228481, 0.6880000326782465, 0.6720000319182873, 0.41600001975893974, 0.0, 0.0, 0.0, 0.0, 0.0, 1.7103957290599458E9, 0.0, 2024-03-13 22:55:29.059
69.0, -900.5174206807278, -593.1481329724193, -573.0835697101429, -579.8696181797422, 0.6880000326782465, 0.6720000319182873, 0.41600001975893974, 0.0, 0.0, 0.0, 0.0, 0.0, 1.7103957290599458E9, 0.0, 2024-03-13 22:55:29.059
70.0, -893.568686563056, -587.9982907334343, -565.2709187027067, -573.287394257728, 0.6880000326782465, 0.6720000319182873, 0.41600001975893974, 0.0, 0.0, 0.0, 0.0, 0.0, 1.7103957290606208E9, 0.0, 2024-03-13 22:55:29.060
70.0, -900.2892867834307, -591.341761293821, -575.615481980145, -582.6408840469085, 0.6880000326782465, 0.6720000319182873, 0.41600001975893974, 0.0, 0.0, 0.0, 0.0, 0.0, 1.7103957290606208E9, 0.0, 2024-03-13 22:55:29.060
71.0, -902.3611913588829, -590.8929732991382, -583.9330194815993, -582.7530810455792, 0.6880000326782465, 0.6720000319182873, 0.41600001975893974, 0.0, 0.0, 0.0, 0.0, 0.0, 1.710395729074242E9, 0.0, 2024-03-13 22:55:29.074
71.0, -906.3666242114268, -595.9867170387879, -584.1087947795168, -592.3047855324112, 0.6880000326782465, 0.6720000319182873, 0.41600001975893974, 0.0, 0.0, 0.0, 0.0, 0.0, 1.710395729074242E9, 0.0, 2024-03-13 22:55:29.074
72.0, -897.1215915209614, -588.7724500242621, -570.3758821422234, -583.8002530331723, 0.6880000326782465, 0.6720000319182873, 0.41600001975893974, 0.0, 0.0, 0.0, 0.0, 0.0, 1.710395729089968E9, 0.0, 2024-03-13 22:55:29.089
72.0, -900.973688475322, -590.208571607247, -586.7529040481895, -587.4877943894826, 0.6880000326782465, 0.6720000319182873, 0.41600001975893974, 0.0, 0.0, 0.0, 0.0, 0.0, 1.710395729089968E9, 0.0, 2024-03-13 22:55:29.089
73.0, -898.5427535041235, -587.1867324430496, -576.9020075649023, -581.6236312589608, 0.6880000326782465, 0.6720000319182873, 0.41600001975893974, 0.0, 0.0, 0.0, 0.0, 0.0, 1.710395729090622E9, 0.0, 2024-03-13 22:55:29.090
73.0, -899.5824456918053, -593.2565900711343, -573.1359283095226, -588.2656935802661, 0.6880000326782465, 0.6720000319182873, 0.41600001975893974, 0.0, 0.0, 0.0, 0.0, 0.0, 1.710395729090622E9, 0.0, 2024-03-13 22:55:29.090
74.0, -900.2631074837409, -585.817929059267, -568.0870633693412, -580.5876789712347, 0.6880000326782465, 0.6720000319182873, 0.41600001975893974, 0.0, 0.0, 0.0, 0.0, 0.0, 1.7103957291042032E9, 0.0, 2024-03-13 22:55:29.104
74.0, -899.7432613899, -584.4304261757061, -572.2570518199354, -573.5903261541389, 0.6880000326782465, 0.6720000319182873, 0.41600001975893974, 0.0, 0.0, 0.0, 0.0, 0.0, 1.7103957291042032E9, 0.0, 2024-03-13 22:55:29.104
75.0, -898.4268166054972, -585.926386157982, -560.5025462592021, -575.1947432351299, 0.6880000326782465, 0.6720000319182873, 0.41600001975893974, 0.0, 0.0, 0.0, 0.0, 0.0, 1.7103957291199117E9, 0.0, 2024-03-13 22:55:29.119
75.0, -906.2993060122244, -600.0482483906671, -573.1172288097441, -588.4227693784051, 0.6880000326782465, 0.6720000319182873, 0.41600001975893974, 0.0, 0.0, 0.0, 0.0, 0.0, 1.7103957291199117E9, 0.0, 2024-03-13 22:55:29.119
76.0, -898.0079478104599, -587.8374750353396, -573.2107263086364, -577.461122608278, 0.6880000326782465, 0.6720000319182873, 0.41600001975893974, 0.0, 0.0, 0.0, 0.0, 0.0, 1.710395729120613E9, 0.0, 2024-03-13 22:55:29.120
76.0, -886.3693791483529, -575.1292949859053, -569.1604146566242, -570.4301106915809, 0.6880000326782465, 0.6720000319182873, 0.41600001975893974, 0.0, 0.0, 0.0, 0.0, 0.0, 1.710395729120613E9, 0.0, 2024-03-13 22:55:29.120
77.0, -896.5082479282282, -588.7574904244393, -578.2595912488177, -586.1863092049025, 0.6880000326782465, 0.6720000319182873, 0.41600001975893974, 0.0, 0.0, 0.0, 0.0, 0.0, 1.7103957291344764E9, 0.0, 2024-03-13 22:55:29.134
77.0, -894.6233383505605, -589.8158821118996, -580.2267786255106, -581.8779444559477, 0.6880000326782465, 0.6720000319182873, 0.41600001975893974, 0.0, 0.0, 0.0, 0.0, 0.0, 1.7103957291344764E9, 0.0, 2024-03-13 22:55:29.134
78.0, -908.9845541804098, -601.3011148758233, -578.4204069469124, -582.4239698494785, 0.6880000326782465, 0.6720000319182873, 0.41600001975893974, 0.0, 0.0, 0.0, 0.0, 0.0, 1.7103957291499293E9, 0.0, 2024-03-13 22:55:29.149
78.0, -905.1287173260935, -599.3002683995292, -573.8726886007935, -592.7797528267838, 0.6880000326782465, 0.6720000319182873, 0.41600001975893974, 0.0, 0.0, 0.0, 0.0, 0.0, 1.7103957291499293E9, 0.0, 2024-03-13 22:55:29.149
79.0, -892.9029843709432, -583.8582214824855, -572.3580291187391, -577.4835620080121, 0.6880000326782465, 0.6720000319182873, 0.41600001975893974, 0.0, 0.0, 0.0, 0.0, 0.0, 1.710395729150618E9, 0.0, 2024-03-13 22:55:29.150
79.0, -885.7074168561958, -579.112288438715, -564.3696028133854, -574.6000991421752, 0.6880000326782465, 0.6720000319182873, 0.41600001975893974, 0.0, 0.0, 0.0, 0.0, 0.0, 1.710395729150618E9, 0.0, 2024-03-13 22:55:29.150
80.0, -899.4216299937107, -594.0344892619178, -574.108302298002, -587.9178828843869, 0.6880000326782465, 0.6720000319182873, 0.41600001975893974, 0.0, 0.0, 0.0, 0.0, 0.0, 1.7103957291642177E9, 0.0, 2024-03-13 22:55:29.164
80.0, -920.8138577402569, -613.1939967349172, -591.9401452867314, -604.9718266823329, 0.6880000326782465, 0.6720000319182873, 0.41600001975893974, 0.0, 0.0, 0.0, 0.0, 0.0, 1.7103957291642177E9, 0.0, 2024-03-13 22:55:29.164
81.0, -911.4566280511208, -599.6443391954526, -597.0937274256721, -594.7768594031222, 0.6880000326782465, 0.6720000319182873, 0.41600001975893974, 0.0, 0.0, 0.0, 0.0, 0.0, 1.71039572918024E9, 0.0, 2024-03-13 22:55:29.180
81.0, -914.9908335092478, -607.4345508031547, -597.6247932193801, -603.4197682007216, 0.6880000326782465, 0.6720000319182873, 0.41600001975893974, 0.0, 0.0, 0.0, 0.0, 0.0, 1.71039572918024E9, 0.0, 2024-03-13 22:55:29.180
82.0, -925.5373513842933, -617.6295180823654, -592.9349586749449, -605.2747585787438, 0.6880000326782465, 0.6720000319182873, 0.41600001975893974, 0.0, 0.0, 0.0, 0.0, 0.0, 1.7103957291809363E9, 0.0, 2024-03-13 22:55:29.180
82.0, -934.1690404820256, -621.4367362372577, -606.574373813346, -611.4268940058537, 0.6880000326782465, 0.6720000319182873, 0.41600001975893974, 0.0, 0.0, 0.0, 0.0, 0.0, 1.7103957291809363E9, 0.0, 2024-03-13 22:55:29.180
83.0, -934.4757122783922, -622.2258551279083, -599.9884099913761, -609.2053934321739, 0.6880000326782465, 0.6720000319182873, 0.41600001975893974, 0.0, 0.0, 0.0, 0.0, 0.0, 1.7103957291942403E9, 0.0, 2024-03-13 22:55:29.194
83.0, -931.2032998171635, -616.5038081957027, -584.4491256754845, -607.346663154196, 0.6880000326782465, 0.6720000319182873, 0.41600001975893974, 0.0, 0.0, 0.0, 0.0, 0.0, 1.7103957291942403E9, 0.0, 2024-03-13 22:55:29.194
84.0, -935.526624165941, -625.3037927914411, -594.4009994575754, -614.0261244750582, 0.6880000326782465, 0.6720000319182873, 0.41600001975893974, 0.0, 0.0, 0.0, 0.0, 0.0, 1.710395729226658E9, 0.0, 2024-03-13 22:55:29.226
84.0, -919.7779054525308, -605.934850920923, -585.3167824652046, -597.5107262707315, 0.6880000326782465, 0.6720000319182873, 0.41600001975893974, 0.0, 0.0, 0.0, 0.0, 0.0, 1.710395729226658E9, 0.0, 2024-03-13 22:55:29.226
85.0, -912.4290020396002, -599.5882406961173, -577.0665631629527, -586.7024153987877, 0.6880000326782465, 0.6720000319182873, 0.41600001975893974, 0.0, 0.0, 0.0, 0.0, 0.0, 1.7103957292272189E9, 0.0, 2024-03-13 22:55:29.227
85.0, -934.6739269760437, -618.7776673687622, -587.7439775364473, -603.5693641989492, 0.6880000326782465, 0.6720000319182873, 0.41600001975893974, 0.0, 0.0, 0.0, 0.0, 0.0, 1.7103957292272189E9, 0.0, 2024-03-13 22:55:29.227
86.0, -923.8356969044544, -611.350226056762, -590.4554050043225, -597.4022691720165, 0.6880000326782465, 0.6720000319182873, 0.41600001975893974, 0.0, 0.0, 0.0, 0.0, 0.0, 1.710395729228016E9, 0.0, 2024-03-13 22:55:29.228
86.0, -922.1340424246155, -608.6799374883994, -581.4272865112871, -593.0976443230174, 0.6880000326782465, 0.6720000319182873, 0.41600001975893974, 0.0, 0.0, 0.0, 0.0, 0.0, 1.710395729228016E9, 0.0, 2024-03-13 22:55:29.228
87.0, -926.3414298747666, -613.9831156255677, -579.3591218357906, -600.2258936385624, 0.6880000326782465, 0.6720000319182873, 0.41600001975893974, 0.0, 0.0, 0.0, 0.0, 0.0, 1.7103957292286894E9, 0.0, 2024-03-13 22:55:29.228
87.0, -927.0819300659932, -619.9819151544943, -590.5115035036579, -602.4773134118877, 0.6880000326782465, 0.6720000319182873, 0.41600001975893974, 0.0, 0.0, 0.0, 0.0, 0.0, 1.7103957292286894E9, 0.0, 2024-03-13 22:55:29.228
88.0, -923.8581363041885, -610.5386677663773, -584.3668478764594, -596.1681021866389, 0.6880000326782465, 0.6720000319182873, 0.41600001975893974, 0.0, 0.0, 0.0, 0.0, 0.0, 1.7103957292392993E9, 0.0, 2024-03-13 22:55:29.239
88.0, -918.7643925645389, -606.2452626172453, -576.000691675581, -590.9733811481856, 0.6880000326782465, 0.6720000319182873, 0.41600001975893974, 0.0, 0.0, 0.0, 0.0, 0.0, 1.7103957292392993E9, 0.0, 2024-03-13 22:55:29.239
89.0, -910.7497869594954, -606.5668940134346, -569.8560360483825, -587.386817090679, 0.6880000326782465, 0.6720000319182873, 0.41600001975893974, 0.0, 0.0, 0.0, 0.0, 0.0, 1.7103957292541847E9, 0.0, 2024-03-13 22:55:29.254
89.0, -921.524438731838, -617.8651317795739, -599.1880714008585, -603.6740813977085, 0.6880000326782465, 0.6720000319182873, 0.41600001975893974, 0.0, 0.0, 0.0, 0.0, 0.0, 1.7103957292541847E9, 0.0, 2024-03-13 22:55:29.254
90.0, -936.6747734523378, -621.9865015307441, -591.9513649865985, -605.585170275066, 0.6880000326782465, 0.6720000319182873, 0.41600001975893974, 0.0, 0.0, 0.0, 0.0, 0.0, 1.710395729270023E9, 0.0, 2024-03-13 22:55:29.270
90.0, -939.977105113212, -627.2036619689316, -592.8414611760527, -614.2654780722223, 0.6880000326782465, 0.6720000319182873, 0.41600001975893974, 0.0, 0.0, 0.0, 0.0, 0.0, 1.710395729270023E9, 0.0, 2024-03-13 22:55:29.270
91.0, -930.956466420088, -622.2221152279526, -598.4961899090558, -606.5612841635011, 0.6880000326782465, 0.6720000319182873, 0.41600001975893974, 0.0, 0.0, 0.0, 0.0, 0.0, 1.7103957292706828E9, 0.0, 2024-03-13 22:55:29.270
91.0, -914.2054545185529, -612.7713880399242, -582.5716958977282, -597.7164207682945, 0.6880000326782465, 0.6720000319182873, 0.41600001975893974, 0.0, 0.0, 0.0, 0.0, 0.0, 1.7103957292706828E9, 0.0, 2024-03-13 22:55:29.270
92.0, -916.3708565928973, -613.8185600275174, -581.7713573072106, -600.6372826336883, 0.6880000326782465, 0.6720000319182873, 0.41600001975893974, 0.0, 0.0, 0.0, 0.0, 0.0, 1.71039572928444E9, 0.0, 2024-03-13 22:55:29.284
92.0, -929.5577438366599, -619.925816655159, -596.3420075345784, -604.0480713932775, 0.6880000326782465, 0.6720000319182873, 0.41600001975893974, 0.0, 0.0, 0.0, 0.0, 0.0, 1.71039572928444E9, 0.0, 2024-03-13 22:55:29.284
93.0, -919.800344852265, -609.9776827730238, -578.4578059464693, -590.6031310525723, 0.6880000326782465, 0.6720000319182873, 0.41600001975893974, 0.0, 0.0, 0.0, 0.0, 0.0, 1.7103957292998507E9, 0.0, 2024-03-13 22:55:29.299
93.0, -918.9364279625006, -613.2426154343411, -564.5827771108598, -585.4869479131885, 0.6880000326782465, 0.6720000319182873, 0.41600001975893974, 0.0, 0.0, 0.0, 0.0, 0.0, 1.7103957292998507E9, 0.0, 2024-03-13 22:55:29.299
94.0, -911.1200370551087, -602.6998374592513, -565.0053858058527, -579.2787139867432, 0.6880000326782465, 0.6720000319182873, 0.41600001975893974, 0.0, 0.0, 0.0, 0.0, 0.0, 1.7103957293005576E9, 0.0, 2024-03-13 22:55:29.300
94.0, -905.8392983176745, -595.8520806403831, -577.2759975604713, -575.9876020257361, 0.6880000326782465, 0.6720000319182873, 0.41600001975893974, 0.0, 0.0, 0.0, 0.0, 0.0, 1.7103957293005576E9, 0.0, 2024-03-13 22:55:29.300
95.0, -910.959221357014, -600.7700490821153, -569.7924577491358, -583.1158513412811, 0.6880000326782465, 0.6720000319182873, 0.41600001975893974, 0.0, 0.0, 0.0, 0.0, 0.0, 1.7103957293145125E9, 0.0, 2024-03-13 22:55:29.314
95.0, -916.0380054968409, -605.1868709297851, -579.1048086388037, -588.5499259768985, 0.6880000326782465, 0.6720000319182873, 0.41600001975893974, 0.0, 0.0, 0.0, 0.0, 0.0, 1.7103957293145125E9, 0.0, 2024-03-13 22:55:29.314
96.0, -911.0227996562608, -600.8897258806974, -580.0622230274603, -582.5586062478833, 0.6880000326782465, 0.6720000319182873, 0.41600001975893974, 0.0, 0.0, 0.0, 0.0, 0.0, 1.7103957293305128E9, 0.0, 2024-03-13 22:55:29.330
96.0, -906.822892006021, -595.3546739462763, -573.0125116109848, -577.8837313032709, 0.6880000326782465, 0.6720000319182873, 0.41600001975893974, 0.0, 0.0, 0.0, 0.0, 0.0, 1.7103957293305128E9, 0.0, 2024-03-13 22:55:29.330
97.0, -907.088424902875, -601.7199836708605, -572.6385216154158, -583.8226924329065, 0.6880000326782465, 0.6720000319182873, 0.41600001975893974, 0.0, 0.0, 0.0, 0.0, 0.0, 1.7103957293305905E9, 0.0, 2024-03-13 22:55:29.330
97.0, -918.7494329647161, -604.2294565411285, -586.7454242482781, -590.3450779556297, 0.6880000326782465, 0.6720000319182873, 0.41600001975893974, 0.0, 0.0, 0.0, 0.0, 0.0, 1.7103957293305905E9, 0.0, 2024-03-13 22:55:29.330
98.0, -902.6080247559585, -598.1334196133539, -580.0884023271501, -588.8902568728663, 0.6880000326782465, 0.6720000319182873, 0.41600001975893974, 0.0, 0.0, 0.0, 0.0, 0.0, 1.710395729344186E9, 0.0, 2024-03-13 22:55:29.344
98.0, -916.4419146920554, -608.7734349872917, -581.6965593080968, -597.0918574756943, 0.6880000326782465, 0.6720000319182873, 0.41600001975893974, 0.0, 0.0, 0.0, 0.0, 0.0, 1.710395729344186E9, 0.0, 2024-03-13 22:55:29.344
99.0, -923.6150428070687, -614.4693026198074, -598.4625308094546, -598.2362668621354, 0.6880000326782465, 0.6720000319182873, 0.41600001975893974, 0.0, 0.0, 0.0, 0.0, 0.0, 1.7103957293599095E9, 0.0, 2024-03-13 22:55:29.359
99.0, -911.9989135446958, -605.4150048270822, -589.2174981189892, -592.222507733386, 0.6880000326782465, 0.6720000319182873, 0.41600001975893974, 0.0, 0.0, 0.0, 0.0, 0.0, 1.7103957293599095E9, 0.0, 2024-03-13 22:55:29.359
100.0, -904.0628458387218, -600.882246080786, -570.9069479359314, -581.2122422638349, 0.6880000326782465, 0.6720000319182873, 0.41600001975893974, 0.0, 0.0, 0.0, 0.0, 0.0, 1.7103957293605824E9, 0.0, 2024-03-13 22:55:29.360
100.0, -911.6062240493484, -602.5427616611123, -577.7921037543565, -587.5289332889952, 0.6880000326782465, 0.6720000319182873, 0.41600001975893974, 0.0, 0.0, 0.0, 0.0, 0.0, 1.7103957293605824E9, 0.0, 2024-03-13 22:55:29.360
0.0, -916.7167973387986, -603.812457696069, -592.8807301255874, -591.9382753367536, 0.6880000326782465, 0.6720000319182873, 0.41600001975893974, 0.0, 0.0, 0.0, 0.0, 0.0, 1.710395729375055E9, 0.0, 2024-03-13 22:55:29.375
1.0, -913.3434075787663, -606.7856781608425, -584.0358667303808, -591.2912726444192, 0.6880000326782465, 0.6720000319182873, 0.41600001975893974, 0.0, 0.0, 0.0, 0.0, 0.0, 1.710395729376007E9, 0.0, 2024-03-13 22:55:29.376
1.0, -915.6359662516043, -610.6228155153804, -582.4277097494341, -597.1105569754727, 0.6880000326782465, 0.6720000319182873, 0.41600001975893974, 0.0, 0.0, 0.0, 0.0, 0.0, 1.710395729376007E9, 0.0, 2024-03-13 22:55:29.376
2.0, -916.1445926455781, -613.8204299774952, -599.7023076447658, -603.9470940944739, 0.6880000326782465, 0.6720000319182873, 0.41600001975893974, 0.0, 0.0, 0.0, 0.0, 0.0, 1.7103957293891733E9, 0.0, 2024-03-13 22:55:29.389
2.0, -921.9115183772519, -621.348848588299, -604.1976673915051, -607.7243930497207, 0.6880000326782465, 0.6720000319182873, 0.41600001975893974, 0.0, 0.0, 0.0, 0.0, 0.0, 1.7103957293891733E9, 0.0, 2024-03-13 22:55:29.389
3.0, -920.9503640886396, -617.8333426299505, -590.9285023487173, -604.4258012888022, 0.6880000326782465, 0.6720000319182873, 0.41600001975893974, 0.0, 0.0, 0.0, 0.0, 0.0, 1.7103957294050968E9, 0.0, 2024-03-13 22:55:29.405
3.0, -916.4437846420333, -616.041930551175, -597.5743045699783, -608.7379059377126, 0.6880000326782465, 0.6720000319182873, 0.41600001975893974, 0.0, 0.0, 0.0, 0.0, 0.0, 1.7103957294050968E9, 0.0, 2024-03-13 22:55:29.405
4.0, -909.584808123298, -601.3478636252694, -591.366070643533, -597.5331656704657, 0.6880000326782465, 0.6720000319182873, 0.41600001975893974, 0.0, 0.0, 0.0, 0.0, 0.0, 1.710395729405633E9, 0.0, 2024-03-13 22:55:29.405
4.0, -926.1974437264726, -618.6374211204238, -594.417829007376, -606.1872941679321, 0.6880000326782465, 0.6720000319182873, 0.41600001975893974, 0.0, 0.0, 0.0, 0.0, 0.0, 1.710395729405633E9, 0.0, 2024-03-13 22:55:29.405
5.0, -920.7110104914755, -616.5580367450602, -595.4986600945704, -607.0886100572534, 0.6880000326782465, 0.6720000319182873, 0.41600001975893974, 0.0, 0.0, 0.0, 0.0, 0.0, 1.7103957294191685E9, 0.0, 2024-03-13 22:55:29.419
5.0, -917.2478631325066, -611.3184369071387, -593.3369979201816, -597.8211379670538, 0.6880000326782465, 0.6720000319182873, 0.41600001975893974, 0.0, 0.0, 0.0, 0.0, 0.0, 1.7103957294191685E9, 0.0, 2024-03-13 22:55:29.419
6.0, -918.4408912183717, -609.3736889301799, -586.3097259034403, -596.9422614774667, 0.6880000326782465, 0.6720000319182873, 0.41600001975893974, 0.0, 0.0, 0.0, 0.0, 0.0, 1.7103957294349327E9, 0.0, 2024-03-13 22:55:29.434
6.0, -925.685077432543, -614.4823922696523, -585.576705512125, -602.7540660086088, 0.6880000326782465, 0.6720000319182873, 0.41600001975893974, 0.0, 0.0, 0.0, 0.0, 0.0, 1.7103957294349327E9, 0.0, 2024-03-13 22:55:29.434
7.0, -910.5571821117774, -601.5011995234527, -584.4809148251079, -589.8214919618331, 0.6880000326782465, 0.6720000319182873, 0.41600001975893974, 0.0, 0.0, 0.0, 0.0, 0.0, 1.710395729435636E9, 0.0, 2024-03-13 22:55:29.435
7.0, -906.4694714602083, -597.4920267709531, -576.5523269190453, -586.1526501053013, 0.6880000326782465, 0.6720000319182873, 0.41600001975893974, 0.0, 0.0, 0.0, 0.0, 0.0, 1.710395729435636E9, 0.0, 2024-03-13 22:55:29.435
8.0, -913.2050312804058, -609.1118959332816, -577.9772288021632, -590.8537043496035, 0.6880000326782465, 0.6720000319182873, 0.41600001975893974, 0.0, 0.0, 0.0, 0.0, 0.0, 1.7103957294493356E9, 0.0, 2024-03-13 22:55:29.449
8.0, -906.8322417559102, -600.5699644344859, -569.8579059983604, -582.4613688490354, 0.6880000326782465, 0.6720000319182873, 0.41600001975893974, 0.0, 0.0, 0.0, 0.0, 0.0, 1.7103957294493356E9, 0.0, 2024-03-13 22:55:29.449
9.0, -903.6308873938397, -600.0239390409552, -586.9679482956417, -586.0853319060989, 0.6880000326782465, 0.6720000319182873, 0.41600001975893974, 0.0, 0.0, 0.0, 0.0, 0.0, 1.710395729464594E9, 0.0, 2024-03-13 22:55:29.464
9.0, -909.9400986190885, -610.4283407176845, -585.6365439114161, -594.586124505382, 0.6880000326782465, 0.6720000319182873, 0.41600001975893974, 0.0, 0.0, 0.0, 0.0, 0.0, 1.710395729464594E9, 0.0, 2024-03-13 22:55:29.464
10.0, -918.6952044153586, -614.329056371469, -592.3496643318795, -600.218413838651, 0.6880000326782465, 0.6720000319182873, 0.41600001975893974, 0.0, 0.0, 0.0, 0.0, 0.0, 1.710395729480346E9, 0.0, 2024-03-13 22:55:29.480
10.0, -918.6241463162005, -605.1850009798072, -589.6494565638714, -592.7460937271826, 0.6880000326782465, 0.6720000319182873, 0.41600001975893974, 0.0, 0.0, 0.0, 0.0, 0.0, 1.710395729480346E9, 0.0, 2024-03-13 22:55:29.480
11.0, -916.8439539372921, -609.8411764246412, -578.5269940956496, -588.146016781684, 0.6880000326782465, 0.6720000319182873, 0.41600001975893974, 0.0, 0.0, 0.0, 0.0, 0.0, 1.7103957294808197E9, 0.0, 2024-03-13 22:55:29.480
11.0, -903.9786980897188, -598.3335042609833, -569.3006609049626, -586.433142601978, 0.6880000326782465, 0.6720000319182873, 0.41600001975893974, 0.0, 0.0, 0.0, 0.0, 0.0, 1.7103957294808197E9, 0.0, 2024-03-13 22:55:29.480
12.0, -901.6898793168366, -597.8136581671424, -575.1872634352185, -587.1512033934705, 0.6880000326782465, 0.6720000319182873, 0.41600001975893974, 0.0, 0.0, 0.0, 0.0, 0.0, 1.7103957294949863E9, 0.0, 2024-03-13 22:55:29.494
12.0, -905.0408296771348, -600.2969517377205, -580.4455627729185, -589.4587216661312, 0.6880000326782465, 0.6720000319182873, 0.41600001975893974, 0.0, 0.0, 0.0, 0.0, 0.0, 1.7103957294949863E9, 0.0, 2024-03-13 22:55:29.494
13.0, -903.2157584987581, -599.9341814420186, -571.3351664808579, -588.146016781684, 0.6880000326782465, 0.6720000319182873, 0.41600001975893974, 0.0, 0.0, 0.0, 0.0, 0.0, 1.710395729495613E9, 0.0, 2024-03-13 22:55:29.495
13.0, -908.5039770361036, -599.990279941354, -588.0188601831906, -599.2161206505261, 0.6880000326782465, 0.6720000319182873, 0.41600001975893974, 0.0, 0.0, 0.0, 0.0, 0.0, 1.710395729495613E9, 0.0, 2024-03-13 22:55:29.495
14.0, -903.9450389901176, -594.6758821043186, -589.4886408657767, -590.5694719529711, 0.6880000326782465, 0.6720000319182873, 0.41600001975893974, 0.0, 0.0, 0.0, 0.0, 0.0, 1.7103957295091567E9, 0.0, 2024-03-13 22:55:29.509
14.0, -910.4449851131067, -600.3193911374547, -578.7401683931239, -595.4051625956781, 0.6880000326782465, 0.6720000319182873, 0.41600001975893974, 0.0, 0.0, 0.0, 0.0, 0.0, 1.7103957295091567E9, 0.0, 2024-03-13 22:55:29.509
15.0, -911.9633844951168, -604.5716573870741, -583.9461091314442, -599.1749817510135, 0.6880000326782465, 0.6720000319182873, 0.41600001975893974, 0.0, 0.0, 0.0, 0.0, 0.0, 1.710395729541338E9, 0.0, 2024-03-13 22:55:29.541
15.0, -908.4964972361922, -598.7149740564637, -586.530380000826, -597.3386908727698, 0.6880000326782465, 0.6720000319182873, 0.41600001975893974, 0.0, 0.0, 0.0, 0.0, 0.0, 1.710395729541338E9, 0.0, 2024-03-13 22:55:29.541
16.0, -921.6983440797776, -611.640068303328, -589.8027924620546, -605.0092256818898, 0.6880000326782465, 0.6720000319182873, 0.41600001975893974, 0.0, 0.0, 0.0, 0.0, 0.0, 1.710395729542066E9, 0.0, 2024-03-13 22:55:29.542
16.0, -919.9069320010021, -611.1651010089554, -582.6670633465983, -603.3075712020509, 0.6880000326782465, 0.6720000319182873, 0.41600001975893974, 0.0, 0.0, 0.0, 0.0, 0.0, 1.710395729542066E9, 0.0, 2024-03-13 22:55:29.542
17.0, -913.2162509802729, -604.5641775871627, -578.7326885932125, -594.1971749099903, 0.6880000326782465, 0.6720000319182873, 0.41600001975893974, 0.0, 0.0, 0.0, 0.0, 0.0, 1.7103957295428112E9, 0.0, 2024-03-13 22:55:29.542
17.0, -907.8981132432818, -601.6620152215473, -579.0543199894018, -588.7817997741513, 0.6880000326782465, 0.6720000319182873, 0.41600001975893974, 0.0, 0.0, 0.0, 0.0, 0.0, 1.7103957295428112E9, 0.0, 2024-03-13 22:55:29.542
18.0, -924.5444079460576, -617.1452010381036, -589.0735119706951, -604.7474326849915, 0.6880000326782465, 0.6720000319182873, 0.41600001975893974, 0.0, 0.0, 0.0, 0.0, 0.0, 1.7103957295435925E9, 0.0, 2024-03-13 22:55:29.543
18.0, -914.0390289705247, -605.0054857819341, -582.4277097494341, -594.8666170020588, 0.6880000326782465, 0.6720000319182873, 0.41600001975893974, 0.0, 0.0, 0.0, 0.0, 0.0, 1.7103957295435925E9, 0.0, 2024-03-13 22:55:29.543
19.0, -909.1397600285709, -599.567671246361, -580.8756512678228, -588.1198374819942, 0.6880000326782465, 0.6720000319182873, 0.41600001975893974, 0.0, 0.0, 0.0, 0.0, 0.0, 1.7103957295544157E9, 0.0, 2024-03-13 22:55:29.554
19.0, -911.5856545995921, -606.6921806619503, -581.2122422638349, -598.7187139564194, 0.6880000326782465, 0.6720000319182873, 0.41600001975893974, 0.0, 0.0, 0.0, 0.0, 0.0, 1.7103957295544157E9, 0.0, 2024-03-13 22:55:29.554
20.0, -917.4946965295821, -608.9211610355414, -589.2268478688784, -606.7482791612856, 0.6880000326782465, 0.6720000319182873, 0.41600001975893974, 0.0, 0.0, 0.0, 0.0, 0.0, 1.710395729569226E9, 0.0, 2024-03-13 22:55:29.569
20.0, -911.6454929988831, -600.700860932935, -588.0039005833678, -590.872403849382, 0.6880000326782465, 0.6720000319182873, 0.41600001975893974, 0.0, 0.0, 0.0, 0.0, 0.0, 1.710395729569226E9, 0.0, 2024-03-13 22:55:29.569
21.0, -900.4519724315032, -600.4203684362583, -586.8146123974584, -590.4273557546549, 0.6880000326782465, 0.6720000319182873, 0.41600001975893974, 0.0, 0.0, 0.0, 0.0, 0.0, 1.7103957295849028E9, 0.0, 2024-03-13 22:55:29.584
21.0, -913.3022686792538, -613.1659474852495, -592.1813688338734, -606.2172133675776, 0.6880000326782465, 0.6720000319182873, 0.41600001975893974, 0.0, 0.0, 0.0, 0.0, 0.0, 1.7103957295849028E9, 0.0, 2024-03-13 22:55:29.584
22.0, -914.2746426677331, -611.4306339058094, -599.6985677448101, -608.2068401440047, 0.6880000326782465, 0.6720000319182873, 0.41600001975893974, 0.0, 0.0, 0.0, 0.0, 0.0, 1.710395729585709E9, 0.0, 2024-03-13 22:55:29.585
22.0, -902.5500563066453, -599.5003530471586, -588.3891102788039, -598.9730271534063, 0.6880000326782465, 0.6720000319182873, 0.41600001975893974, 0.0, 0.0, 0.0, 0.0, 0.0, 1.710395729585709E9, 0.0, 2024-03-13 22:55:29.585
23.0, -901.7497177161276, -598.5765977581032, -572.7376289642416, -592.6488563283347, 0.6880000326782465, 0.6720000319182873, 0.41600001975893974, 0.0, 0.0, 0.0, 0.0, 0.0, 1.7103957295992208E9, 0.0, 2024-03-13 22:55:29.599
23.0, -917.7265703268349, -608.9323807354085, -588.8491179733537, -606.9801529585384, 0.6880000326782465, 0.6720000319182873, 0.41600001975893974, 0.0, 0.0, 0.0, 0.0, 0.0, 1.7103957295992208E9, 0.0, 2024-03-13 22:55:29.599
24.0, -905.4409989723936, -597.5518651702441, -591.9868940361775, -600.2221537386067, 0.6880000326782465, 0.6720000319182873, 0.41600001975893974, 0.0, 0.0, 0.0, 0.0, 0.0, 1.7103957296150692E9, 0.0, 2024-03-13 22:55:29.615
24.0, -904.8276553796604, -602.8251241077669, -575.7781676282175, -599.9678405416198, 0.6880000326782465, 0.6720000319182873, 0.41600001975893974, 0.0, 0.0, 0.0, 0.0, 0.0, 1.7103957296150692E9, 0.0, 2024-03-13 22:55:29.615
25.0, -905.6392136700451, -602.5521114110015, -579.8621383798309, -600.1436158395372, 0.6880000326782465, 0.6720000319182873, 0.41600001975893974, 0.0, 0.0, 0.0, 0.0, 0.0, 1.710395729615934E9, 0.0, 2024-03-13 22:55:29.615
25.0, -906.955658454448, -600.5550048346631, -598.7299336562864, -605.0952433808707, 0.6880000326782465, 0.6720000319182873, 0.41600001975893974, 0.0, 0.0, 0.0, 0.0, 0.0, 1.710395729615934E9, 0.0, 2024-03-13 22:55:29.615
26.0, -911.5781747996807, -612.4815457933582, -600.3081714375876, -607.6421152506955, 0.6880000326782465, 0.6720000319182873, 0.41600001975893974, 0.0, 0.0, 0.0, 0.0, 0.0, 1.7103957296296103E9, 0.0, 2024-03-13 22:55:29.629
26.0, -910.7479170095176, -617.0591833391227, -601.3703030250035, -615.174273761455, 0.6880000326782465, 0.6720000319182873, 0.41600001975893974, 0.0, 0.0, 0.0, 0.0, 0.0, 1.7103957296296103E9, 0.0, 2024-03-13 22:55:29.629
27.0, -910.0747350174934, -609.3774288301356, -598.6775750569068, -603.5431848992594, 0.6880000326782465, 0.6720000319182873, 0.41600001975893974, 0.0, 0.0, 0.0, 0.0, 0.0, 1.7103957296453373E9, 0.0, 2024-03-13 22:55:29.645
27.0, -904.2554506864399, -598.2138274624012, -582.1771364524029, -593.4230156191625, 0.6880000326782465, 0.6720000319182873, 0.41600001975893974, 0.0, 0.0, 0.0, 0.0, 0.0, 1.7103957296453373E9, 0.0, 2024-03-13 22:55:29.645
28.0, -905.5606757709756, -601.5311187230982, -577.9809687021188, -596.3550971844234, 0.6880000326782465, 0.6720000319182873, 0.41600001975893974, 0.0, 0.0, 0.0, 0.0, 0.0, 1.7103957296457539E9, 0.0, 2024-03-13 22:55:29.645
28.0, -906.050602665171, -601.9873865176924, -584.6379906232469, -593.9241622132249, 0.6880000326782465, 0.6720000319182873, 0.41600001975893974, 0.0, 0.0, 0.0, 0.0, 0.0, 1.7103957296457539E9, 0.0, 2024-03-13 22:55:29.645
29.0, -906.3610143614933, -599.6349894455634, -579.727501981426, -589.2829463682137, 0.6880000326782465, 0.6720000319182873, 0.41600001975893974, 0.0, 0.0, 0.0, 0.0, 0.0, 1.7103957296591885E9, 0.0, 2024-03-13 22:55:29.659
29.0, -894.8720416976139, -588.7518805745058, -561.0018229032867, -581.4590756609105, 0.6880000326782465, 0.6720000319182873, 0.41600001975893974, 0.0, 0.0, 0.0, 0.0, 0.0, 1.7103957296591885E9, 0.0, 2024-03-13 22:55:29.659
30.0, -895.3133498923853, -592.9368286249228, -569.5923731015064, -586.5677790003829, 0.6880000326782465, 0.6720000319182873, 0.41600001975893974, 0.0, 0.0, 0.0, 0.0, 0.0, 1.710395729674888E9, 0.0, 2024-03-13 22:55:29.674
30.0, -902.2770436098799, -598.1352895633318, -589.376443867106, -595.8277712906711, 0.6880000326782465, 0.6720000319182873, 0.41600001975893974, 0.0, 0.0, 0.0, 0.0, 0.0, 1.710395729674888E9, 0.0, 2024-03-13 22:55:29.674
31.0, -909.1397600285709, -602.5371518111788, -584.4248163257726, -593.838144514244, 0.6880000326782465, 0.6720000319182873, 0.41600001975893974, 0.0, 0.0, 0.0, 0.0, 0.0, 1.7103957296757815E9, 0.0, 2024-03-13 22:55:29.675
31.0, -902.8268089033663, -603.7301798970439, -574.3906647446565, -590.5694719529711, 0.6880000326782465, 0.6720000319182873, 0.41600001975893974, 0.0, 0.0, 0.0, 0.0, 0.0, 1.7103957296757815E9, 0.0, 2024-03-13 22:55:29.675
32.0, -899.7264318400994, -600.1884946390055, -582.8764977441169, -587.9552818839438, 0.6880000326782465, 0.6720000319182873, 0.41600001975893974, 0.0, 0.0, 0.0, 0.0, 0.0, 1.710395729689203E9, 0.0, 2024-03-13 22:55:29.689
32.0, -898.6605603527278, -592.0392526355572, -565.7440160471015, -578.1343046003021, 0.6880000326782465, 0.6720000319182873, 0.41600001975893974, 0.0, 0.0, 0.0, 0.0, 0.0, 1.710395729689203E9, 0.0, 2024-03-13 22:55:29.689
33.0, -906.7050851574168, -603.9470940944739, -575.7781676282175, -591.9046162371524, 0.6880000326782465, 0.6720000319182873, 0.41600001975893974, 0.0, 0.0, 0.0, 0.0, 0.0, 1.7103957297048995E9, 0.0, 2024-03-13 22:55:29.704
33.0, -905.4335191724822, -596.141922886949, -579.6489640823565, -585.9132965081371, 0.6880000326782465, 0.6720000319182873, 0.41600001975893974, 0.0, 0.0, 0.0, 0.0, 0.0, 1.7103957297048995E9, 0.0, 2024-03-13 22:55:29.704
34.0, -900.0705026360229, -588.5761052765884, -570.4824692909606, -578.268940998707, 0.6880000326782465, 0.6720000319182873, 0.41600001975893974, 0.0, 0.0, 0.0, 0.0, 0.0, 1.7103957297055793E9, 0.0, 2024-03-13 22:55:29.705
34.0, -907.0341963535175, -602.0696643167175, -572.5768132661469, -587.4541352898814, 0.6880000326782465, 0.6720000319182873, 0.41600001975893974, 0.0, 0.0, 0.0, 0.0, 0.0, 1.7103957297055793E9, 0.0, 2024-03-13 22:55:29.705
35.0, -911.7614298975095, -605.9367208709009, -582.9512957432307, -594.8927963017486, 0.6880000326782465, 0.6720000319182873, 0.41600001975893974, 0.0, 0.0, 0.0, 0.0, 0.0, 1.7103957297192044E9, 0.0, 2024-03-13 22:55:29.719
35.0, -899.9096869379282, -593.9690410126932, -585.7711803098209, -589.2343276687898, 0.6880000326782465, 0.6720000319182873, 0.41600001975893974, 0.0, 0.0, 0.0, 0.0, 0.0, 1.7103957297192044E9, 0.0, 2024-03-13 22:55:29.719
36.0, -904.4648850839585, -598.7635927558877, -593.3482176200487, -599.3208378492855, 0.6880000326782465, 0.6720000319182873, 0.41600001975893974, 0.0, 0.0, 0.0, 0.0, 0.0, 1.710395729734892E9, 0.0, 2024-03-13 22:55:29.734
36.0, -907.0005372539163, -598.7411533561535, -589.3353049675934, -603.2365131028928, 0.6880000326782465, 0.6720000319182873, 0.41600001975893974, 0.0, 0.0, 0.0, 0.0, 0.0, 1.710395729734892E9, 0.0, 2024-03-13 22:55:29.734
37.0, -909.7568435212597, -604.1340890922584, -601.2842853260227, -601.882669318933, 0.6880000326782465, 0.6720000319182873, 0.41600001975893974, 0.0, 0.0, 0.0, 0.0, 0.0, 1.7103957297357295E9, 0.0, 2024-03-13 22:55:29.735
37.0, -910.5908412113786, -606.0414380696602, -599.50783284707, -604.6165361865424, 0.6880000326782465, 0.6720000319182873, 0.41600001975893974, 0.0, 0.0, 0.0, 0.0, 0.0, 1.7103957297357295E9, 0.0, 2024-03-13 22:55:29.735
38.0, -909.6222071228549, -609.2390525317751, -592.9031695253216, -612.762038290035, 0.6880000326782465, 0.6720000319182873, 0.41600001975893974, 0.0, 0.0, 0.0, 0.0, 0.0, 1.710395729749351E9, 0.0, 2024-03-13 22:55:29.749
38.0, -912.105500693433, -611.5054319049232, -606.1910340678878, -614.486132169608, 0.6880000326782465, 0.6720000319182873, 0.41600001975893974, 0.0, 0.0, 0.0, 0.0, 0.0, 1.710395729749351E9, 0.0, 2024-03-13 22:55:29.749
39.0, -904.0834152884781, -601.8116112197749, -601.5049394234084, -601.3740429249592, 0.6880000326782465, 0.6720000319182873, 0.41600001975893974, 0.0, 0.0, 0.0, 0.0, 0.0, 1.7103957297647252E9, 0.0, 2024-03-13 22:55:29.764
39.0, -920.3295406959951, -619.0039313160814, -602.5408917111345, -614.5197912692092, 0.6880000326782465, 0.6720000319182873, 0.41600001975893974, 0.0, 0.0, 0.0, 0.0, 0.0, 1.7103957297647252E9, 0.0, 2024-03-13 22:55:29.764
40.0, -921.5113490819931, -617.3882945352234, -596.3027385850437, -609.1081560333259, 0.6880000326782465, 0.6720000319182873, 0.41600001975893974, 0.0, 0.0, 0.0, 0.0, 0.0, 1.7103957297803605E9, 0.0, 2024-03-13 22:55:29.780
40.0, -913.0516953822225, -608.3826154419221, -589.3390448675491, -593.8568440140225, 0.6880000326782465, 0.6720000319182873, 0.41600001975893974, 0.0, 0.0, 0.0, 0.0, 0.0, 1.7103957297803605E9, 0.0, 2024-03-13 22:55:29.780
41.0, -904.3975668847561, -595.2630463973619, -569.102446207311, -580.4567824727856, 0.6880000326782465, 0.6720000319182873, 0.41600001975893974, 0.0, 0.0, 0.0, 0.0, 0.0, 1.710395729780882E9, 0.0, 2024-03-13 22:55:29.780
41.0, -900.5641694301739, -591.3249317440204, -560.9943431033753, -578.5157743957825, 0.6880000326782465, 0.6720000319182873, 0.41600001975893974, 0.0, 0.0, 0.0, 0.0, 0.0, 1.710395729780882E9, 0.0, 2024-03-13 22:55:29.780
42.0, -899.2589443456382, -589.3128655678593, -563.4252780745737, -575.1199452360161, 0.6880000326782465, 0.6720000319182873, 0.41600001975893974, 0.0, 0.0, 0.0, 0.0, 0.0, 1.7103957297951784E9, 0.0, 2024-03-13 22:55:29.795
42.0, -895.6200216887519, -593.7820460149087, -569.0837467075326, -578.003408101853, 0.6880000326782465, 0.6720000319182873, 0.41600001975893974, 0.0, 0.0, 0.0, 0.0, 0.0, 1.7103957297951784E9, 0.0, 2024-03-13 22:55:29.795
43.0, -902.3406219091266, -600.8167978315614, -578.0258475015871, -587.4167362903245, 0.6880000326782465, 0.6720000319182873, 0.41600001975893974, 0.0, 0.0, 0.0, 0.0, 0.0, 1.7103957297957175E9, 0.0, 2024-03-13 22:55:29.795
43.0, -895.9117338852957, -591.8784369374625, -570.3291333927773, -582.4351895493455, 0.6880000326782465, 0.6720000319182873, 0.41600001975893974, 0.0, 0.0, 0.0, 0.0, 0.0, 1.7103957297957175E9, 0.0, 2024-03-13 22:55:29.795
44.0, -891.4799524378031, -587.9478020840324, -567.1090795309283, -578.0557667012326, 0.6880000326782465, 0.6720000319182873, 0.41600001975893974, 0.0, 0.0, 0.0, 0.0, 0.0, 1.7103957298091936E9, 0.0, 2024-03-13 22:55:29.809
44.0, -908.4703179365024, -607.6271556508727, -577.4573827083223, -598.277405761648, 0.6880000326782465, 0.6720000319182873, 0.41600001975893974, 0.0, 0.0, 0.0, 0.0, 0.0, 1.7103957298091936E9, 0.0, 2024-03-13 22:55:29.809
45.0, -898.7802371513098, -600.3455704371445, -580.2847470748238, -598.5504184584133, 0.6880000326782465, 0.6720000319182873, 0.41600001975893974, 0.0, 0.0, 0.0, 0.0, 0.0, 1.7103957298248734E9, 0.0, 2024-03-13 22:55:29.824
45.0, -892.8711952213198, -584.3574981265701, -575.8454858274199, -582.0985985533334, 0.6880000326782465, 0.6720000319182873, 0.41600001975893974, 0.0, 0.0, 0.0, 0.0, 0.0, 1.7103957298248734E9, 0.0, 2024-03-13 22:55:29.824
46.0, -905.1567665757611, -597.0768978758715, -584.4472557255067, -591.2650933447294, 0.6880000326782465, 0.6720000319182873, 0.41600001975893974, 0.0, 0.0, 0.0, 0.0, 0.0, 1.710395729825838E9, 0.0, 2024-03-13 22:55:29.825
46.0, -903.855281391181, -603.4048086008988, -578.5905723948963, -592.2786062327214, 0.6880000326782465, 0.6720000319182873, 0.41600001975893974, 0.0, 0.0, 0.0, 0.0, 0.0, 1.710395729825838E9, 0.0, 2024-03-13 22:55:29.825
47.0, -906.5180901596323, -602.2080406150781, -588.2133349808864, -595.2555665974505, 0.6880000326782465, 0.6720000319182873, 0.41600001975893974, 0.0, 0.0, 0.0, 0.0, 0.0, 1.710395729839553E9, 0.0, 2024-03-13 22:55:29.839
47.0, -897.5872090654448, -597.8921960662119, -584.0657859300263, -590.3862168551423, 0.6880000326782465, 0.6720000319182873, 0.41600001975893974, 0.0, 0.0, 0.0, 0.0, 0.0, 1.710395729839553E9, 0.0, 2024-03-13 22:55:29.839
48.0, -907.281029750593, -595.7155742920004, -578.859845191706, -594.0326193119399, 0.6880000326782465, 0.6720000319182873, 0.41600001975893974, 0.0, 0.0, 0.0, 0.0, 0.0, 1.7103957298548763E9, 0.0, 2024-03-13 22:55:29.854
48.0, -910.3066088147461, -596.9310417775996, -587.8991833846085, -592.5590987293981, 0.6880000326782465, 0.6720000319182873, 0.41600001975893974, 0.0, 0.0, 0.0, 0.0, 0.0, 1.7103957298548763E9, 0.0, 2024-03-13 22:55:29.854
49.0, -909.5287096239626, -595.393942895811, -583.2430079397745, -593.7334273154847, 0.6880000326782465, 0.6720000319182873, 0.41600001975893974, 0.0, 0.0, 0.0, 0.0, 0.0, 1.710395729855633E9, 0.0, 2024-03-13 22:55:29.855
49.0, -912.636566487141, -610.9145277119242, -586.2274481044151, -598.7860321556218, 0.6880000326782465, 0.6720000319182873, 0.41600001975893974, 0.0, 0.0, 0.0, 0.0, 0.0, 1.710395729855633E9, 0.0, 2024-03-13 22:55:29.855
50.0, -902.9577054018155, -598.4681406593882, -577.206809411291, -587.5027539893053, 0.6880000326782465, 0.6720000319182873, 0.41600001975893974, 0.0, 0.0, 0.0, 0.0, 0.0, 1.7103957298691664E9, 0.0, 2024-03-13 22:55:29.869
50.0, -904.3826072849333, -597.0170594765805, -580.1575904763304, -583.8264323328622, 0.6880000326782465, 0.6720000319182873, 0.41600001975893974, 0.0, 0.0, 0.0, 0.0, 0.0, 1.7103957298691664E9, 0.0, 2024-03-13 22:55:29.869
51.0, -906.1702794637531, -595.2817458971404, -572.1504646711983, -585.1952357166447, 0.6880000326782465, 0.6720000319182873, 0.41600001975893974, 0.0, 0.0, 0.0, 0.0, 0.0, 1.7103957298851423E9, 0.0, 2024-03-13 22:55:29.885
51.0, -918.8934191130102, -608.7304261378013, -580.5614996715449, -595.2331271977164, 0.6880000326782465, 0.6720000319182873, 0.41600001975893974, 0.0, 0.0, 0.0, 0.0, 0.0, 1.7103957298851423E9, 0.0, 2024-03-13 22:55:29.885
52.0, -908.3431613380089, -604.7923114844598, -584.1854627286084, -589.0809917706065, 0.7040000334382057, 0.6720000319182873, 0.41600001975893974, 0.0, 0.0, 0.0, 0.0, 0.0, 1.7103957298856947E9, 0.0, 2024-03-13 22:55:29.885
52.0, -899.8535884385929, -596.4485946833156, -573.455689755734, -582.1135581531562, 0.7040000334382057, 0.6720000319182873, 0.41600001975893974, 0.0, 0.0, 0.0, 0.0, 0.0, 1.7103957298856947E9, 0.0, 2024-03-13 22:55:29.885
53.0, -899.6927727404982, -606.6435619625263, -583.6581368348561, -592.5590987293981, 0.7040000334382057, 0.6720000319182873, 0.41600001975893974, 0.0, 0.0, 0.0, 0.0, 0.0, 1.7103957298992355E9, 0.0, 2024-03-13 22:55:29.899
53.0, -899.2514645457268, -598.2549663619138, -585.5280868127011, -590.6367901521735, 0.7040000334382057, 0.6720000319182873, 0.41600001975893974, 0.0, 0.0, 0.0, 0.0, 0.0, 1.7103957298992355E9, 0.0, 2024-03-13 22:55:29.899
54.0, -881.4906796561554, -579.8135196804069, -568.3395066163503, -573.4369902559556, 0.7040000334382057, 0.6720000319182873, 0.41600001975893974, 0.0, 0.0, 0.0, 0.0, 0.0, 1.7103957299149373E9, 0.0, 2024-03-13 22:55:29.914
54.0, -893.6303949123248, -593.3108186204918, -571.4324038797058, -582.1135581531562, 0.7040000334382057, 0.6720000319182873, 0.41600001975893974, 0.0, 0.0, 0.0, 0.0, 0.0, 1.7103957299149373E9, 0.0, 2024-03-13 22:55:29.914
55.0, -908.1599062401801, -606.6660013622604, -589.5746585647576, -595.7978520910256, 0.7040000334382057, 0.6720000319182873, 0.41600001975893974, 0.0, 0.0, 0.0, 0.0, 0.0, 1.7103957299156318E9, 0.0, 2024-03-13 22:55:29.915
55.0, -905.0445695770904, -598.277405761648, -590.6031310525723, -595.3191448966973, 0.7040000334382057, 0.6720000319182873, 0.41600001975893974, 0.0, 0.0, 0.0, 0.0, 0.0, 1.7103957299156318E9, 0.0, 2024-03-13 22:55:29.915
56.0, -900.5641694301739, -596.7926654792391, -579.136597788427, -589.6045777644031, 0.7040000334382057, 0.6720000319182873, 0.41600001975893974, 0.0, 0.0, 0.0, 0.0, 0.0, 1.7103957299294603E9, 0.0, 2024-03-13 22:55:29.929
56.0, -907.5839616470039, -606.5089255641215, -584.4659552252851, -601.3665631250478, 0.7040000334382057, 0.6720000319182873, 0.41600001975893974, 0.0, 0.0, 0.0, 0.0, 0.0, 1.7103957299294603E9, 0.0, 2024-03-13 22:55:29.929
57.0, -905.9384056665003, -605.4692333764397, -596.4298951835372, -603.2813919023611, 0.7040000334382057, 0.6720000319182873, 0.41600001975893974, 0.0, 0.0, 0.0, 0.0, 0.0, 1.7103957299449725E9, 0.0, 2024-03-13 22:55:29.944
57.0, -897.246878169477, -595.3752433960326, -578.6279713944532, -586.5378598007374, 0.7040000334382057, 0.6720000319182873, 0.41600001975893974, 0.0, 0.0, 0.0, 0.0, 0.0, 1.7103957299449725E9, 0.0, 2024-03-13 22:55:29.944
58.0, -900.1714799348265, -597.3162514730357, -579.1590371881612, -592.5815381291322, 0.7040000334382057, 0.6720000319182873, 0.41600001975893974, 0.0, 0.0, 0.0, 0.0, 0.0, 1.7103957299458327E9, 0.0, 2024-03-13 22:55:29.945
58.0, -901.2485711220652, -594.2495335093699, -585.722561610397, -592.9929271242581, 0.7040000334382057, 0.6720000319182873, 0.41600001975893974, 0.0, 0.0, 0.0, 0.0, 0.0, 1.7103957299458327E9, 0.0, 2024-03-13 22:55:29.945
59.0, -891.6370282359421, -587.2260013925843, -584.2340814280324, -583.5833388357423, 0.7040000334382057, 0.6720000319182873, 0.41600001975893974, 0.0, 0.0, 0.0, 0.0, 0.0, 1.7103957299594316E9, 0.0, 2024-03-13 22:55:29.959
59.0, -901.8132960153744, -600.9589140298776, -581.3954973616637, -592.9555281247012, 0.7040000334382057, 0.6720000319182873, 0.41600001975893974, 0.0, 0.0, 0.0, 0.0, 0.0, 1.7103957299594316E9, 0.0, 2024-03-13 22:55:29.959
60.0, -904.0347965890542, -601.389002524782, -582.2407147516496, -597.5743045699783, 0.7040000334382057, 0.6720000319182873, 0.41600001975893974, 0.0, 0.0, 0.0, 0.0, 0.0, 1.7103957299752638E9, 0.0, 2024-03-13 22:55:29.975
60.0, -905.1717261755839, -599.6985677448101, -584.9371826197021, -590.0907647586428, 0.7040000334382057, 0.6720000319182873, 0.41600001975893974, 0.0, 0.0, 0.0, 0.0, 0.0, 1.7103957299752638E9, 0.0, 2024-03-13 22:55:29.975
61.0, -909.2332575274631, -605.4243545769714, -581.3618382620625, -592.645116428379, 0.7040000334382057, 0.6720000319182873, 0.41600001975893974, 0.0, 0.0, 0.0, 0.0, 0.0, 1.7103957299758976E9, 0.0, 2024-03-13 22:55:29.975
61.0, -906.4881709599867, -604.9531271825545, -565.7365362471901, -586.1376905054785, 0.7040000334382057, 0.6720000319182873, 0.41600001975893974, 0.0, 0.0, 0.0, 0.0, 0.0, 1.7103957299758976E9, 0.0, 2024-03-13 22:55:29.975
62.0, -902.082568812184, -597.4284484717064, -574.3719652448781, -584.0022076307796, 0.6880000326782465, 0.6720000319182873, 0.41600001975893974, 0.0, 0.0, 0.0, 0.0, 0.0, 1.710395729989195E9, 0.0, 2024-03-13 22:55:29.989
62.0, -903.4999908953905, -599.567671246361, -574.6187986419536, -584.335058726836, 0.6880000326782465, 0.6720000319182873, 0.41600001975893974, 0.0, 0.0, 0.0, 0.0, 0.0, 1.710395729989195E9, 0.0, 2024-03-13 22:55:29.989
63.0, -919.0617146110162, -616.6440544440411, -582.2407147516496, -603.0719575048424, 0.6880000326782465, 0.6720000319182873, 0.41600001975893974, 0.0, 0.0, 0.0, 0.0, 0.0, 1.710395730004912E9, 0.0, 2024-03-13 22:55:30.004
63.0, -912.7712028855458, -608.951080235187, -584.3462784267031, -600.9589140298776, 0.6880000326782465, 0.6720000319182873, 0.41600001975893974, 0.0, 0.0, 0.0, 0.0, 0.0, 1.710395730004912E9, 0.0, 2024-03-13 22:55:30.004
64.0, -907.6774591458961, -604.7100336854346, -583.4038236378692, -595.8315111906268, 0.6880000326782465, 0.6720000319182873, 0.41600001975893974, 0.0, 0.0, 0.0, 0.0, 0.0, 1.7103957300056388E9, 0.0, 2024-03-13 22:55:30.005
64.0, -912.2588365916163, -611.2398990080692, -581.3880175617523, -597.9108955659904, 0.6880000326782465, 0.6720000319182873, 0.41600001975893974, 0.0, 0.0, 0.0, 0.0, 0.0, 1.7103957300056388E9, 0.0, 2024-03-13 22:55:30.005
65.0, -911.1331267049536, -612.3917881944217, -583.575859035831, -600.8242776314728, 0.6880000326782465, 0.6720000319182873, 0.41600001975893974, 0.0, 0.0, 0.0, 0.0, 0.0, 1.7103957300356035E9, 0.0, 2024-03-13 22:55:30.035
65.0, -903.0773822003976, -600.8915958306752, -588.1048778821714, -592.6301568285562, 0.6880000326782465, 0.6720000319182873, 0.41600001975893974, 0.0, 0.0, 0.0, 0.0, 0.0, 1.7103957300356035E9, 0.0, 2024-03-13 22:55:30.035
66.0, -906.7911028563976, -602.727886708919, -585.9095566081814, -596.4261552835815, 0.6880000326782465, 0.6720000319182873, 0.41600001975893974, 0.0, 0.0, 0.0, 0.0, 0.0, 1.710395730036323E9, 0.0, 2024-03-13 22:55:30.036
66.0, -919.6264395043254, -616.4084407468326, -593.1462630224414, -606.7632387611084, 0.6880000326782465, 0.6720000319182873, 0.41600001975893974, 0.0, 0.0, 0.0, 0.0, 0.0, 1.710395730036323E9, 0.0, 2024-03-13 22:55:30.036
67.0, -913.6687788749114, -607.0923499572091, -593.1500029223971, -600.3717497368343, 0.6880000326782465, 0.6720000319182873, 0.41600001975893974, 0.0, 0.0, 0.0, 0.0, 0.0, 1.710395730037018E9, 0.0, 2024-03-13 22:55:30.037
67.0, -914.083907769993, -607.0848701572977, -590.3488178555854, -601.1459090276621, 0.6880000326782465, 0.6720000319182873, 0.41600001975893974, 0.0, 0.0, 0.0, 0.0, 0.0, 1.710395730037018E9, 0.0, 2024-03-13 22:55:30.037
68.0, -904.977251377888, -603.7488793968223, -583.7329348339699, -594.7805993030779, 0.6880000326782465, 0.6720000319182873, 0.41600001975893974, 0.0, 0.0, 0.0, 0.0, 0.0, 1.7103957300492024E9, 0.0, 2024-03-13 22:55:30.049
68.0, -907.004277153872, -600.8878559307195, -585.1129579176195, -594.6721422043629, 0.6880000326782465, 0.6720000319182873, 0.41600001975893974, 0.0, 0.0, 0.0, 0.0, 0.0, 1.7103957300492024E9, 0.0, 2024-03-13 22:55:30.049
69.0, -901.8245157152414, -595.6968747922219, -581.5114342602901, -591.4408686426468, 0.6880000326782465, 0.6720000319182873, 0.41600001975893974, 0.0, 0.0, 0.0, 0.0, 0.0, 1.7103957300650945E9, 0.0, 2024-03-13 22:55:30.065
