%OpenBCI Raw EXG Data
%Number of channels = 4
%Sample Rate = 200 Hz
%Board = OpenBCI_GUI$BoardGanglionBLE
Sample Index, EXG Channel 0, EXG Channel 1, EXG Channel 2, EXG Channel 3, Accel Channel 0, Accel Channel 1, Accel Channel 2, Other, Other, Other, Other, Other, Timestamp, Other, Timestamp (Formatted)
2.0, -5.23212003801018, 4.82447094283998, -12.379068853333592, -7.206787214614451, 0.800000037997961, 0.0, 0.0, 0.0, 0.0, 0.0, 0.0, 0.0, 1.710394974755463E9, 0.0, 2024-03-13 22:42:54.755
2.0, 8.407295100390911, 7.049711416475475, 6.234413226135075, 2.8049249667674303, 0.800000037997961, 0.0, 0.0, 0.0, 0.0, 0.0, 0.0, 0.0, 1.710394974755463E9, 0.0, 2024-03-13 22:42:54.755
3.0, 7.764032308012247, 13.198106943629682, -6.810357819311321, 3.5529049579054117, 0.800000037997961, 0.0, 0.0, 0.0, 0.0, 0.0, 0.0, 0.0, 1.7103949747704248E9, 0.0, 2024-03-13 22:42:54.770
3.0, 0.03739899955689907, 6.346610224805772, 1.525879181921482, -1.2790457848459482, 0.800000037997961, 0.0, 0.0, 0.0, 0.0, 0.0, 0.0, 0.0, 1.7103949747704248E9, 0.0, 2024-03-13 22:42:54.770
4.0, 1.1593689862638712, 6.484986523166299, 15.531804515980184, 8.01460560504347, 0.800000037997961, 0.0, 0.0, 0.0, 0.0, 0.0, 0.0, 0.0, 1.7103949747706711E9, 0.0, 2024-03-13 22:42:54.770
4.0, 0.38894959539175034, 8.392335500568151, 8.384855700656772, 4.917968441732228, 0.800000037997961, 0.0, 0.0, 0.0, 0.0, 0.0, 0.0, 0.0, 1.7103949747706711E9, 0.0, 2024-03-13 22:42:54.770
5.0, 9.533004987053573, 13.70673333760351, 4.117629851214588, 12.08361675683409, 0.800000037997961, 0.0, 0.0, 0.0, 0.0, 0.0, 0.0, 0.0, 1.7103949747843015E9, 0.0, 2024-03-13 22:42:54.784
5.0, 7.053451316431165, 9.226333190687, 7.363863012753427, 8.43347440008074, 0.800000037997961, 0.0, 0.0, 0.0, 0.0, 0.0, 0.0, 0.0, 1.7103949747843015E9, 0.0, 2024-03-13 22:42:54.784
6.0, 14.970819522626698, 16.13018850889057, 9.446987288072705, 14.428534029051661, 0.800000037997961, 0.0, 0.0, 0.0, 0.0, 0.0, 0.0, 0.0, 1.7103949748001635E9, 0.0, 2024-03-13 22:42:54.800
6.0, 14.536991127766669, 22.001831439323723, 10.654974973760545, 23.015344327315688, 0.800000037997961, 0.0, 0.0, 0.0, 0.0, 0.0, 0.0, 0.0, 1.7103949748001635E9, 0.0, 2024-03-13 22:42:54.800
7.0, 4.3270642487332225, 7.318984213285148, 4.480400146916509, 11.481492863968015, 0.800000037997961, 0.0, 0.0, 0.0, 0.0, 0.0, 0.0, 0.0, 1.7103949748009088E9, 0.0, 2024-03-13 22:42:54.800
7.0, 4.0428318521007895, 11.571250462904572, 6.275552125647664, 6.657021921128035, 0.800000037997961, 0.0, 0.0, 0.0, 0.0, 0.0, 0.0, 0.0, 1.7103949748009088E9, 0.0, 2024-03-13 22:42:54.800
8.0, 7.7453328082337976, 13.31030394230038, -2.7525663673877716, 4.633736045099795, 0.800000037997961, 0.0, 0.0, 0.0, 0.0, 0.0, 0.0, 0.0, 1.7103949748142705E9, 0.0, 2024-03-13 22:42:54.814
8.0, 20.17302036099136, 25.580915696918964, 7.405001912266016, 16.03295111004263, 0.800000037997961, 0.0, 0.0, 0.0, 0.0, 0.0, 0.0, 0.0, 1.7103949748142705E9, 0.0, 2024-03-13 22:42:54.814
9.0, 9.64520198572427, 22.278584036044776, 15.400908017531037, 11.028964969329536, 0.800000037997961, 0.0, 0.0, 0.0, 0.0, 0.0, 0.0, 0.0, 1.7103949748303552E9, 0.0, 2024-03-13 22:42:54.830
9.0, 7.483539811335504, 22.54037703294307, 3.130296262912452, 13.628195438534021, 0.800000037997961, 0.0, 0.0, 0.0, 0.0, 0.0, 0.0, 0.0, 1.7103949748303552E9, 0.0, 2024-03-13 22:42:54.830
10.0, 9.065517492592335, 24.687079607509077, 6.398968824185431, 19.36520197056234, 0.800000037997961, 0.0, 0.2400000113993883, 0.0, 0.0, 0.0, 0.0, 0.0, 1.7103949748449256E9, 0.0, 2024-03-13 22:42:54.844
10.0, 10.09025008045137, 21.654020743444562, 16.683693702332675, 15.341069618239999, 0.800000037997961, 0.0, 0.2400000113993883, 0.0, 0.0, 0.0, 0.0, 0.0, 1.7103949748449256E9, 0.0, 2024-03-13 22:42:54.844
11.0, 6.518645622767508, 12.438907252624631, 4.338283948600292, 12.214513255283237, 0.800000037997961, 0.6240000296384096, 0.2400000113993883, 0.0, 0.0, 0.0, 0.0, 0.0, 1.7103949748456635E9, 0.0, 2024-03-13 22:42:54.845
11.0, 12.278091554529965, 25.76043089479208, 5.546271634288132, 17.25589839555323, 0.800000037997961, 0.6240000296384096, 0.2400000113993883, 0.0, 0.0, 0.0, 0.0, 0.0, 1.7103949748456635E9, 0.0, 2024-03-13 22:42:54.845
12.0, 16.45555980503559, 23.78576371818781, 23.31827622372657, 21.433366646058857, 0.8160000387579203, 0.6240000296384096, 0.2400000113993883, 0.0, 0.0, 0.0, 0.0, 0.0, 1.7103949748600183E9, 0.0, 2024-03-13 22:42:54.860
12.0, 19.645694467239082, 18.13477488514036, 18.733158878050745, 14.45845322869718, 0.8160000387579203, 0.6240000296384096, 0.2400000113993883, 0.0, 0.0, 0.0, 0.0, 0.0, 1.7103949748600183E9, 0.0, 2024-03-13 22:42:54.860
13.0, 10.112689480185509, 16.575236603617668, 4.656175444833934, 12.674520949833095, 0.8160000387579203, 0.6240000296384096, 0.2400000113993883, 0.0, 0.0, 0.0, 0.0, 0.0, 1.7103949748606772E9, 0.0, 2024-03-13 22:42:54.860
13.0, 16.52287800423801, 22.020530939102173, 12.805417448282242, 17.547610592097044, 0.8160000387579203, 0.6240000296384096, 0.2400000113993883, 0.0, 0.0, 0.0, 0.0, 0.0, 1.7103949748606772E9, 0.0, 2024-03-13 22:42:54.860
14.0, 4.510319346562028, 11.870442459359765, 16.47051940485835, 12.88021544739604, 0.8160000387579203, 0.6240000296384096, 0.2400000113993883, 0.0, 0.0, 0.0, 0.0, 0.0, 1.7103949748742692E9, 0.0, 2024-03-13 22:42:54.874
14.0, 5.823024231009185, 5.748226231895387, 3.859576754271984, 7.206787214614451, 0.8160000387579203, 0.6240000296384096, 0.2400000113993883, 0.0, 0.0, 0.0, 0.0, 0.0, 1.7103949748742692E9, 0.0, 2024-03-13 22:42:54.874
15.0, -7.348903412930667, -2.0419853758066893, -6.571004222147167, 2.3187379725277424, 0.8160000387579203, 0.6240000296384096, 0.2400000113993883, 0.0, 0.0, 0.0, 0.0, 0.0, 1.7103949748899047E9, 0.0, 2024-03-13 22:42:54.889
15.0, -3.137776062823832, 0.22813389729708433, 0.5946440929546952, -0.8339976901188493, 0.8160000387579203, 0.6240000296384096, 0.2400000113993883, 0.0, 0.0, 0.0, 0.0, 0.0, 1.7103949748899047E9, 0.0, 2024-03-13 22:42:54.889
16.0, -1.9148287773132324, 5.527572134509683, 0.5609849933534861, -0.7891188906505704, 0.8160000387579203, 0.6240000296384096, 0.2400000113993883, 0.0, 0.0, 0.0, 0.0, 0.0, 1.7103949748906682E9, 0.0, 2024-03-13 22:42:54.890
16.0, 6.690681020729244, 13.082170045003295, 2.7189072677865624, 9.757398984394968, 0.8160000387579203, 0.6240000296384096, 0.2400000113993883, 0.0, 0.0, 0.0, 0.0, 0.0, 1.7103949748906682E9, 0.0, 2024-03-13 22:42:54.890
17.0, 14.06202383339405, 15.008218522183597, 4.192427850328386, 12.678260849788785, 0.8160000387579203, 0.6240000296384096, 0.2400000113993883, 0.0, 0.0, 0.0, 0.0, 0.0, 1.710394974904804E9, 0.0, 2024-03-13 22:42:54.904
17.0, 3.938114653341472, 9.203893790952861, 2.5992304692044854, 12.109796056523919, 0.8160000387579203, 0.6240000296384096, 0.2400000113993883, 0.0, 0.0, 0.0, 0.0, 0.0, 1.710394974904804E9, 0.0, 2024-03-13 22:42:54.904
18.0, 2.692727968096733, 9.080477092415094, -4.330804148688912, 11.358076165430248, 0.8160000387579203, 0.6240000296384096, 0.2400000113993883, 0.0, 0.0, 0.0, 0.0, 0.0, 1.7103949749203496E9, 0.0, 2024-03-13 22:42:54.920
18.0, 4.618776445277035, 17.805663689039648, 9.043078092858195, 16.08904960937798, 0.8160000387579203, 0.6240000296384096, 0.2400000113993883, 0.0, 0.0, 0.0, 0.0, 0.0, 1.7103949749203496E9, 0.0, 2024-03-13 22:42:54.920
19.0, -0.28049249667674303, 8.231519802473485, 7.614436309784651, 5.564971134066582, 0.8160000387579203, 0.6240000296384096, 0.2400000113993883, 0.0, 0.0, 0.0, 0.0, 0.0, 1.7103949749208672E9, 0.0, 2024-03-13 22:42:54.920
19.0, 1.2304270854219794, 2.382316271774471, -2.688988068141043, 0.5909041929990053, 0.8160000387579203, 0.6240000296384096, 0.2400000113993883, 0.0, 0.0, 0.0, 0.0, 0.0, 1.7103949749208672E9, 0.0, 2024-03-13 22:42:54.920
20.0, -0.22813389729708433, 9.129095791839063, 4.644955744966865, 10.123909180052578, 0.8160000387579203, 0.6240000296384096, 0.2400000113993883, 0.0, 0.0, 0.0, 0.0, 0.0, 1.7103949749346645E9, 0.0, 2024-03-13 22:42:54.934
20.0, -0.4113889951258898, 4.723493644036353, 10.755952272564173, 9.304871089756489, 0.8160000387579203, 0.6240000296384096, 0.2400000113993883, 0.0, 0.0, 0.0, 0.0, 0.0, 1.7103949749346645E9, 0.0, 2024-03-13 22:42:54.934
21.0, 4.955367441289127, 4.686094644479454, 5.101223539561033, 2.3523970721289515, 0.8160000387579203, 0.6240000296384096, 0.2400000113993883, 0.0, 0.0, 0.0, 0.0, 0.0, 1.7103949749499948E9, 0.0, 2024-03-13 22:42:54.949
21.0, -3.986733352765441, 1.1331896865740418, -0.35155059583485126, 4.525278946384788, 0.8160000387579203, 0.6240000296384096, 0.2400000113993883, 0.0, 0.0, 0.0, 0.0, 0.0, 1.7103949749499948E9, 0.0, 2024-03-13 22:42:54.949
22.0, -6.881415918469429, -1.3875028835609555, 4.102670251391828, -0.29171219654381275, 0.8160000387579203, 0.6240000296384096, 0.2400000113993883, 0.0, 0.0, 0.0, 0.0, 0.0, 1.7103949749507082E9, 0.0, 2024-03-13 22:42:54.950
22.0, -12.49874565191567, -21.844755641184747, -3.493066558614373, -9.151535191573203, 0.8160000387579203, 0.6240000296384096, 0.2400000113993883, 0.0, 0.0, 0.0, 0.0, 0.0, 1.7103949749507082E9, 0.0, 2024-03-13 22:42:54.950
23.0, -21.508164645172656, -22.390781034715474, -14.032104633748531, -10.47171987593174, 0.8160000387579203, 0.6240000296384096, 0.2400000113993883, 0.0, 0.0, 0.0, 0.0, 0.0, 1.7103949749643407E9, 0.0, 2024-03-13 22:42:54.964
23.0, -19.851388964802027, -9.147795291617513, -3.8894959539175034, -5.942701029591262, 0.8160000387579203, 0.6240000296384096, 0.2400000113993883, 0.0, 0.0, 0.0, 0.0, 0.0, 1.7103949749643407E9, 0.0, 2024-03-13 22:42:54.964
24.0, -11.560030763037503, -12.655821450054646, 7.004832617007196, -4.510319346562028, 0.8160000387579203, 0.6240000296384096, 0.2400000113993883, 0.0, 0.0, 0.0, 0.0, 0.0, 1.7103949749799976E9, 0.0, 2024-03-13 22:42:54.979
24.0, -14.86984222382307, -11.339376665651798, -9.394628688693047, -6.511165822856128, 0.8160000387579203, 0.6240000296384096, 0.2400000113993883, 0.0, 0.0, 0.0, 0.0, 0.0, 1.7103949749799976E9, 0.0, 2024-03-13 22:42:54.979
25.0, -15.344809518195689, -4.001692952588201, -5.852943430654705, 2.8311042664572597, 0.8160000387579203, 0.6240000296384096, 0.2400000113993883, 0.0, 0.0, 0.0, 0.0, 0.0, 1.71039497498071E9, 0.0, 2024-03-13 22:42:54.980
25.0, -10.823270471766591, -8.541931498795748, -0.5161061938852072, -3.7212004559114575, 0.8160000387579203, 0.6240000296384096, 0.2400000113993883, 0.0, 0.0, 0.0, 0.0, 0.0, 1.71039497498071E9, 0.0, 2024-03-13 22:42:54.980
26.0, -10.206186979077756, -13.931127334944904, -8.02956520486623, -6.391489024274051, 0.8160000387579203, 0.6240000296384096, 0.2400000113993883, 0.0, 0.0, 0.0, 0.0, 0.0, 1.7103949749945257E9, 0.0, 2024-03-13 22:42:54.994
26.0, -6.062377828173339, -3.010619464330375, -7.764032308012247, -2.165402074344456, 0.8160000387579203, 0.6240000296384096, 0.2400000113993883, 0.0, 0.0, 0.0, 0.0, 0.0, 1.7103949749945257E9, 0.0, 2024-03-13 22:42:54.994
27.0, -7.610696409828961, -4.095190451480448, 2.300038472749293, -1.7988918786868453, 0.8160000387579203, 0.6240000296384096, 0.2400000113993883, 0.0, 0.0, 0.0, 0.0, 0.0, 1.7103949750099776E9, 0.0, 2024-03-13 22:42:55.009
27.0, 0.40016929525882006, 4.110150051303208, 5.523832234553993, 2.3523970721289515, 0.8160000387579203, 0.6240000296384096, 0.2400000113993883, 0.0, 0.0, 0.0, 0.0, 0.0, 1.7103949750099776E9, 0.0, 2024-03-13 22:42:55.009
28.0, -5.781885331496596, 8.0407849047333, -3.055498263798654, 2.0419853758066893, 0.8160000387579203, 0.6240000296384096, 0.2400000113993883, 0.0, 0.0, 0.0, 0.0, 0.0, 1.7103949750106735E9, 0.0, 2024-03-13 22:42:55.010
28.0, -4.84691034257412, -3.066717963665724, 3.459407459013164, -0.4188687950372696, 0.8160000387579203, 0.6240000296384096, 0.2400000113993883, 0.0, 0.0, 0.0, 0.0, 0.0, 1.7103949750106735E9, 0.0, 2024-03-13 22:42:55.010
29.0, -6.03245862852782, -4.450480947270989, 3.4033089596778154, -5.845463630743325, 0.8160000387579203, 0.6240000296384096, 0.2400000113993883, 0.0, 0.0, 0.0, 0.0, 0.0, 1.7103949750242643E9, 0.0, 2024-03-13 22:42:55.024
29.0, -6.507425922900438, -7.191827614791691, -5.950180829502642, -7.879969206638634, 0.8160000387579203, 0.6240000296384096, 0.2400000113993883, 0.0, 0.0, 0.0, 0.0, 0.0, 1.7103949750242643E9, 0.0, 2024-03-13 22:42:55.024
30.0, -5.056344740092754, -6.189534426666796, -0.022439399734139442, -2.296298572793603, 0.8160000387579203, 0.6240000296384096, 0.2240000106394291, 0.0, 0.0, 0.0, 0.0, 0.0, 1.7103949750401485E9, 0.0, 2024-03-13 22:42:55.040
30.0, -3.1228164630010724, -4.162508650682867, 7.412481712177396, -2.539392069913447, 0.8160000387579203, 0.6240000296384096, 0.2240000106394291, 0.0, 0.0, 0.0, 0.0, 0.0, 1.7103949750401485E9, 0.0, 2024-03-13 22:42:55.040
31.0, -9.533004987053573, 2.367356671951711, 1.9484878769144416, -6.253112725913525, 0.8160000387579203, 0.6240000296384096, 0.2240000106394291, 0.0, 0.0, 0.0, 0.0, 0.0, 1.7103949750410607E9, 0.0, 2024-03-13 22:42:55.041
31.0, -5.254559437744319, -1.5632781814783812, 0.964894188567996, -2.2028010739013553, 0.8160000387579203, 0.6240000296384096, 0.2240000106394291, 0.0, 0.0, 0.0, 0.0, 0.0, 1.7103949750410607E9, 0.0, 2024-03-13 22:42:55.041
32.0, -5.422854935750365, -2.9096421655267477, 8.556891098618507, 1.694174679927528, 0.8160000387579203, 0.6240000296384096, 0.2240000106394291, 0.0, 0.0, 0.0, 0.0, 0.0, 1.7103949750544927E9, 0.0, 2024-03-13 22:42:55.054
32.0, -16.05165060982108, -8.639168897643685, -9.465686787851155, -18.003878386691213, 0.8160000387579203, 0.6240000296384096, 0.2240000106394291, 0.0, 0.0, 0.0, 0.0, 0.0, 1.7103949750544927E9, 0.0, 2024-03-13 22:42:55.054
33.0, -12.689480549655855, -5.632289333269, -16.44060020521283, -11.720846461132169, 0.8160000387579203, 0.6240000296384096, 0.2240000106394291, 0.0, 0.0, 0.0, 0.0, 0.0, 1.7103949750701056E9, 0.0, 2024-03-13 22:42:55.070
33.0, -1.492220082320273, -6.814097719267011, -0.23561369720846415, -3.979253552854061, 0.8160000387579203, 0.6240000296384096, 0.2240000106394291, 0.0, 0.0, 0.0, 0.0, 0.0, 1.7103949750701056E9, 0.0, 2024-03-13 22:42:55.070
34.0, -1.5370988817885518, 9.802277783863246, 8.84860329516232, 9.402108488604426, 0.8160000387579203, 0.6240000296384096, 0.2240000106394291, 0.0, 0.0, 0.0, 0.0, 0.0, 1.7103949750706692E9, 0.0, 2024-03-13 22:42:55.070
34.0, 10.688634073361754, 20.434813357889652, 1.854990378022194, 14.08820313308388, 0.8160000387579203, 0.6240000296384096, 0.2240000106394291, 0.0, 0.0, 0.0, 0.0, 0.0, 1.7103949750706692E9, 0.0, 2024-03-13 22:42:55.070
35.0, 2.1915813740342855, 6.148395527154207, -4.218607150018215, 4.155028850771487, 0.8160000387579203, 0.6240000296384096, 0.2240000106394291, 0.0, 0.0, 0.0, 0.0, 0.0, 1.710394975084473E9, 0.0, 2024-03-13 22:42:55.084
35.0, -13.392581741325557, -4.611296645365655, 0.9125355891883373, -5.946440929546952, 0.8160000387579203, 0.6240000296384096, 0.2240000106394291, 0.0, 0.0, 0.0, 0.0, 0.0, 1.710394975084473E9, 0.0, 2024-03-13 22:42:55.084
36.0, -14.353736029937863, -1.5445786816999316, -5.007726040668786, -8.713966896757483, 0.8160000387579203, 0.6240000296384096, 0.2240000106394291, 0.0, 0.0, 0.0, 0.0, 0.0, 1.7103949751002023E9, 0.0, 2024-03-13 22:42:55.100
36.0, 3.8408772544935346, 0.029919199645519257, 0.06357829924672842, -2.741346667520702, 0.8160000387579203, 0.6240000296384096, 0.2240000106394291, 0.0, 0.0, 0.0, 0.0, 0.0, 1.7103949751002023E9, 0.0, 2024-03-13 22:42:55.100
37.0, -18.433966881595552, -10.576437074691057, -3.100377063266933, -5.146102339029312, 0.8160000387579203, 0.6240000296384096, 0.2240000106394291, 0.0, 0.0, 0.0, 0.0, 0.0, 1.7103949751008244E9, 0.0, 2024-03-13 22:42:55.100
37.0, -22.798430129885674, -24.260731012560427, -6.892635618336499, -15.546764115802944, 0.8160000387579203, 0.6240000296384096, 0.2240000106394291, 0.0, 0.0, 0.0, 0.0, 0.0, 1.7103949751008244E9, 0.0, 2024-03-13 22:42:55.100
38.0, -23.946579416282475, -13.138268544338644, -9.23007309064269, -11.481492863968015, 0.8160000387579203, 0.6240000296384096, 0.2240000106394291, 0.0, 0.0, 0.0, 0.0, 0.0, 1.7103949751143014E9, 0.0, 2024-03-13 22:42:55.114
38.0, -16.197506708092988, -7.63687570951879, -5.662208532914519, -5.306918037123978, 0.8160000387579203, 0.6240000296384096, 0.2240000106394291, 0.0, 0.0, 0.0, 0.0, 0.0, 1.7103949751143014E9, 0.0, 2024-03-13 22:42:55.114
39.0, -25.954905692487955, -14.798784124664962, -12.07239705696702, -15.599122715182602, 0.8160000387579203, 0.6240000296384096, 0.2240000106394291, 0.0, 0.0, 0.0, 0.0, 0.0, 1.710394975129975E9, 0.0, 2024-03-13 22:42:55.129
39.0, -25.132127702236176, -16.10026930924505, -14.349996129982173, -16.54157750401646, 0.8160000387579203, 0.6240000296384096, 0.2240000106394291, 0.0, 0.0, 0.0, 0.0, 0.0, 1.710394975129975E9, 0.0, 2024-03-13 22:42:55.129
40.0, -18.381608282215893, -14.933420523069799, -6.544824922457337, -2.7675259672105312, 0.8160000387579203, 0.6240000296384096, 0.2240000106394291, 0.0, 0.0, 0.0, 0.0, 0.0, 1.7103949751306372E9, 0.0, 2024-03-13 22:42:55.130
40.0, -24.11113501433283, -17.33817619457841, 1.533358981832862, -9.559184286743402, 0.8160000387579203, 0.6240000296384096, 0.2240000106394291, 0.0, 0.0, 0.0, 0.0, 0.0, 1.7103949751306372E9, 0.0, 2024-03-13 22:42:55.130
41.0, -28.314782564528286, -24.13731431402266, -16.249865307472646, -17.77200458943844, 0.8160000387579203, 0.6240000296384096, 0.2240000106394291, 0.0, 0.0, 0.0, 0.0, 0.0, 1.7103949751442225E9, 0.0, 2024-03-13 22:42:55.144
41.0, -16.52287800423801, -9.581623686477542, -2.329957672394812, -2.206540973857045, 0.8160000387579203, 0.6240000296384096, 0.2240000106394291, 0.0, 0.0, 0.0, 0.0, 0.0, 1.7103949751442225E9, 0.0, 2024-03-13 22:42:55.144
42.0, -12.188333955593407, -6.45132742356509, 0.29171219654381275, -5.463993835262954, 0.8160000387579203, 0.6240000296384096, 0.2240000106394291, 0.0, 0.0, 0.0, 0.0, 0.0, 1.7103949751599505E9, 0.0, 2024-03-13 22:42:55.159
42.0, -18.05249708611518, -9.428287788294256, -0.8339976901188493, -6.892635618336499, 0.8160000387579203, 0.6240000296384096, 0.2240000106394291, 0.0, 0.0, 0.0, 0.0, 0.0, 1.7103949751599505E9, 0.0, 2024-03-13 22:42:55.159
43.0, -11.021485169418156, -7.476060011424124, -9.555444386787713, -11.25335896667093, 0.8160000387579203, 0.6240000296384096, 0.2240000106394291, 0.0, 0.0, 0.0, 0.0, 0.0, 1.7103949751606305E9, 0.0, 2024-03-13 22:42:55.160
43.0, -14.783824524842203, -10.819530571810901, -7.928587906062603, -8.85234319511801, 0.8160000387579203, 0.6240000296384096, 0.2240000106394291, 0.0, 0.0, 0.0, 0.0, 0.0, 1.7103949751606305E9, 0.0, 2024-03-13 22:42:55.160
44.0, -27.948272368870676, -22.809649829752743, -9.200153890997171, -21.463285845704377, 0.8160000387579203, 0.6240000296384096, 0.2240000106394291, 0.0, 0.0, 0.0, 0.0, 0.0, 1.7103949751742656E9, 0.0, 2024-03-13 22:42:55.174
44.0, -29.698545548133552, -23.969018816016614, -19.7130126664415, -20.57318965625018, 0.8160000387579203, 0.6240000296384096, 0.2240000106394291, 0.0, 0.0, 0.0, 0.0, 0.0, 1.7103949751742656E9, 0.0, 2024-03-13 22:42:55.174
45.0, -18.602262379601598, -14.4883724283427, -10.101469780318439, -12.192073855549097, 0.8160000387579203, 0.6240000296384096, 0.2240000106394291, 0.0, 0.0, 0.0, 0.0, 0.0, 1.7103949751900036E9, 0.0, 2024-03-13 22:42:55.190
45.0, -27.626640972681344, -20.603108855895698, -2.8385840663686395, -11.634828762151301, 0.8160000387579203, 0.6240000296384096, 0.2240000106394291, 0.0, 0.0, 0.0, 0.0, 0.0, 1.7103949751900036E9, 0.0, 2024-03-13 22:42:55.190
46.0, -19.522277768701315, -18.13103498518467, -5.7370065320283175, -14.619268926791847, 0.8160000387579203, 0.6240000296384096, 0.2240000106394291, 0.0, 0.0, 0.0, 0.0, 0.0, 1.7103949751906796E9, 0.0, 2024-03-13 22:42:55.190
46.0, -18.209572884254158, -13.403801441192627, -11.402954964898527, -7.775252007879317, 0.8160000387579203, 0.6240000296384096, 0.2240000106394291, 0.0, 0.0, 0.0, 0.0, 0.0, 1.7103949751906796E9, 0.0, 2024-03-13 22:42:55.190
47.0, -30.64100033696741, -23.426733322441578, -8.164201603271067, -16.54905730392784, 0.8160000387579203, 0.6240000296384096, 0.2240000106394291, 0.0, 0.0, 0.0, 0.0, 0.0, 1.7103949752046337E9, 0.0, 2024-03-13 22:42:55.204
47.0, -37.36160055734217, -28.359661363996565, -15.352289318107069, -26.022223891690373, 0.8160000387579203, 0.6240000296384096, 0.2240000106394291, 0.0, 0.0, 0.0, 0.0, 0.0, 1.7103949752046337E9, 0.0, 2024-03-13 22:42:55.204
48.0, -21.71011924277991, -24.96757210418582, -22.17760673724115, -20.1580607611686, 0.8160000387579203, 0.6240000296384096, 0.2240000106394291, 0.0, 0.0, 0.0, 0.0, 0.0, 1.7103949752202303E9, 0.0, 2024-03-13 22:42:55.220
48.0, -25.35652169957757, -20.05708346236497, -9.200153890997171, -15.999292010441422, 0.8160000387579203, 0.6240000296384096, 0.2240000106394291, 0.0, 0.0, 0.0, 0.0, 0.0, 1.7103949752202303E9, 0.0, 2024-03-13 22:42:55.220
49.0, -28.58031546138227, -11.975159658119082, 1.8961292775347829, -11.26831856649369, 0.8160000387579203, 0.6240000296384096, 0.2240000106394291, 0.0, 0.0, 0.0, 0.0, 0.0, 1.7103949752208438E9, 0.0, 2024-03-13 22:42:55.220
49.0, -19.529757568612695, -6.481246623210609, -5.834243930876255, -9.525525187142193, 0.8160000387579203, 0.6240000296384096, 0.2240000106394291, 0.0, 0.0, 0.0, 0.0, 0.0, 1.7103949752208438E9, 0.0, 2024-03-13 22:42:55.220
50.0, -13.033551345579326, 0.7479799911379814, -2.7563062673434615, -3.347210460342467, 0.8160000387579203, 0.6240000296384096, 0.2240000106394291, 0.0, 0.0, 0.0, 0.0, 0.0, 1.7103949752345228E9, 0.0, 2024-03-13 22:42:55.234
50.0, -23.228518624790013, -9.043078092858195, -7.165648315101862, -5.3742362363263965, 0.8160000387579203, 0.6240000296384096, 0.2240000106394291, 0.0, 0.0, 0.0, 0.0, 0.0, 1.7103949752345228E9, 0.0, 2024-03-13 22:42:55.234
51.0, -4.585117345675826, 0.6806617919355631, 1.0509118875488639, -0.6544824922457337, 0.8160000387579203, 0.6240000296384096, 0.2240000106394291, 0.0, 0.0, 0.0, 0.0, 0.0, 1.710394975250332E9, 0.0, 2024-03-13 22:42:55.250
51.0, -4.461700647138059, 0.40764909517019987, -1.61189688090235, -1.8175913784652948, 0.8160000387579203, 0.6240000296384096, 0.2240000106394291, 0.0, 0.0, 0.0, 0.0, 0.0, 1.710394975250332E9, 0.0, 2024-03-13 22:42:55.250
52.0, -15.049357421696186, -6.892635618336499, -2.943301265127957, -8.706487096846104, 0.8160000387579203, 0.6240000296384096, 0.2240000106394291, 0.0, 0.0, 0.0, 0.0, 0.0, 1.7103949752510016E9, 0.0, 2024-03-13 22:42:55.251
52.0, -22.48801843356341, -8.096883404068649, -7.281585213728249, -13.134528644382954, 0.8160000387579203, 0.6240000296384096, 0.2240000106394291, 0.0, 0.0, 0.0, 0.0, 0.0, 1.7103949752510016E9, 0.0, 2024-03-13 22:42:55.251
53.0, -17.394274693913758, -7.363863012753427, -14.559430527500808, -11.402954964898527, 0.8160000387579203, 0.6240000296384096, 0.2240000106394291, 0.0, 0.0, 0.0, 0.0, 0.0, 1.710394975264252E9, 0.0, 2024-03-13 22:42:55.264
53.0, -18.624701779335737, -9.761138884350657, -3.0891573633998632, -9.877075782977045, 0.8160000387579203, 0.6240000296384096, 0.2240000106394291, 0.0, 0.0, 0.0, 0.0, 0.0, 1.710394975264252E9, 0.0, 2024-03-13 22:42:55.264
54.0, -22.746071530506015, -17.446633293293417, -3.4033089596778154, -13.856329335831106, 0.8160000387579203, 0.6240000296384096, 0.2240000106394291, 0.0, 0.0, 0.0, 0.0, 0.0, 1.7103949752799895E9, 0.0, 2024-03-13 22:42:55.279
54.0, -15.68888031411916, -8.657868397422135, -2.3972758715972304, -2.6291496688500047, 0.8160000387579203, 0.6240000296384096, 0.2240000106394291, 0.0, 0.0, 0.0, 0.0, 0.0, 1.7103949752799895E9, 0.0, 2024-03-13 22:42:55.279
55.0, -13.239245843142271, 0.7853789906948805, 5.688387832604349, 4.502839546650648, 0.8160000387579203, 0.6240000296384096, 0.2240000106394291, 0.0, 0.0, 0.0, 0.0, 0.0, 1.7103949752807426E9, 0.0, 2024-03-13 22:42:55.280
55.0, -18.16843398474157, -5.086263939738274, 1.8175913784652948, -3.9268949534744024, 0.8160000387579203, 0.6240000296384096, 0.2240000106394291, 0.0, 0.0, 0.0, 0.0, 0.0, 1.7103949752807426E9, 0.0, 2024-03-13 22:42:55.280
56.0, -1.3875028835609555, -2.6815082682296634, 6.413928424008191, 2.8049249667674303, 0.8160000387579203, 0.6240000296384096, 0.2240000106394291, 0.0, 0.0, 0.0, 0.0, 0.0, 1.7103949752942438E9, 0.0, 2024-03-13 22:42:55.294
56.0, -11.582470162771642, 0.3739899955689907, -0.14959599822759628, 3.508026158437133, 0.8160000387579203, 0.6240000296384096, 0.2240000106394291, 0.0, 0.0, 0.0, 0.0, 0.0, 1.7103949752942438E9, 0.0, 2024-03-13 22:42:55.294
57.0, -15.064317021518946, -8.396075400523841, 3.4033089596778154, 1.2977452846243978, 0.8160000387579203, 0.6240000296384096, 0.2240000106394291, 0.0, 0.0, 0.0, 0.0, 0.0, 1.710394975309976E9, 0.0, 2024-03-13 22:42:55.309
57.0, -8.403555200435221, -4.177468250505626, 0.4263485949486494, -3.9680338529869914, 0.8160000387579203, 0.6240000296384096, 0.2240000106394291, 0.0, 0.0, 0.0, 0.0, 0.0, 1.710394975309976E9, 0.0, 2024-03-13 22:42:55.309
58.0, -4.338283948600292, 7.169388215057552, 2.3037783727049828, 5.265779137611389, 0.8160000387579203, 0.6240000296384096, 0.2240000106394291, 0.0, 0.0, 0.0, 0.0, 0.0, 1.7103949753107593E9, 0.0, 2024-03-13 22:42:55.310
58.0, 5.755706031806767, 20.11318196170032, 19.65317426715046, 21.990611739456654, 0.8160000387579203, 0.6240000296384096, 0.2240000106394291, 0.0, 0.0, 0.0, 0.0, 0.0, 1.7103949753107593E9, 0.0, 2024-03-13 22:42:55.310
59.0, -12.547364351339638, -1.6343362806364894, 7.737853008322418, -0.06357829924672842, 0.8160000387579203, 0.6240000296384096, 0.2240000106394291, 0.0, 0.0, 0.0, 0.0, 0.0, 1.7103949753242383E9, 0.0, 2024-03-13 22:42:55.324
59.0, -26.721585183404386, -19.066009974107146, -14.694066925905645, -18.53868408035487, 0.8160000387579203, 0.6240000296384096, 0.2240000106394291, 0.0, 0.0, 0.0, 0.0, 0.0, 1.7103949753242383E9, 0.0, 2024-03-13 22:42:55.324
60.0, -15.587903015315533, -5.946440929546952, -5.64724893309176, -8.05574450455606, 0.8160000387579203, 0.6240000296384096, 0.2400000113993883, 0.0, 0.0, 0.0, 0.0, 0.0, 1.7103949753399873E9, 0.0, 2024-03-13 22:42:55.339
60.0, -22.54411693289876, -10.621315874159336, -6.103516727685928, -11.417914564721286, 0.8160000387579203, 0.6240000296384096, 0.2400000113993883, 0.0, 0.0, 0.0, 0.0, 0.0, 1.7103949753399873E9, 0.0, 2024-03-13 22:42:55.339
61.0, -28.812189258635044, -16.94548669923097, -11.862962659448385, -16.261085007339716, 0.8160000387579203, 0.6240000296384096, 0.2400000113993883, 0.0, 0.0, 0.0, 0.0, 0.0, 1.7103949753407412E9, 0.0, 2024-03-13 22:42:55.340
61.0, -15.31115041859448, -9.589103486388922, -5.344317036680877, -7.019792216829956, 0.8160000387579203, 0.6240000296384096, 0.2400000113993883, 0.0, 0.0, 0.0, 0.0, 0.0, 1.7103949753407412E9, 0.0, 2024-03-13 22:42:55.340
62.0, -15.393428217619658, -11.002785669639707, 0.8751365896314383, -7.621916109696031, 0.8160000387579203, 0.6240000296384096, 0.2400000113993883, 0.0, 0.0, 0.0, 0.0, 0.0, 1.7103949753546515E9, 0.0, 2024-03-13 22:42:55.354
62.0, -25.221885301172733, -18.52372448053211, -7.524678710848093, -18.280630983412266, 0.8160000387579203, 0.6240000296384096, 0.2400000113993883, 0.0, 0.0, 0.0, 0.0, 0.0, 1.7103949753546515E9, 0.0, 2024-03-13 22:42:55.354
63.0, -21.212712548673153, -14.51081182807684, -12.207033455371857, -12.88021544739604, 0.8160000387579203, 0.6240000296384096, 0.2400000113993883, 0.0, 0.0, 0.0, 0.0, 0.0, 1.7103949753699896E9, 0.0, 2024-03-13 22:42:55.369
63.0, -25.487418198026717, -17.70842629019171, -11.68344746157527, -15.31115041859448, 0.8160000387579203, 0.6240000296384096, 0.2400000113993883, 0.0, 0.0, 0.0, 0.0, 0.0, 1.7103949753699896E9, 0.0, 2024-03-13 22:42:55.369
64.0, -34.369680592790246, -18.44892648141831, -15.217652919702232, -22.798430129885674, 0.8160000387579203, 0.6240000296384096, 0.2400000113993883, 0.0, 0.0, 0.0, 0.0, 0.0, 1.7103949753706853E9, 0.0, 2024-03-13 22:42:55.370
64.0, -40.061808325350285, -32.4585917154327, -22.327202735468745, -23.78576371818781, 0.8160000387579203, 0.6240000296384096, 0.2400000113993883, 0.0, 0.0, 0.0, 0.0, 0.0, 1.7103949753706853E9, 0.0, 2024-03-13 22:42:55.370
65.0, -30.267010341398418, -27.129234278574586, -12.528664851561189, -15.935713711194694, 0.8160000387579203, 0.6240000296384096, 0.2400000113993883, 0.0, 0.0, 0.0, 0.0, 0.0, 1.7103949753846385E9, 0.0, 2024-03-13 22:42:55.384
65.0, -34.54171599075198, -28.034290067851543, 2.1990611739456654, -12.412727952934802, 0.8160000387579203, 0.6240000296384096, 0.2400000113993883, 0.0, 0.0, 0.0, 0.0, 0.0, 1.7103949753846385E9, 0.0, 2024-03-13 22:42:55.384
66.0, -30.349288140423596, -21.27629084791988, -5.609849933534861, -13.037291245535016, 0.8160000387579203, 0.6240000296384096, 0.2400000113993883, 0.0, 0.0, 0.0, 0.0, 0.0, 1.7103949754002724E9, 0.0, 2024-03-13 22:42:55.400
66.0, -27.196552477777004, -14.637968426570296, -3.3958291597664356, -7.865009606815875, 0.8160000387579203, 0.6240000296384096, 0.2400000113993883, 0.0, 0.0, 0.0, 0.0, 0.0, 1.7103949754002724E9, 0.0, 2024-03-13 22:42:55.400
67.0, -30.12115424312651, -14.51829162798822, 0.1084570987150073, -6.630842621438205, 0.8160000387579203, 0.6240000296384096, 0.2400000113993883, 0.0, 0.0, 0.0, 0.0, 0.0, 1.710394975400896E9, 0.0, 2024-03-13 22:42:55.400
67.0, -38.59576754271984, -22.59273563232273, -10.778391672298312, -21.448326245881617, 0.8160000387579203, 0.6240000296384096, 0.2400000113993883, 0.0, 0.0, 0.0, 0.0, 0.0, 1.710394975400896E9, 0.0, 2024-03-13 22:42:55.400
68.0, -26.91979988105595, -20.266517859883606, -16.627595202997327, -17.73460558988154, 0.8160000387579203, 0.6240000296384096, 0.2400000113993883, 0.0, 0.0, 0.0, 0.0, 0.0, 1.7103949754142997E9, 0.0, 2024-03-13 22:42:55.414
68.0, -27.136714078485966, -18.415267381817102, -9.028118493035436, -17.076383197680116, 0.8160000387579203, 0.6240000296384096, 0.2400000113993883, 0.0, 0.0, 0.0, 0.0, 0.0, 1.7103949754142997E9, 0.0, 2024-03-13 22:42:55.414
69.0, -24.679599807597697, -14.424794129095972, 2.6029703691601753, -14.589349727146327, 0.8160000387579203, 0.6240000296384096, 0.2400000113993883, 0.0, 0.0, 0.0, 0.0, 0.0, 1.710394975429958E9, 0.0, 2024-03-13 22:42:55.429
69.0, -21.893374340608716, -13.572096939198673, -5.718307032249868, -8.807464395649731, 0.8160000387579203, 0.6240000296384096, 0.2400000113993883, 0.0, 0.0, 0.0, 0.0, 0.0, 1.710394975429958E9, 0.0, 2024-03-13 22:42:55.429
70.0, -24.870334705337882, -7.012312416918576, -3.130296262912452, -7.483539811335504, 0.8160000387579203, 0.6240000296384096, 0.2240000106394291, 0.0, 0.0, 0.0, 0.0, 0.0, 1.7103949754307096E9, 0.0, 2024-03-13 22:42:55.430
70.0, -20.48717195726931, -8.650388597510755, 0.7330203913152218, -8.03330510482192, 0.8160000387579203, 0.6240000296384096, 0.2240000106394291, 0.0, 0.0, 0.0, 0.0, 0.0, 1.7103949754307096E9, 0.0, 2024-03-13 22:42:55.430
71.0, -29.664886448532343, -13.25046554300934, -10.905548270791769, -14.783824524842203, 0.8160000387579203, 0.6240000296384096, 0.2240000106394291, 0.0, 0.0, 0.0, 0.0, 0.0, 1.7103949754443908E9, 0.0, 2024-03-13 22:42:55.444
71.0, -20.95465945173055, -7.446140811778605, -11.68718736153096, -11.885402059182525, 0.8160000387579203, 0.6240000296384096, 0.2240000106394291, 0.0, 0.0, 0.0, 0.0, 0.0, 1.7103949754443908E9, 0.0, 2024-03-13 22:42:55.444
72.0, -19.204386272467673, -5.62106963340193, -7.341423613019288, -5.845463630743325, 0.8160000387579203, 0.6240000296384096, 0.2240000106394291, 0.0, 0.0, 0.0, 0.0, 0.0, 1.7103949754600163E9, 0.0, 2024-03-13 22:42:55.460
72.0, -15.442046917043626, -5.6135898334905505, -4.256006149575114, -6.593443621881306, 0.8160000387579203, 0.6240000296384096, 0.2240000106394291, 0.0, 0.0, 0.0, 0.0, 0.0, 1.7103949754600163E9, 0.0, 2024-03-13 22:42:55.460
73.0, -19.144547873176634, 2.1093035750091076, -9.996752581559122, -6.406448624096811, 0.8160000387579203, 0.6240000296384096, 0.2240000106394291, 0.0, 0.0, 0.0, 0.0, 0.0, 1.7103949754607117E9, 0.0, 2024-03-13 22:42:55.460
73.0, -4.790811843238771, 4.622516345232725, 1.5744978813454509, 1.9484878769144416, 0.8160000387579203, 0.6240000296384096, 0.2240000106394291, 0.0, 0.0, 0.0, 0.0, 0.0, 1.7103949754607117E9, 0.0, 2024-03-13 22:42:55.460
74.0, -8.605509798042476, -0.8377375900745392, 3.2462331615388393, -2.9881800645962358, 0.8160000387579203, 0.6240000296384096, 0.2240000106394291, 0.0, 0.0, 0.0, 0.0, 0.0, 1.7103949754743023E9, 0.0, 2024-03-13 22:42:55.474
74.0, -20.419853758066893, -0.6993612917140126, -6.081077327951789, -3.7735590552911162, 0.8160000387579203, 0.6240000296384096, 0.2240000106394291, 0.0, 0.0, 0.0, 0.0, 0.0, 1.7103949754743023E9, 0.0, 2024-03-13 22:42:55.474
75.0, -6.671981520950794, 6.496206223033369, -5.860423230566084, -3.22753366176039, 0.8160000387579203, 0.6240000296384096, 0.2240000106394291, 0.0, 0.0, 0.0, 0.0, 0.0, 1.7103949754899752E9, 0.0, 2024-03-13 22:42:55.489
75.0, -20.019684462808073, -5.434074635617435, -2.453374370932579, -8.224040002562106, 0.8160000387579203, 0.6240000296384096, 0.2240000106394291, 0.0, 0.0, 0.0, 0.0, 0.0, 1.7103949754899752E9, 0.0, 2024-03-13 22:42:55.489
76.0, -6.922554817982018, 1.5819776812568307, 2.5543516697362065, -0.766679490916431, 0.8160000387579203, 0.6240000296384096, 0.2240000106394291, 0.0, 0.0, 0.0, 0.0, 0.0, 1.7103949754906945E9, 0.0, 2024-03-13 22:42:55.490
76.0, 8.650388597510755, 15.651481314562261, 4.00917275249958, 8.194120802916586, 0.8160000387579203, 0.6240000296384096, 0.2240000106394291, 0.0, 0.0, 0.0, 0.0, 0.0, 1.7103949754906945E9, 0.0, 2024-03-13 22:42:55.490
77.0, -3.4743670588359237, -1.3164447844028473, -4.259746049530804, -1.6380761805921793, 0.8160000387579203, 0.6240000296384096, 0.2240000106394291, 0.0, 0.0, 0.0, 0.0, 0.0, 1.71039497550431E9, 0.0, 2024-03-13 22:42:55.504
77.0, -1.9971065763384104, 3.466887258924544, 10.83449017163366, 1.9372681770473719, 0.8160000387579203, 0.6240000296384096, 0.2240000106394291, 0.0, 0.0, 0.0, 0.0, 0.0, 1.71039497550431E9, 0.0, 2024-03-13 22:42:55.504
78.0, 4.323324348777533, 13.070950345136225, 3.096637163311243, 4.289665249176323, 0.8160000387579203, 0.6240000296384096, 0.2240000106394291, 0.0, 0.0, 0.0, 0.0, 0.0, 1.7103949755200624E9, 0.0, 2024-03-13 22:42:55.520
78.0, 4.4467410473152995, 7.595736810006201, 3.2237937618047, 6.04367832839489, 0.8160000387579203, 0.6240000296384096, 0.2240000106394291, 0.0, 0.0, 0.0, 0.0, 0.0, 1.7103949755200624E9, 0.0, 2024-03-13 22:42:55.520
79.0, -7.483539811335504, -3.6090034572407603, 1.7614928791299462, -0.2131742974743247, 0.8160000387579203, 0.6240000296384096, 0.2240000106394291, 0.0, 0.0, 0.0, 0.0, 0.0, 1.7103949755207593E9, 0.0, 2024-03-13 22:42:55.520
79.0, -4.349503648467362, 4.588857245631516, 3.388349359855056, 5.187241238541901, 0.8160000387579203, 0.6240000296384096, 0.2240000106394291, 0.0, 0.0, 0.0, 0.0, 0.0, 1.7103949755207593E9, 0.0, 2024-03-13 22:42:55.520
80.0, 7.367602912709117, 12.566063851118088, 5.512612534686923, 15.034397821873426, 0.8160000387579203, 0.6240000296384096, 0.2400000113993883, 0.0, 0.0, 0.0, 0.0, 0.0, 1.710394975534746E9, 0.0, 2024-03-13 22:42:55.534
80.0, -12.988672546111047, -3.829657554626465, 2.730126967653632, 0.23561369720846415, 0.8160000387579203, 0.6240000296384096, 0.2400000113993883, 0.0, 0.0, 0.0, 0.0, 0.0, 1.710394975534746E9, 0.0, 2024-03-13 22:42:55.534
81.0, -15.554243915714324, -7.958507105708122, -5.067564439959824, -4.248526349663734, 0.8160000387579203, 0.6240000296384096, 0.2400000113993883, 0.0, 0.0, 0.0, 0.0, 0.0, 1.7103949755499744E9, 0.0, 2024-03-13 22:42:55.549
81.0, -15.135375120677054, -6.630842621438205, -8.616729497909546, -4.82821084279567, 0.8160000387579203, 0.6240000296384096, 0.2400000113993883, 0.0, 0.0, 0.0, 0.0, 0.0, 1.7103949755499744E9, 0.0, 2024-03-13 22:42:55.549
82.0, -10.613836074247956, 0.14211619831621647, 2.053205075673759, 3.2911119610071182, 0.8160000387579203, 0.6240000296384096, 0.2400000113993883, 0.0, 0.0, 0.0, 0.0, 0.0, 1.7103949755506916E9, 0.0, 2024-03-13 22:42:55.550
82.0, -14.335036530159414, -0.39642939530313015, 2.703947667963803, -1.20798768568784, 0.8160000387579203, 0.6240000296384096, 0.2400000113993883, 0.0, 0.0, 0.0, 0.0, 0.0, 1.7103949755506916E9, 0.0, 2024-03-13 22:42:55.550
83.0, -8.310057701542974, 0.14959599822759628, 7.352643312886357, 3.21631396189332, 0.8160000387579203, 0.6240000296384096, 0.2400000113993883, 0.0, 0.0, 0.0, 0.0, 0.0, 1.7103949755643082E9, 0.0, 2024-03-13 22:42:55.564
83.0, -8.05574450455606, 6.245632926002145, 12.289311254397035, 7.722893408499658, 0.8160000387579203, 0.6240000296384096, 0.2400000113993883, 0.0, 0.0, 0.0, 0.0, 0.0, 1.7103949755643082E9, 0.0, 2024-03-13 22:42:55.564
84.0, -15.883355111815035, -5.097483639605343, 3.575344357639551, -5.127402839250863, 0.8160000387579203, 0.6240000296384096, 0.2400000113993883, 0.0, 0.0, 0.0, 0.0, 0.0, 1.7103949755799925E9, 0.0, 2024-03-13 22:42:55.579
84.0, -12.816637148149312, -3.3920892598107457, -15.31489031855017, -15.29619081877172, 0.8160000387579203, 0.6240000296384096, 0.2400000113993883, 0.0, 0.0, 0.0, 0.0, 0.0, 1.7103949755799925E9, 0.0, 2024-03-13 22:42:55.579
85.0, -16.07409000955522, -0.482447094283998, -7.913628306239843, -5.0488649401813745, 0.8160000387579203, 0.6240000296384096, 0.2400000113993883, 0.0, 0.0, 0.0, 0.0, 0.0, 1.7103949755807743E9, 0.0, 2024-03-13 22:42:55.580
85.0, -12.225732955150306, -5.606110033579171, 5.62106963340193, -6.350350124761462, 0.8160000387579203, 0.6240000296384096, 0.2400000113993883, 0.0, 0.0, 0.0, 0.0, 0.0, 1.7103949755807743E9, 0.0, 2024-03-13 22:42:55.580
86.0, -23.067702926695347, -14.989519022405148, -2.498253170400858, -12.573543651029468, 0.8160000387579203, 0.6240000296384096, 0.2400000113993883, 0.0, 0.0, 0.0, 0.0, 0.0, 1.710394975594483E9, 0.0, 2024-03-13 22:42:55.594
86.0, -9.585363586433232, -10.625055774115026, -8.87852249480784, -16.605155803263187, 0.8160000387579203, 0.6240000296384096, 0.2400000113993883, 0.0, 0.0, 0.0, 0.0, 0.0, 1.710394975594483E9, 0.0, 2024-03-13 22:42:55.594
87.0, -8.321277401410043, -6.327910725027323, 2.939561365172267, -11.582470162771642, 0.8160000387579203, 0.6240000296384096, 0.2400000113993883, 0.0, 0.0, 0.0, 0.0, 0.0, 1.7103949756102917E9, 0.0, 2024-03-13 22:42:55.610
87.0, -21.620361643843353, -16.49669870454818, -6.2568526258692145, -20.90978065226227, 0.8160000387579203, 0.6240000296384096, 0.2400000113993883, 0.0, 0.0, 0.0, 0.0, 0.0, 1.7103949756102917E9, 0.0, 2024-03-13 22:42:55.610
88.0, -18.183393584564328, -13.418761041015387, -12.248172354884446, -16.601415903307498, 0.8160000387579203, 0.6240000296384096, 0.2400000113993883, 0.0, 0.0, 0.0, 0.0, 0.0, 1.71039497561073E9, 0.0, 2024-03-13 22:42:55.610
88.0, -11.391735265031457, -3.9231550535187125, 0.5535051934421062, -7.812651007436216, 0.8160000387579203, 0.6240000296384096, 0.2400000113993883, 0.0, 0.0, 0.0, 0.0, 0.0, 1.71039497561073E9, 0.0, 2024-03-13 22:42:55.610
89.0, -20.14684106130153, -12.801677548326552, -4.772112343460321, -20.05334356240928, 0.8160000387579203, 0.6240000296384096, 0.2400000113993883, 0.0, 0.0, 0.0, 0.0, 0.0, 1.7103949756244152E9, 0.0, 2024-03-13 22:42:55.624
89.0, -27.948272368870676, -19.107148873619735, -22.630134631879628, -28.64015386067331, 0.8160000387579203, 0.6240000296384096, 0.2400000113993883, 0.0, 0.0, 0.0, 0.0, 0.0, 1.7103949756244152E9, 0.0, 2024-03-13 22:42:55.624
90.0, -18.759338177740574, -13.587056539021432, -28.475598262622952, -20.775144253857434, 0.8160000387579203, 0.6240000296384096, 0.2240000106394291, 0.0, 0.0, 0.0, 0.0, 0.0, 1.7103949756399968E9, 0.0, 2024-03-13 22:42:55.639
90.0, -22.611435132101178, -12.027518257498741, -16.784671001136303, -16.702393202111125, 0.8160000387579203, 0.6240000296384096, 0.2240000106394291, 0.0, 0.0, 0.0, 0.0, 0.0, 1.7103949756399968E9, 0.0, 2024-03-13 22:42:55.639
91.0, -11.395475164987147, -2.5880107693374157, -12.966233146376908, -15.015698322094977, 0.8160000387579203, 0.6240000296384096, 0.2240000106394291, 0.0, 0.0, 0.0, 0.0, 0.0, 1.7103949756406605E9, 0.0, 2024-03-13 22:42:55.640
91.0, 0.19447479769587517, 4.02787225227803, -5.998799528926611, -2.2738591730594635, 0.8160000387579203, 0.6240000296384096, 0.2240000106394291, 0.0, 0.0, 0.0, 0.0, 0.0, 1.7103949756406605E9, 0.0, 2024-03-13 22:42:55.640
92.0, -15.801077312789857, 1.2640861850231886, 3.3621700601652265, -1.9110888773575425, 0.8160000387579203, 0.6240000296384096, 0.2240000106394291, 0.0, 0.0, 0.0, 0.0, 0.0, 1.7103949756549506E9, 0.0, 2024-03-13 22:42:55.654
92.0, -15.644001514650881, -0.4375682948157191, 7.382562512531877, -3.4070488596335053, 0.8160000387579203, 0.6240000296384096, 0.2240000106394291, 0.0, 0.0, 0.0, 0.0, 0.0, 1.7103949756549506E9, 0.0, 2024-03-13 22:42:55.654
93.0, -8.08192380424589, -1.6679953802376986, -1.686694880016148, -2.621669868938625, 0.8160000387579203, 0.6240000296384096, 0.2240000106394291, 0.0, 0.0, 0.0, 0.0, 0.0, 1.7103949756703305E9, 0.0, 2024-03-13 22:42:55.670
93.0, -2.905902265571058, 9.64894188567996, 0.4712273944169283, 1.8587302779778838, 0.8160000387579203, 0.6240000296384096, 0.2240000106394291, 0.0, 0.0, 0.0, 0.0, 0.0, 1.7103949756703305E9, 0.0, 2024-03-13 22:42:55.670
94.0, -11.459053464233875, 5.63976913318038, 7.9061485063284636, -2.775005767121911, 0.8160000387579203, 0.6240000296384096, 0.2240000106394291, 0.0, 0.0, 0.0, 0.0, 0.0, 1.710394975670886E9, 0.0, 2024-03-13 22:42:55.670
94.0, 1.1406694864854217, 9.514305487275124, 6.1783147267997265, 3.302331660874188, 0.8160000387579203, 0.6240000296384096, 0.2240000106394291, 0.0, 0.0, 0.0, 0.0, 0.0, 1.710394975670886E9, 0.0, 2024-03-13 22:42:55.670
95.0, 8.104363203980029, 14.772604824975133, 10.673674473538995, 10.097729880362749, 0.8160000387579203, 0.6240000296384096, 0.2240000106394291, 0.0, 0.0, 0.0, 0.0, 0.0, 1.71039497568431E9, 0.0, 2024-03-13 22:42:55.684
95.0, -6.208233926445246, 5.026425540447235, 15.610342415049672, 8.82616389542818, 0.8160000387579203, 0.6240000296384096, 0.2240000106394291, 0.0, 0.0, 0.0, 0.0, 0.0, 1.71039497568431E9, 0.0, 2024-03-13 22:42:55.684
96.0, -4.375682948157191, 3.818437854759395, 2.849803766235709, 3.134036162868142, 0.8160000387579203, 0.6240000296384096, 0.2240000106394291, 0.0, 0.0, 0.0, 0.0, 0.0, 1.7103949756999924E9, 0.0, 2024-03-13 22:42:55.699
96.0, 12.633382050320506, 23.37437472306192, 8.560630998574197, 11.014005369506776, 0.8160000387579203, 0.6240000296384096, 0.2240000106394291, 0.0, 0.0, 0.0, 0.0, 0.0, 1.7103949756999924E9, 0.0, 2024-03-13 22:42:55.699
97.0, 5.262039237655699, 8.4858329994604, 12.180854155682027, 7.270365513861179, 0.8160000387579203, 0.6240000296384096, 0.2240000106394291, 0.0, 0.0, 0.0, 0.0, 0.0, 1.71039497570067E9, 0.0, 2024-03-13 22:42:55.700
97.0, -11.051404369063675, 0.14959599822759628, 3.6052635572850704, -3.7660792553797364, 0.8160000387579203, 0.6240000296384096, 0.2240000106394291, 0.0, 0.0, 0.0, 0.0, 0.0, 1.71039497570067E9, 0.0, 2024-03-13 22:42:55.700
98.0, -3.5603847578167915, 10.123909180052578, 2.1841015741229057, 10.224886478856206, 0.8160000387579203, 0.6240000296384096, 0.2240000106394291, 0.0, 0.0, 0.0, 0.0, 0.0, 1.710394975714274E9, 0.0, 2024-03-13 22:42:55.714
98.0, -1.0957906870171428, 11.017745269462466, 9.880815682932734, 12.44264715258032, 0.8160000387579203, 0.6240000296384096, 0.2240000106394291, 0.0, 0.0, 0.0, 0.0, 0.0, 1.710394975714274E9, 0.0, 2024-03-13 22:42:55.714
99.0, -15.976852610707283, -1.331404384225607, 1.6044170809909701, 1.5894574811682105, 0.8160000387579203, 0.6240000296384096, 0.2240000106394291, 0.0, 0.0, 0.0, 0.0, 0.0, 1.7103949757299352E9, 0.0, 2024-03-13 22:42:55.729
99.0, 4.944147741422057, 11.881662159226835, 13.381362041458488, 9.806017683818936, 0.8160000387579203, 0.6240000296384096, 0.2240000106394291, 0.0, 0.0, 0.0, 0.0, 0.0, 1.7103949757299352E9, 0.0, 2024-03-13 22:42:55.729
100.0, 4.581377445720136, 20.07204306218773, 7.958507105708122, 13.70299343764782, 0.8160000387579203, 0.6240000296384096, 0.2240000106394291, 0.0, 0.0, 0.0, 0.0, 0.0, 1.7103949757306747E9, 0.0, 2024-03-13 22:42:55.730
100.0, 0.8190380902960896, 13.171927643939853, 12.034998057410121, 4.873089642263949, 0.8160000387579203, 0.6240000296384096, 0.2240000106394291, 0.0, 0.0, 0.0, 0.0, 0.0, 1.7103949757306747E9, 0.0, 2024-03-13 22:42:55.730
0.0, -778.884654421825, -390.2660401761532, -512.4728810782544, -461.16332363616675, 0.8160000387579203, 0.6240000296384096, 0.2240000106394291, 0.0, 0.0, 0.0, 0.0, 0.0, 1.710394975744946E9, 0.0, 2024-03-13 22:42:55.744
1.0, -772.0406375029124, -377.2175292307511, -506.1935890526511, -446.9442240046337, 0.8160000387579203, 0.6240000296384096, 0.2240000106394291, 0.0, 0.0, 0.0, 0.0, 0.0, 1.7103949757456903E9, 0.0, 2024-03-13 22:42:55.745
1.0, -778.5742427255027, -379.1734969075769, -503.5083408844657, -449.2779215769842, 0.8160000387579203, 0.6240000296384096, 0.2240000106394291, 0.0, 0.0, 0.0, 0.0, 0.0, 1.7103949757456903E9, 0.0, 2024-03-13 22:42:55.745
2.0, -793.2234308519401, -397.16615559440106, -511.42570909066126, -469.17418934125453, 0.8160000387579203, 0.6240000296384096, 0.2240000106394291, 0.0, 0.0, 0.0, 0.0, 0.0, 1.710394975759284E9, 0.0, 2024-03-13 22:42:55.759
2.0, -786.7272246289067, -392.6745357476175, -514.709341251757, -464.6563901947811, 0.8160000387579203, 0.6240000296384096, 0.2240000106394291, 0.0, 0.0, 0.0, 0.0, 0.0, 1.710394975759284E9, 0.0, 2024-03-13 22:42:55.759
3.0, -784.03449666081, -396.02548610791564, -507.5885717361234, -458.7660477645695, 0.8160000387579203, 0.6240000296384096, 0.2240000106394291, 0.0, 0.0, 0.0, 0.0, 0.0, 1.7103949757749765E9, 0.0, 2024-03-13 22:42:55.774
3.0, -789.4947505961172, -401.6353360414505, -502.2592142992653, -454.23328901827335, 0.8160000387579203, 0.6240000296384096, 0.2240000106394291, 0.0, 0.0, 0.0, 0.0, 0.0, 1.7103949757749765E9, 0.0, 2024-03-13 22:42:55.774
4.0, -787.9950507138856, -395.1129505187273, -500.6921962178312, -453.42547062784433, 0.8160000387579203, 0.6240000296384096, 0.2240000106394291, 0.0, 0.0, 0.0, 0.0, 0.0, 1.7103949757756693E9, 0.0, 2024-03-13 22:42:55.775
4.0, -787.0937348245643, -396.2349205054343, -504.72380837006494, -455.3365595052019, 0.8160000387579203, 0.6240000296384096, 0.2240000106394291, 0.0, 0.0, 0.0, 0.0, 0.0, 1.7103949757756693E9, 0.0, 2024-03-13 22:42:55.775
5.0, -786.3943735328503, -392.7081948472187, -498.9568826383911, -460.6285179425031, 0.8160000387579203, 0.6240000296384096, 0.2240000106394291, 0.0, 0.0, 0.0, 0.0, 0.0, 1.710394975789278E9, 0.0, 2024-03-13 22:42:55.789
5.0, -780.9677786971442, -387.5209536086768, -511.1227771942504, -464.151503700763, 0.8160000387579203, 0.6240000296384096, 0.2240000106394291, 0.0, 0.0, 0.0, 0.0, 0.0, 1.710394975789278E9, 0.0, 2024-03-13 22:42:55.789
6.0, -789.9622380905785, -393.8974830331281, -522.1816613632254, -462.86123821604997, 0.8160000387579203, 0.6240000296384096, 0.2240000106394291, 0.0, 0.0, 0.0, 0.0, 0.0, 1.71039497580515E9, 0.0, 2024-03-13 22:42:55.805
6.0, -791.9556047669612, -389.61155768390745, -498.9194836388342, -451.2451089536771, 0.8160000387579203, 0.6240000296384096, 0.2240000106394291, 0.0, 0.0, 0.0, 0.0, 0.0, 1.71039497580515E9, 0.0, 2024-03-13 22:42:55.805
7.0, -795.1719187288545, -395.6402764124796, -501.4401762089692, -451.2077099541202, 0.8160000387579203, 0.6240000296384096, 0.2240000106394291, 0.0, 0.0, 0.0, 0.0, 0.0, 1.7103949758057315E9, 0.0, 2024-03-13 22:42:55.805
7.0, -787.2844697223045, -389.8845703806728, -493.19743670662865, -442.40772535838187, 0.8160000387579203, 0.6240000296384096, 0.2240000106394291, 0.0, 0.0, 0.0, 0.0, 0.0, 1.7103949758057315E9, 0.0, 2024-03-13 22:42:55.805
8.0, -791.6302334708162, -396.1937816059217, -501.9712420026772, -451.75373534765095, 0.8160000387579203, 0.6240000296384096, 0.2240000106394291, 0.0, 0.0, 0.0, 0.0, 0.0, 1.7103949758197691E9, 0.0, 2024-03-13 22:42:55.819
8.0, -792.5315493601374, -398.8565903743729, -495.9238237743266, -451.0394144561142, 0.8160000387579203, 0.6240000296384096, 0.2240000106394291, 0.0, 0.0, 0.0, 0.0, 0.0, 1.7103949758197691E9, 0.0, 2024-03-13 22:42:55.819
9.0, -784.7562973522581, -389.7798531819135, -493.60508580179885, -444.9807765278965, 0.8160000387579203, 0.6240000296384096, 0.2240000106394291, 0.0, 0.0, 0.0, 0.0, 0.0, 1.7103949758353617E9, 0.0, 2024-03-13 22:42:55.835
9.0, -773.8956278809346, -381.49223488010466, -489.7642085473053, -435.93395853508264, 0.8160000387579203, 0.6240000296384096, 0.2240000106394291, 0.0, 0.0, 0.0, 0.0, 0.0, 1.7103949758353617E9, 0.0, 2024-03-13 22:42:55.835
10.0, -771.2066398127936, -365.6462787678465, -475.5712882154621, -426.980638041161, 0.8160000387579203, 0.6240000296384096, 0.2240000106394291, 0.0, 0.0, 0.0, 0.0, 0.0, 1.7103949758359108E9, 0.0, 2024-03-13 22:42:55.835
10.0, -796.047055318486, -397.6411228887737, -510.0344663071446, -460.27322744671255, 0.8160000387579203, 0.6240000296384096, 0.2240000106394291, 0.0, 0.0, 0.0, 0.0, 0.0, 1.7103949758359108E9, 0.0, 2024-03-13 22:42:55.835
11.0, -803.0331884357147, -412.0846165176481, -527.5334581998177, -472.7532735988498, 0.8160000387579203, 0.6240000296384096, 0.2240000106394291, 0.0, 0.0, 0.0, 0.0, 0.0, 1.7103949758493493E9, 0.0, 2024-03-13 22:42:55.849
11.0, -813.9312569065951, -419.65791392792016, -523.6439622459002, -474.4474482787773, 0.8160000387579203, 0.6240000296384096, 0.2240000106394291, 0.0, 0.0, 0.0, 0.0, 0.0, 1.7103949758493493E9, 0.0, 2024-03-13 22:42:55.849
12.0, -824.7246081787162, -426.8684410424903, -522.6790680573322, -480.8875560024753, 0.8160000387579203, 0.6240000296384096, 0.2240000106394291, 0.0, 0.0, 0.0, 0.0, 0.0, 1.710394975864978E9, 0.0, 2024-03-13 22:42:55.864
12.0, -814.619398498442, -417.81040334980935, -519.051365100313, -471.1974752172828, 0.8160000387579203, 0.6240000296384096, 0.2240000106394291, 0.0, 0.0, 0.0, 0.0, 0.0, 1.710394975864978E9, 0.0, 2024-03-13 22:42:55.864
13.0, -816.2387751792558, -417.29055725596845, -517.1514959228225, -471.930495608598, 0.8160000387579203, 0.6240000296384096, 0.2240000106394291, 0.0, 0.0, 0.0, 0.0, 0.0, 1.7103949758657005E9, 0.0, 2024-03-13 22:42:55.865
13.0, -818.2097024559043, -423.95879887696356, -518.2136275102384, -479.5598915182054, 0.8160000387579203, 0.6240000296384096, 0.2240000106394291, 0.0, 0.0, 0.0, 0.0, 0.0, 1.7103949758657005E9, 0.0, 2024-03-13 22:42:55.865
14.0, -827.1368436501361, -428.07268882822245, -525.9552204185165, -479.25321972183883, 0.8160000387579203, 0.6240000296384096, 0.2240000106394291, 0.0, 0.0, 0.0, 0.0, 0.0, 1.7103949758792832E9, 0.0, 2024-03-13 22:42:55.879
14.0, -820.9360895236023, -422.22348529752344, -518.1612689108588, -471.76220011059195, 0.8160000387579203, 0.6240000296384096, 0.2240000106394291, 0.0, 0.0, 0.0, 0.0, 0.0, 1.7103949758792832E9, 0.0, 2024-03-13 22:42:55.879
15.0, -827.2640002486296, -427.3583679366857, -510.93952209642157, -471.881876909174, 0.8160000387579203, 0.6240000296384096, 0.2240000106394291, 0.0, 0.0, 0.0, 0.0, 0.0, 1.710394975895557E9, 0.0, 2024-03-13 22:42:55.895
15.0, -826.5795985567383, -422.7545510912314, -522.8324039555155, -472.64855640009046, 0.8160000387579203, 0.6240000296384096, 0.2240000106394291, 0.0, 0.0, 0.0, 0.0, 0.0, 1.710394975895557E9, 0.0, 2024-03-13 22:42:55.895
16.0, -813.1009991164319, -411.9350205194205, -512.3008456802927, -463.9981678025797, 0.8160000387579203, 0.6240000296384096, 0.2240000106394291, 0.0, 0.0, 0.0, 0.0, 0.0, 1.7103949758960295E9, 0.0, 2024-03-13 22:42:55.896
16.0, -813.4413300123997, -409.1936738518998, -501.23074181145057, -457.68521667737514, 0.8160000387579203, 0.6240000296384096, 0.2240000106394291, 0.0, 0.0, 0.0, 0.0, 0.0, 1.7103949758960295E9, 0.0, 2024-03-13 22:42:55.896
17.0, -803.9270245251246, -412.5296646123752, -512.2746663806029, -467.34911816287786, 0.8160000387579203, 0.6240000296384096, 0.2240000106394291, 0.0, 0.0, 0.0, 0.0, 0.0, 1.7103949759096785E9, 0.0, 2024-03-13 22:42:55.909
17.0, -805.5950199053623, -407.9669866664335, -523.5093258474953, -468.5496260486543, 0.8160000387579203, 0.6240000296384096, 0.2240000106394291, 0.0, 0.0, 0.0, 0.0, 0.0, 1.7103949759096785E9, 0.0, 2024-03-13 22:42:55.909
18.0, -805.5314416061155, -404.27944531012326, -506.5974982478656, -459.50280805584043, 0.8160000387579203, 0.6240000296384096, 0.2240000106394291, 0.0, 0.0, 0.0, 0.0, 0.0, 1.7103949759250126E9, 0.0, 2024-03-13 22:42:55.925
18.0, -810.6251853457652, -412.4586065132171, -502.34897189820185, -467.98116125538945, 0.8160000387579203, 0.6240000296384096, 0.2240000106394291, 0.0, 0.0, 0.0, 0.0, 0.0, 1.7103949759250126E9, 0.0, 2024-03-13 22:42:55.925
19.0, -815.9882018822245, -409.5265249479562, -505.9691950553097, -461.3727580336854, 0.8160000387579203, 0.6240000296384096, 0.2240000106394291, 0.0, 0.0, 0.0, 0.0, 0.0, 1.710394975925784E9, 0.0, 2024-03-13 22:42:55.925
19.0, -805.4080249075778, -400.8873560503125, -505.53536666044965, -452.2174829421565, 0.8160000387579203, 0.6240000296384096, 0.2240000106394291, 0.0, 0.0, 0.0, 0.0, 0.0, 1.710394975925784E9, 0.0, 2024-03-13 22:42:55.925
20.0, -818.9988213465549, -418.2629312444478, -510.7338275988586, -465.6736429827288, 0.8160000387579203, 0.6240000296384096, 0.2240000106394291, 0.0, 0.0, 0.0, 0.0, 0.0, 1.7103949759392662E9, 0.0, 2024-03-13 22:42:55.939
20.0, -813.9050776069053, -422.9415460890159, -519.5487717944197, -470.24754062853754, 0.8160000387579203, 0.6240000296384096, 0.2240000106394291, 0.0, 0.0, 0.0, 0.0, 0.0, 1.7103949759392662E9, 0.0, 2024-03-13 22:42:55.939
21.0, -814.825092996005, -411.7442856216803, -516.5979907293804, -464.35719819832593, 0.8160000387579203, 0.6240000296384096, 0.2240000106394291, 0.0, 0.0, 0.0, 0.0, 0.0, 1.7103949759550204E9, 0.0, 2024-03-13 22:42:55.955
21.0, -820.9323496236466, -413.086909705773, -513.6285101645626, -468.87125744484365, 0.8160000387579203, 0.6240000296384096, 0.2240000106394291, 0.0, 0.0, 0.0, 0.0, 0.0, 1.7103949759550204E9, 0.0, 2024-03-13 22:42:55.955
22.0, -816.6688636741601, -413.5730967000127, -519.8330041910522, -474.0734582832083, 0.8160000387579203, 0.6240000296384096, 0.2240000106394291, 0.0, 0.0, 0.0, 0.0, 0.0, 1.7103949759557772E9, 0.0, 2024-03-13 22:42:55.955
22.0, -815.4945350880735, -407.346163273789, -528.397375089582, -471.8257784098387, 0.8160000387579203, 0.6240000296384096, 0.2240000106394291, 0.0, 0.0, 0.0, 0.0, 0.0, 1.7103949759557772E9, 0.0, 2024-03-13 22:42:55.955
23.0, -810.857059143018, -412.0846165176481, -520.0947971879505, -473.75930668693036, 0.8160000387579203, 0.6240000296384096, 0.2240000106394291, 0.0, 0.0, 0.0, 0.0, 0.0, 1.7103949759861038E9, 0.0, 2024-03-13 22:42:55.986
23.0, -810.4157509482466, -408.4606534605846, -506.6199376475997, -467.21074186451733, 0.8160000387579203, 0.6240000296384096, 0.2240000106394291, 0.0, 0.0, 0.0, 0.0, 0.0, 1.7103949759861038E9, 0.0, 2024-03-13 22:42:55.986
24.0, -811.0365743408911, -407.9295876668766, -512.7832927745767, -464.9294028915465, 0.8160000387579203, 0.6240000296384096, 0.2240000106394291, 0.0, 0.0, 0.0, 0.0, 0.0, 1.7103949759867609E9, 0.0, 2024-03-13 22:42:55.986
24.0, -796.047055318486, -405.0536046009511, -515.7976521388628, -462.0384602257982, 0.8160000387579203, 0.6240000296384096, 0.2240000106394291, 0.0, 0.0, 0.0, 0.0, 0.0, 1.7103949759867609E9, 0.0, 2024-03-13 22:42:55.986
25.0, -826.9947274518199, -426.59542834572494, -528.9583600829355, -482.94450097810477, 0.8160000387579203, 0.6240000296384096, 0.2240000106394291, 0.0, 0.0, 0.0, 0.0, 0.0, 1.7103949759873445E9, 0.0, 2024-03-13 22:42:55.987
25.0, -826.4561818582006, -430.04361610487103, -531.292057655286, -485.5549511471763, 0.8160000387579203, 0.6240000296384096, 0.2240000106394291, 0.0, 0.0, 0.0, 0.0, 0.0, 1.7103949759873445E9, 0.0, 2024-03-13 22:42:55.987
26.0, -816.7698409729637, -427.0516961403191, -526.4713266124018, -478.53889883030206, 0.8160000387579203, 0.6240000296384096, 0.2240000106394291, 0.0, 0.0, 0.0, 0.0, 0.0, 1.7103949759997497E9, 0.0, 2024-03-13 22:42:55.999
26.0, -819.4887482407503, -419.9870251240209, -513.9351819609292, -471.4779677139595, 0.8160000387579203, 0.6240000296384096, 0.2240000106394291, 0.0, 0.0, 0.0, 0.0, 0.0, 1.7103949759997497E9, 0.0, 2024-03-13 22:42:55.999
27.0, -816.6352045745589, -415.6038623759523, -516.4446548311971, -476.24634015746415, 0.8160000387579203, 0.6240000296384096, 0.2240000106394291, 0.0, 0.0, 0.0, 0.0, 0.0, 1.71039497601544E9, 0.0, 2024-03-13 22:42:56.015
27.0, -806.4252776955254, -409.84067654423416, -520.1172365876846, -471.67992231156677, 0.8160000387579203, 0.6240000296384096, 0.2240000106394291, 0.0, 0.0, 0.0, 0.0, 0.0, 1.71039497601544E9, 0.0, 2024-03-13 22:42:56.015
28.0, -798.4069321905263, -404.9301879024133, -517.4095490197651, -468.4411689499393, 0.8160000387579203, 0.6240000296384096, 0.2240000106394291, 0.0, 0.0, 0.0, 0.0, 0.0, 1.710394976029987E9, 0.0, 2024-03-13 22:42:56.029
28.0, -813.1570976157673, -415.342069379054, -518.8830696023069, -479.88152291439474, 0.8160000387579203, 0.6240000296384096, 0.2240000106394291, 0.0, 0.0, 0.0, 0.0, 0.0, 1.710394976029987E9, 0.0, 2024-03-13 22:42:56.029
29.0, -803.1042465348728, -409.91173464339226, -529.0593373817392, -473.61719048861414, 0.8160000387579203, 0.6240000296384096, 0.2240000106394291, 0.0, 0.0, 0.0, 0.0, 0.0, 1.7103949760307095E9, 0.0, 2024-03-13 22:42:56.030
29.0, -797.071787906345, -401.64655574131757, -514.0436390596442, -460.02265414968133, 0.8160000387579203, 0.6240000296384096, 0.2240000106394291, 0.0, 0.0, 0.0, 0.0, 0.0, 1.7103949760307095E9, 0.0, 2024-03-13 22:42:56.030
30.0, -818.6173515510745, -412.7054399102926, -513.6920884638093, -467.8839238565415, 0.8160000387579203, 0.6240000296384096, 0.2240000106394291, 0.0, 0.0, 0.0, 0.0, 0.0, 1.7103949760450268E9, 0.0, 2024-03-13 22:42:56.045
30.0, -810.9916955414228, -408.4569135606289, -519.8554435907863, -467.4463555617258, 0.8160000387579203, 0.6240000296384096, 0.2240000106394291, 0.0, 0.0, 0.0, 0.0, 0.0, 1.7103949760450268E9, 0.0, 2024-03-13 22:42:56.045
31.0, -810.8944581425749, -399.1146434713155, -516.9271019254811, -459.35321205761284, 0.8160000387579203, 0.6240000296384096, 0.2240000106394291, 0.0, 0.0, 0.0, 0.0, 0.0, 1.710394976045889E9, 0.0, 2024-03-13 22:42:56.045
31.0, -799.1287328819744, -397.1586757944897, -505.53536666044965, -454.12483191955835, 0.8160000387579203, 0.6240000296384096, 0.2240000106394291, 0.0, 0.0, 0.0, 0.0, 0.0, 1.710394976045889E9, 0.0, 2024-03-13 22:42:56.045
32.0, -802.5993600408547, -400.61060345359147, -513.9464016607963, -460.2470481470227, 0.8160000387579203, 0.6240000296384096, 0.2240000106394291, 0.0, 0.0, 0.0, 0.0, 0.0, 1.7103949760593395E9, 0.0, 2024-03-13 22:42:56.059
32.0, -810.2698948499747, -407.937067466788, -516.2763593331911, -463.4147434094921, 0.8160000387579203, 0.6240000296384096, 0.2240000106394291, 0.0, 0.0, 0.0, 0.0, 0.0, 1.7103949760593395E9, 0.0, 2024-03-13 22:42:56.059
33.0, -793.5450622481294, -397.4429081911221, -510.65154979983345, -458.4855552678928, 0.8160000387579203, 0.6240000296384096, 0.2240000106394291, 0.0, 0.0, 0.0, 0.0, 0.0, 1.7103949760752237E9, 0.0, 2024-03-13 22:42:56.075
33.0, -807.0648005879484, -408.14650186430663, -509.49592071352527, -461.4849550323561, 0.8160000387579203, 0.6240000296384096, 0.2240000106394291, 0.0, 0.0, 0.0, 0.0, 0.0, 1.7103949760752237E9, 0.0, 2024-03-13 22:42:56.075
34.0, -807.4874092829414, -405.95118059031665, -510.8535043974407, -460.0712728491053, 0.8160000387579203, 0.6240000296384096, 0.2240000106394291, 0.0, 0.0, 0.0, 0.0, 0.0, 1.71039497607569E9, 0.0, 2024-03-13 22:42:56.075
34.0, -797.7187905986793, -402.79844492767006, -513.0301261716522, -459.5252474555746, 0.8160000387579203, 0.6240000296384096, 0.2240000106394291, 0.0, 0.0, 0.0, 0.0, 0.0, 1.71039497607569E9, 0.0, 2024-03-13 22:42:56.075
35.0, -803.0331884357147, -404.3093645097688, -504.7312881699763, -465.2884332872927, 0.8160000387579203, 0.6240000296384096, 0.2240000106394291, 0.0, 0.0, 0.0, 0.0, 0.0, 1.7103949760896213E9, 0.0, 2024-03-13 22:42:56.089
35.0, -813.1009991164319, -416.7445318624377, -517.6900415164419, -470.9543817201629, 0.8160000387579203, 0.6240000296384096, 0.2240000106394291, 0.0, 0.0, 0.0, 0.0, 0.0, 1.7103949760896213E9, 0.0, 2024-03-13 22:42:56.089
36.0, -811.6760972333141, -417.8702417491004, -533.3901415304281, -475.4460015669465, 0.8160000387579203, 0.6240000296384096, 0.2240000106394291, 0.0, 0.0, 0.0, 0.0, 0.0, 1.710394976105156E9, 0.0, 2024-03-13 22:42:56.105
36.0, -805.6174593050964, -409.0403379537165, -517.9705340131186, -466.9713882673532, 0.8160000387579203, 0.6240000296384096, 0.2240000106394291, 0.0, 0.0, 0.0, 0.0, 0.0, 1.710394976105156E9, 0.0, 2024-03-13 22:42:56.105
37.0, -803.8522265260108, -411.31793702673167, -511.1826155935414, -462.5919654192403, 0.8160000387579203, 0.6240000296384096, 0.2240000106394291, 0.0, 0.0, 0.0, 0.0, 0.0, 1.7103949761061897E9, 0.0, 2024-03-13 22:42:56.106
37.0, -796.6865782109089, -399.80652496311814, -519.7357667922042, -460.3742047455162, 0.8160000387579203, 0.6240000296384096, 0.2240000106394291, 0.0, 0.0, 0.0, 0.0, 0.0, 1.7103949761061897E9, 0.0, 2024-03-13 22:42:56.106
38.0, -804.0691407234408, -401.6428158413619, -521.7590526682325, -467.0723655661568, 0.8160000387579203, 0.6240000296384096, 0.2240000106394291, 0.0, 0.0, 0.0, 0.0, 0.0, 1.7103949761197128E9, 0.0, 2024-03-13 22:42:56.119
38.0, -799.9328113724478, -401.9681871375069, -510.9245624965988, -461.94870262686163, 0.8160000387579203, 0.6240000296384096, 0.2240000106394291, 0.0, 0.0, 0.0, 0.0, 0.0, 1.7103949761197128E9, 0.0, 2024-03-13 22:42:56.119
39.0, -800.3329806677066, -405.2742586983368, -519.7095874925144, -463.403523709625, 0.8160000387579203, 0.6240000296384096, 0.2240000106394291, 0.0, 0.0, 0.0, 0.0, 0.0, 1.7103949761352718E9, 0.0, 2024-03-13 22:42:56.135
39.0, -798.9080787845887, -408.8944818554446, -519.8479637908749, -467.46131516154855, 0.8160000387579203, 0.6240000296384096, 0.2240000106394291, 0.0, 0.0, 0.0, 0.0, 0.0, 1.7103949761352718E9, 0.0, 2024-03-13 22:42:56.135
40.0, -811.7546351323836, -411.54233102407306, -520.6632619812153, -469.30882573965937, 0.8160000387579203, 0.6240000296384096, 0.2400000113993883, 0.0, 0.0, 0.0, 0.0, 0.0, 1.7103949761359992E9, 0.0, 2024-03-13 22:42:56.135
40.0, -799.3493869793601, -408.0530043654144, -512.514019977767, -461.7317884294316, 0.8160000387579203, 0.6240000296384096, 0.2400000113993883, 0.0, 0.0, 0.0, 0.0, 0.0, 1.7103949761359992E9, 0.0, 2024-03-13 22:42:56.135
41.0, -795.4449314256199, -393.4150359388441, -511.82961828587577, -453.1374983312562, 0.8160000387579203, 0.6240000296384096, 0.2400000113993883, 0.0, 0.0, 0.0, 0.0, 0.0, 1.7103949761493075E9, 0.0, 2024-03-13 22:42:56.149
41.0, -809.3461395609193, -412.4212075136602, -522.80248475587, -467.1883024647832, 0.8160000387579203, 0.6240000296384096, 0.2400000113993883, 0.0, 0.0, 0.0, 0.0, 0.0, 1.7103949761493075E9, 0.0, 2024-03-13 22:42:56.149
42.0, -821.5344735165127, -415.7833775738254, -517.3272712207399, -471.8145587099716, 0.8160000387579203, 0.6240000296384096, 0.2400000113993883, 0.0, 0.0, 0.0, 0.0, 0.0, 1.7103949761649704E9, 0.0, 2024-03-13 22:42:56.164
42.0, -811.3357663373463, -411.8677023202181, -521.4785601715557, -465.16875648871064, 0.8160000387579203, 0.6240000296384096, 0.2400000113993883, 0.0, 0.0, 0.0, 0.0, 0.0, 1.7103949761649704E9, 0.0, 2024-03-13 22:42:56.164
43.0, -803.029448535759, -404.54497820697725, -509.8474713093601, -460.37794464547187, 0.8160000387579203, 0.6240000296384096, 0.2400000113993883, 0.0, 0.0, 0.0, 0.0, 0.0, 1.7103949761659367E9, 0.0, 2024-03-13 22:42:56.165
43.0, -811.3095870376565, -408.95806015469134, -510.9208225966431, -466.31316587515175, 0.8160000387579203, 0.6240000296384096, 0.2400000113993883, 0.0, 0.0, 0.0, 0.0, 0.0, 1.7103949761659367E9, 0.0, 2024-03-13 22:42:56.165
44.0, -809.4919956591912, -405.76044569257647, -521.8637698669918, -468.41872955020517, 0.8160000387579203, 0.6240000296384096, 0.2400000113993883, 0.0, 0.0, 0.0, 0.0, 0.0, 1.7103949761792867E9, 0.0, 2024-03-13 22:42:56.179
44.0, -798.3433538912795, -399.9673406612128, -518.2622462096624, -458.5453936671838, 0.8160000387579203, 0.6240000296384096, 0.2400000113993883, 0.0, 0.0, 0.0, 0.0, 0.0, 1.7103949761792867E9, 0.0, 2024-03-13 22:42:56.179
45.0, -811.9341503302567, -410.9028081316501, -513.2208610693924, -465.68860258255154, 0.8160000387579203, 0.6240000296384096, 0.2400000113993883, 0.0, 0.0, 0.0, 0.0, 0.0, 1.7103949761953936E9, 0.0, 2024-03-13 22:42:56.195
45.0, -792.0977209652774, -398.94260807335377, -509.9260092084296, -457.0307341851294, 0.8160000387579203, 0.6240000296384096, 0.2400000113993883, 0.0, 0.0, 0.0, 0.0, 0.0, 1.7103949761953936E9, 0.0, 2024-03-13 22:42:56.195
46.0, -788.9001065031625, -392.1846088534221, -510.1915421052836, -443.5820539444685, 0.8160000387579203, 0.6240000296384096, 0.2400000113993883, 0.0, 0.0, 0.0, 0.0, 0.0, 1.71039497619604E9, 0.0, 2024-03-13 22:42:56.196
46.0, -789.569548595231, -392.2631467524916, -498.16776374774054, -443.19310434907675, 0.8160000387579203, 0.6240000296384096, 0.2400000113993883, 0.0, 0.0, 0.0, 0.0, 0.0, 1.71039497619604E9, 0.0, 2024-03-13 22:42:56.196
47.0, -801.3764127553441, -406.61688278242946, -508.1196375298314, -457.4832620797679, 0.8160000387579203, 0.6240000296384096, 0.2400000113993883, 0.0, 0.0, 0.0, 0.0, 0.0, 1.7103949762093627E9, 0.0, 2024-03-13 22:42:56.209
47.0, -793.8292946447618, -397.0053398963064, -512.3382446798496, -450.3288334645331, 0.8160000387579203, 0.6240000296384096, 0.2400000113993883, 0.0, 0.0, 0.0, 0.0, 0.0, 1.7103949762093627E9, 0.0, 2024-03-13 22:42:56.209
48.0, -791.5292561720125, -402.54413173068315, -503.1867094882764, -451.390965051949, 0.8160000387579203, 0.6240000296384096, 0.2400000113993883, 0.0, 0.0, 0.0, 0.0, 0.0, 1.7103949762249715E9, 0.0, 2024-03-13 22:42:56.224
48.0, -803.2052238336764, -408.68878735788167, -514.6345432526432, -469.5294798370451, 0.8160000387579203, 0.6240000296384096, 0.2400000113993883, 0.0, 0.0, 0.0, 0.0, 0.0, 1.7103949762249715E9, 0.0, 2024-03-13 22:42:56.224
49.0, -797.023169206921, -404.34302360937, -519.6759283929132, -467.1583832651377, 0.8160000387579203, 0.6240000296384096, 0.2400000113993883, 0.0, 0.0, 0.0, 0.0, 0.0, 1.7103949762257736E9, 0.0, 2024-03-13 22:42:56.225
49.0, -789.4386520967819, -395.76369311101735, -502.8575982921757, -452.2137430422008, 0.8160000387579203, 0.6240000296384096, 0.2400000113993883, 0.0, 0.0, 0.0, 0.0, 0.0, 1.7103949762257736E9, 0.0, 2024-03-13 22:42:56.225
50.0, -801.630725952331, -406.646801982075, -504.35355827445164, -461.42885653302073, 0.8160000387579203, 0.6240000296384096, 0.2400000113993883, 0.0, 0.0, 0.0, 0.0, 0.0, 1.7103949762393346E9, 0.0, 2024-03-13 22:42:56.239
50.0, -800.7929883622564, -403.269672322087, -511.30977219203487, -461.75048792921007, 0.8160000387579203, 0.6240000296384096, 0.2400000113993883, 0.0, 0.0, 0.0, 0.0, 0.0, 1.7103949762393346E9, 0.0, 2024-03-13 22:42:56.239
51.0, -793.8405143446289, -397.3007919928059, -514.552265453618, -459.2933736583218, 0.8160000387579203, 0.6240000296384096, 0.2400000113993883, 0.0, 0.0, 0.0, 0.0, 0.0, 1.7103949762551415E9, 0.0, 2024-03-13 22:42:56.255
51.0, -801.5297486535273, -403.1574753234163, -517.4656475191005, -471.28723281621933, 0.8160000387579203, 0.6240000296384096, 0.2400000113993883, 0.0, 0.0, 0.0, 0.0, 0.0, 1.7103949762551415E9, 0.0, 2024-03-13 22:42:56.255
52.0, -812.1809837273322, -402.8283641273156, -522.1031234641559, -467.42391616199166, 0.8160000387579203, 0.6240000296384096, 0.2400000113993883, 0.0, 0.0, 0.0, 0.0, 0.0, 1.7103949762557921E9, 0.0, 2024-03-13 22:42:56.255
52.0, -795.6618456230499, -399.9785603610799, -526.0412381174974, -462.08333902526647, 0.8160000387579203, 0.6240000296384096, 0.2400000113993883, 0.0, 0.0, 0.0, 0.0, 0.0, 1.7103949762557921E9, 0.0, 2024-03-13 22:42:56.255
53.0, -797.8870860966854, -404.84417020343244, -522.1816613632254, -465.34827168658376, 0.8160000387579203, 0.6240000296384096, 0.2400000113993883, 0.0, 0.0, 0.0, 0.0, 0.0, 1.7103949762696517E9, 0.0, 2024-03-13 22:42:56.269
53.0, -803.7026305277832, -408.06796396523714, -512.4467017785646, -464.043046602048, 0.8160000387579203, 0.6240000296384096, 0.2400000113993883, 0.0, 0.0, 0.0, 0.0, 0.0, 1.7103949762696517E9, 0.0, 2024-03-13 22:42:56.269
54.0, -792.7746428572573, -399.72798706404865, -523.5355051471852, -467.28553986363113, 0.8160000387579203, 0.6240000296384096, 0.2400000113993883, 0.0, 0.0, 0.0, 0.0, 0.0, 1.7103949762853632E9, 0.0, 2024-03-13 22:42:56.285
54.0, -788.8066090042703, -391.2159747648984, -514.2044547577389, -454.8428927110508, 0.8160000387579203, 0.6240000296384096, 0.2400000113993883, 0.0, 0.0, 0.0, 0.0, 0.0, 1.7103949762853632E9, 0.0, 2024-03-13 22:42:56.285
55.0, -797.3859395026229, -398.5910574775189, -525.9813997182064, -471.38447021506727, 0.8160000387579203, 0.6240000296384096, 0.2400000113993883, 0.0, 0.0, 0.0, 0.0, 0.0, 1.7103949762859092E9, 0.0, 2024-03-13 22:42:56.285
55.0, -785.3995601446368, -390.2510805763304, -517.2823924212717, -461.3951974334195, 0.8160000387579203, 0.6240000296384096, 0.2400000113993883, 0.0, 0.0, 0.0, 0.0, 0.0, 1.7103949762859092E9, 0.0, 2024-03-13 22:42:56.285
56.0, -788.7056317054667, -388.68032259494066, -516.1641623345204, -456.72032248880714, 0.8160000387579203, 0.6240000296384096, 0.2400000113993883, 0.0, 0.0, 0.0, 0.0, 0.0, 1.7103949762994788E9, 0.0, 2024-03-13 22:42:56.299
56.0, -782.9499256736599, -386.1521502248943, -508.703061922919, -448.4401839869097, 0.8160000387579203, 0.6240000296384096, 0.2400000113993883, 0.0, 0.0, 0.0, 0.0, 0.0, 1.7103949762994788E9, 0.0, 2024-03-13 22:42:56.299
57.0, -781.9027536860667, -386.68321601860225, -505.61764445947483, -451.3273867527023, 0.8160000387579203, 0.6240000296384096, 0.2400000113993883, 0.0, 0.0, 0.0, 0.0, 0.0, 1.7103949763152277E9, 0.0, 2024-03-13 22:42:56.315
57.0, -772.6278017959557, -371.5852398974821, -497.35246555740014, -435.03638254571706, 0.8160000387579203, 0.6240000296384096, 0.2400000113993883, 0.0, 0.0, 0.0, 0.0, 0.0, 1.7103949763152277E9, 0.0, 2024-03-13 22:42:56.315
58.0, -777.714065735694, -378.41803711652756, -505.0716190659441, -441.37925287056714, 0.8160000387579203, 0.6240000296384096, 0.2400000113993883, 0.0, 0.0, 0.0, 0.0, 0.0, 1.7103949763158257E9, 0.0, 2024-03-13 22:42:56.315
58.0, -787.7033385173418, -392.94380854442716, -506.94904884370044, -451.4657630510628, 0.8160000387579203, 0.6240000296384096, 0.2400000113993883, 0.0, 0.0, 0.0, 0.0, 0.0, 1.7103949763158257E9, 0.0, 2024-03-13 22:42:56.315
59.0, -800.0824073706754, -396.47427410259843, -515.0047933482565, -454.35296581685543, 0.8160000387579203, 0.6240000296384096, 0.2400000113993883, 0.0, 0.0, 0.0, 0.0, 0.0, 1.7103949763294003E9, 0.0, 2024-03-13 22:42:56.329
59.0, -785.0667090485804, -387.7490875059739, -515.6218768409453, -452.6176522374153, 0.8160000387579203, 0.6240000296384096, 0.2400000113993883, 0.0, 0.0, 0.0, 0.0, 0.0, 1.7103949763294003E9, 0.0, 2024-03-13 22:42:56.329
60.0, -784.359867956955, -384.41683664545417, -505.23617466399446, -452.44935673940927, 0.8160000387579203, 0.6240000296384096, 0.2240000106394291, 0.0, 0.0, 0.0, 0.0, 0.0, 1.7103949763449528E9, 0.0, 2024-03-13 22:42:56.344
60.0, -774.7445851708762, -374.0236546685919, -495.1122654839419, -440.33956068288535, 0.8160000387579203, 0.6240000296384096, 0.2240000106394291, 0.0, 0.0, 0.0, 0.0, 0.0, 1.7103949763449528E9, 0.0, 2024-03-13 22:42:56.344
61.0, -779.8719880101271, -378.6686104135588, -508.968594819773, -446.7385295070708, 0.8160000387579203, 0.6240000296384096, 0.2240000106394291, 0.0, 0.0, 0.0, 0.0, 0.0, 1.710394976345656E9, 0.0, 2024-03-13 22:42:56.345
61.0, -791.2712030750699, -384.8132660407573, -505.64382375916466, -447.30325440037996, 0.8160000387579203, 0.6240000296384096, 0.2240000106394291, 0.0, 0.0, 0.0, 0.0, 0.0, 1.710394976345656E9, 0.0, 2024-03-13 22:42:56.345
62.0, -794.8502873326652, -401.5642779422924, -514.275512856897, -460.94266953878105, 0.8160000387579203, 0.6240000296384096, 0.2240000106394291, 0.0, 0.0, 0.0, 0.0, 0.0, 1.7103949763593483E9, 0.0, 2024-03-13 22:42:56.359
62.0, -791.016889878083, -394.43228872679174, -519.9414612897672, -454.0575137203559, 0.8160000387579203, 0.6240000296384096, 0.2240000106394291, 0.0, 0.0, 0.0, 0.0, 0.0, 1.7103949763593483E9, 0.0, 2024-03-13 22:42:56.359
63.0, -798.2124573928304, -401.13792934734374, -514.178275458049, -454.9625695096329, 0.8160000387579203, 0.6240000296384096, 0.2240000106394291, 0.0, 0.0, 0.0, 0.0, 0.0, 1.710394976374952E9, 0.0, 2024-03-13 22:42:56.374
63.0, -791.9069860675372, -394.2714730286971, -502.5097875962965, -453.2571751298383, 0.8160000387579203, 0.6240000296384096, 0.2240000106394291, 0.0, 0.0, 0.0, 0.0, 0.0, 1.710394976374952E9, 0.0, 2024-03-13 22:42:56.374
64.0, -782.7105720764957, -388.2315346002579, -511.02179989544675, -452.38951834011823, 0.8160000387579203, 0.6240000296384096, 0.2240000106394291, 0.0, 0.0, 0.0, 0.0, 0.0, 1.71039497637564E9, 0.0, 2024-03-13 22:42:56.375
64.0, -776.7042927476577, -379.64846420194954, -505.42690956173465, -446.90308510512114, 0.8160000387579203, 0.6240000296384096, 0.2240000106394291, 0.0, 0.0, 0.0, 0.0, 0.0, 1.71039497637564E9, 0.0, 2024-03-13 22:42:56.375
65.0, -780.8368821986951, -384.4804149447009, -496.3389526694082, -448.870272481814, 0.8160000387579203, 0.6240000296384096, 0.2240000106394291, 0.0, 0.0, 0.0, 0.0, 0.0, 1.7103949763893104E9, 0.0, 2024-03-13 22:42:56.389
65.0, -785.1602065474726, -393.68056883569807, -514.0174597599544, -455.78534749988467, 0.8160000387579203, 0.6240000296384096, 0.2240000106394291, 0.0, 0.0, 0.0, 0.0, 0.0, 1.7103949763893104E9, 0.0, 2024-03-13 22:42:56.389
66.0, -773.7983904820867, -377.2960671298206, -513.9052627612837, -451.2600685534999, 0.8160000387579203, 0.6240000296384096, 0.2240000106394291, 0.0, 0.0, 0.0, 0.0, 0.0, 1.7103949764054492E9, 0.0, 2024-03-13 22:42:56.405
66.0, -777.1568206422962, -378.8032468119636, -512.6935351756401, -450.78510125912726, 0.8160000387579203, 0.6240000296384096, 0.2240000106394291, 0.0, 0.0, 0.0, 0.0, 0.0, 1.7103949764054492E9, 0.0, 2024-03-13 22:42:56.405
67.0, -778.1927729300223, -385.4153899336234, -508.5646856245585, -454.49508201517165, 0.8160000387579203, 0.6240000296384096, 0.2240000106394291, 0.0, 0.0, 0.0, 0.0, 0.0, 1.7103949764060705E9, 0.0, 2024-03-13 22:42:56.406
67.0, -771.333796411287, -378.60129221435636, -501.5523732076399, -444.29637483600527, 0.8160000387579203, 0.6240000296384096, 0.2240000106394291, 0.0, 0.0, 0.0, 0.0, 0.0, 1.7103949764060705E9, 0.0, 2024-03-13 22:42:56.406
68.0, -771.9807991036214, -388.05575930234045, -508.94989531999454, -452.27732134144753, 0.8160000387579203, 0.6240000296384096, 0.2240000106394291, 0.0, 0.0, 0.0, 0.0, 0.0, 1.7103949764192803E9, 0.0, 2024-03-13 22:42:56.419
68.0, -784.6515801534988, -394.1854553297162, -503.31386608676985, -452.5802532378584, 0.8160000387579203, 0.6240000296384096, 0.2240000106394291, 0.0, 0.0, 0.0, 0.0, 0.0, 1.7103949764192803E9, 0.0, 2024-03-13 22:42:56.419
69.0, -777.6916263359599, -388.7401609942317, -510.90586299682036, -452.1464248429984, 0.8160000387579203, 0.6240000296384096, 0.2240000106394291, 0.0, 0.0, 0.0, 0.0, 0.0, 1.710394976435357E9, 0.0, 2024-03-13 22:42:56.435
69.0, -785.4219995443709, -389.4881409853697, -509.72405461082235, -450.8785987580195, 0.8160000387579203, 0.6240000296384096, 0.2240000106394291, 0.0, 0.0, 0.0, 0.0, 0.0, 1.710394976435357E9, 0.0, 2024-03-13 22:42:56.435
70.0, -799.1923111812212, -404.1186296120286, -521.1307494756766, -465.8232389809564, 0.8160000387579203, 0.6240000296384096, 0.2400000113993883, 0.0, 0.0, 0.0, 0.0, 0.0, 1.710394976435956E9, 0.0, 2024-03-13 22:42:56.435
70.0, -797.3148814034648, -399.7504264637828, -520.5211457828991, -469.3350050393492, 0.8160000387579203, 0.6240000296384096, 0.2400000113993883, 0.0, 0.0, 0.0, 0.0, 0.0, 1.710394976435956E9, 0.0, 2024-03-13 22:42:56.435
71.0, -785.8969668387435, -392.2893260521814, -511.8557975855656, -462.5919654192403, 0.8160000387579203, 0.6240000296384096, 0.2400000113993883, 0.0, 0.0, 0.0, 0.0, 0.0, 1.7103949764498165E9, 0.0, 2024-03-13 22:42:56.449
71.0, -782.4151199799962, -392.0836315546185, -507.30807923944667, -457.7076560771093, 0.8160000387579203, 0.6240000296384096, 0.2400000113993883, 0.0, 0.0, 0.0, 0.0, 0.0, 1.7103949764498165E9, 0.0, 2024-03-13 22:42:56.449
72.0, -799.5139425774105, -407.5967365708202, -517.9144355137832, -468.28035325184464, 0.8160000387579203, 0.6240000296384096, 0.2400000113993883, 0.0, 0.0, 0.0, 0.0, 0.0, 1.7103949764650493E9, 0.0, 2024-03-13 22:42:56.465
72.0, -806.8815454901196, -412.1668943166733, -525.4540738244541, -467.2593605639413, 0.8160000387579203, 0.6240000296384096, 0.2400000113993883, 0.0, 0.0, 0.0, 0.0, 0.0, 1.7103949764650493E9, 0.0, 2024-03-13 22:42:56.465
73.0, -807.6781441806816, -413.4908189009875, -507.61475103581324, -461.27178073488176, 0.8160000387579203, 0.6240000296384096, 0.2400000113993883, 0.0, 0.0, 0.0, 0.0, 0.0, 1.710394976465747E9, 0.0, 2024-03-13 22:42:56.465
73.0, -815.524454287719, -421.7896569026634, -511.0442392951809, -467.4538353616372, 0.8160000387579203, 0.6240000296384096, 0.2400000113993883, 0.0, 0.0, 0.0, 0.0, 0.0, 1.710394976465747E9, 0.0, 2024-03-13 22:42:56.465
74.0, -819.1633769446053, -424.15327367465943, -531.0302646583878, -479.14102272316813, 0.8160000387579203, 0.6240000296384096, 0.2400000113993883, 0.0, 0.0, 0.0, 0.0, 0.0, 1.7103949764792752E9, 0.0, 2024-03-13 22:42:56.479
74.0, -806.8142272909172, -407.98568616621196, -519.0962438997813, -462.41619012132287, 0.8160000387579203, 0.6240000296384096, 0.2400000113993883, 0.0, 0.0, 0.0, 0.0, 0.0, 1.7103949764792752E9, 0.0, 2024-03-13 22:42:56.479
75.0, -814.4660626002587, -413.4870790010318, -510.31869870377705, -466.2533274758607, 0.8160000387579203, 0.6240000296384096, 0.2400000113993883, 0.0, 0.0, 0.0, 0.0, 0.0, 1.710394976494994E9, 0.0, 2024-03-13 22:42:56.494
75.0, -800.3292407677509, -404.84417020343244, -510.2139815050177, -462.04594002570957, 0.8160000387579203, 0.6240000296384096, 0.2400000113993883, 0.0, 0.0, 0.0, 0.0, 0.0, 1.710394976494994E9, 0.0, 2024-03-13 22:42:56.494
76.0, -790.1080941888504, -398.53495897818357, -517.8732966142707, -462.15813702438027, 0.8160000387579203, 0.6240000296384096, 0.2400000113993883, 0.0, 0.0, 0.0, 0.0, 0.0, 1.710394976495767E9, 0.0, 2024-03-13 22:42:56.495
76.0, -810.374612048734, -409.0814768532291, -525.9178214189596, -468.83759834524244, 0.8160000387579203, 0.6240000296384096, 0.2400000113993883, 0.0, 0.0, 0.0, 0.0, 0.0, 1.710394976495767E9, 0.0, 2024-03-13 22:42:56.495
77.0, -808.4373438716866, -406.09329678863287, -522.6267094579525, -468.5907649481669, 0.8160000387579203, 0.6240000296384096, 0.2400000113993883, 0.0, 0.0, 0.0, 0.0, 0.0, 1.7103949765092928E9, 0.0, 2024-03-13 22:42:56.509
77.0, -796.0844543180428, -402.05794473644346, -523.0268787532113, -469.409803038463, 0.8160000387579203, 0.6240000296384096, 0.2400000113993883, 0.0, 0.0, 0.0, 0.0, 0.0, 1.7103949765092928E9, 0.0, 2024-03-13 22:42:56.509
78.0, -803.2239233334549, -407.9632467664778, -523.6028233463876, -467.71562835853547, 0.8160000387579203, 0.6240000296384096, 0.2400000113993883, 0.0, 0.0, 0.0, 0.0, 0.0, 1.7103949765250363E9, 0.0, 2024-03-13 22:42:56.525
78.0, -823.7185750906356, -424.3140893727541, -531.2845778553747, -482.6004301821813, 0.8160000387579203, 0.6240000296384096, 0.2400000113993883, 0.0, 0.0, 0.0, 0.0, 0.0, 1.7103949765250363E9, 0.0, 2024-03-13 22:42:56.525
79.0, -809.0394677645527, -416.3929812666029, -530.8769287602045, -475.62177686486393, 0.8160000387579203, 0.6240000296384096, 0.2400000113993883, 0.0, 0.0, 0.0, 0.0, 0.0, 1.7103949765257516E9, 0.0, 2024-03-13 22:42:56.525
79.0, -801.7130037513562, -413.32252340298146, -532.9525732356124, -473.32173839211464, 0.8160000387579203, 0.6240000296384096, 0.2400000113993883, 0.0, 0.0, 0.0, 0.0, 0.0, 1.7103949765257516E9, 0.0, 2024-03-13 22:42:56.525
80.0, -801.7616224507801, -411.47501282487065, -517.9106956138276, -472.16984920576215, 0.8160000387579203, 0.6240000296384096, 0.2400000113993883, 0.0, 0.0, 0.0, 0.0, 0.0, 1.7103949765392783E9, 0.0, 2024-03-13 22:42:56.539
80.0, -807.0760202878155, -421.830795802176, -540.4697721465491, -481.4784601954743, 0.8160000387579203, 0.6240000296384096, 0.2400000113993883, 0.0, 0.0, 0.0, 0.0, 0.0, 1.7103949765392783E9, 0.0, 2024-03-13 22:42:56.539
81.0, -799.9253315725364, -407.4845395721495, -528.8162438846193, -467.7866864576936, 0.8160000387579203, 0.6240000296384096, 0.2400000113993883, 0.0, 0.0, 0.0, 0.0, 0.0, 1.7103949765554476E9, 0.0, 2024-03-13 22:42:56.555
81.0, -806.466416595038, -406.4972059838474, -522.3125578616746, -468.24669415224344, 0.8160000387579203, 0.6240000296384096, 0.2400000113993883, 0.0, 0.0, 0.0, 0.0, 0.0, 1.7103949765554476E9, 0.0, 2024-03-13 22:42:56.555
82.0, -814.1743504037149, -410.9663864308968, -520.764239280019, -468.9647549437359, 0.8160000387579203, 0.6240000296384096, 0.2400000113993883, 0.0, 0.0, 0.0, 0.0, 0.0, 1.7103949765557652E9, 0.0, 2024-03-13 22:42:56.555
82.0, -796.9072323082946, -403.20609402284026, -519.7806455916725, -458.7436083648354, 0.8160000387579203, 0.6240000296384096, 0.2400000113993883, 0.0, 0.0, 0.0, 0.0, 0.0, 1.7103949765557652E9, 0.0, 2024-03-13 22:42:56.555
83.0, -805.6473785047419, -411.80786392092705, -511.28733279230073, -458.82588616386056, 0.8160000387579203, 0.6240000296384096, 0.2400000113993883, 0.0, 0.0, 0.0, 0.0, 0.0, 1.7103949765695872E9, 0.0, 2024-03-13 22:42:56.569
83.0, -813.5310876113363, -417.6009689522907, -519.750726392027, -466.47024167329073, 0.8160000387579203, 0.6240000296384096, 0.2400000113993883, 0.0, 0.0, 0.0, 0.0, 0.0, 1.7103949765695872E9, 0.0, 2024-03-13 22:42:56.569
84.0, -815.789987184573, -424.36644797213376, -531.2883177553304, -474.0809380831197, 0.8160000387579203, 0.6240000296384096, 0.2400000113993883, 0.0, 0.0, 0.0, 0.0, 0.0, 1.7103949765852883E9, 0.0, 2024-03-13 22:42:56.585
84.0, -806.2195831979625, -414.4482332896441, -525.6859476217069, -468.20555525273085, 0.8160000387579203, 0.6240000296384096, 0.2400000113993883, 0.0, 0.0, 0.0, 0.0, 0.0, 1.7103949765852883E9, 0.0, 2024-03-13 22:42:56.585
85.0, -815.5768128870986, -417.43641335424036, -518.894289302174, -470.326078527607, 0.8160000387579203, 0.6240000296384096, 0.2400000113993883, 0.0, 0.0, 0.0, 0.0, 0.0, 1.7103949765859635E9, 0.0, 2024-03-13 22:42:56.585
85.0, -802.0458548474126, -405.042384901084, -529.7923577730544, -468.070918854326, 0.8160000387579203, 0.6240000296384096, 0.2400000113993883, 0.0, 0.0, 0.0, 0.0, 0.0, 1.7103949765859635E9, 0.0, 2024-03-13 22:42:56.585
86.0, -784.9432923500426, -387.7042087065056, -511.8894566851668, -446.71983000729233, 0.8160000387579203, 0.6240000296384096, 0.2400000113993883, 0.0, 0.0, 0.0, 0.0, 0.0, 1.7103949765993292E9, 0.0, 2024-03-13 22:42:56.599
86.0, -781.8429152867757, -381.4473560806364, -504.7425078698434, -444.3973521348089, 0.8160000387579203, 0.6240000296384096, 0.2400000113993883, 0.0, 0.0, 0.0, 0.0, 0.0, 1.7103949765993292E9, 0.0, 2024-03-13 22:42:56.599
87.0, -776.9249468450435, -380.75547458883375, -507.0350665426813, -448.22700968943536, 0.8160000387579203, 0.6240000296384096, 0.2400000113993883, 0.0, 0.0, 0.0, 0.0, 0.0, 1.710394976615023E9, 0.0, 2024-03-13 22:42:56.615
87.0, -771.5619303085841, -372.31452038884163, -502.83889879239723, -440.64249257929623, 0.8160000387579203, 0.6240000296384096, 0.2400000113993883, 0.0, 0.0, 0.0, 0.0, 0.0, 1.710394976615023E9, 0.0, 2024-03-13 22:42:56.615
88.0, -779.1240080189891, -384.7758670412004, -509.20046861702576, -451.3947049519047, 0.8160000387579203, 0.6240000296384096, 0.2400000113993883, 0.0, 0.0, 0.0, 0.0, 0.0, 1.7103949766157467E9, 0.0, 2024-03-13 22:42:56.615
88.0, -792.7035847580992, -395.61783701274544, -516.0557052358054, -462.4124502213672, 0.8160000387579203, 0.6240000296384096, 0.2400000113993883, 0.0, 0.0, 0.0, 0.0, 0.0, 1.7103949766157467E9, 0.0, 2024-03-13 22:42:56.615
89.0, -788.5410761074163, -392.6333968481049, -524.3283639377914, -461.08478573709726, 0.8160000387579203, 0.6240000296384096, 0.2400000113993883, 0.0, 0.0, 0.0, 0.0, 0.0, 1.7103949766292968E9, 0.0, 2024-03-13 22:42:56.629
89.0, -787.1760126235895, -392.94754844438285, -517.1926348223351, -454.8541124109179, 0.8160000387579203, 0.6240000296384096, 0.2400000113993883, 0.0, 0.0, 0.0, 0.0, 0.0, 1.7103949766292968E9, 0.0, 2024-03-13 22:42:56.629
90.0, -790.534442783799, -397.6673021884635, -519.111203499604, -460.34802544582635, 0.8160000387579203, 0.6240000296384096, 0.2400000113993883, 0.0, 0.0, 0.0, 0.0, 0.0, 1.71039497664511E9, 0.0, 2024-03-13 22:42:56.645
90.0, -792.4006528616883, -397.65608248859644, -513.9800607603975, -460.82299274019897, 0.8160000387579203, 0.6240000296384096, 0.2400000113993883, 0.0, 0.0, 0.0, 0.0, 0.0, 1.71039497664511E9, 0.0, 2024-03-13 22:42:56.645
91.0, -792.3146351627074, -401.61289664171636, -532.993712135125, -469.24150754045695, 0.8160000387579203, 0.6240000296384096, 0.2400000113993883, 0.0, 0.0, 0.0, 0.0, 0.0, 1.7103949766460102E9, 0.0, 2024-03-13 22:42:56.646
91.0, -798.1114800940268, -414.7623848859221, -531.3369364547543, -476.2276406576857, 0.8160000387579203, 0.6240000296384096, 0.2400000113993883, 0.0, 0.0, 0.0, 0.0, 0.0, 1.7103949766460102E9, 0.0, 2024-03-13 22:42:56.646
92.0, -805.6062396052293, -412.76901820953935, -536.7710110903718, -483.4456475721672, 0.8160000387579203, 0.6240000296384096, 0.2400000113993883, 0.0, 0.0, 0.0, 0.0, 0.0, 1.7103949766593513E9, 0.0, 2024-03-13 22:42:56.659
92.0, -790.7625766810961, -402.98170002549887, -537.829402777832, -471.53780611325055, 0.8160000387579203, 0.6240000296384096, 0.2400000113993883, 0.0, 0.0, 0.0, 0.0, 0.0, 1.7103949766593513E9, 0.0, 2024-03-13 22:42:56.659
93.0, -787.3106490219943, -400.5657246541232, -523.7711188443936, -460.0413536494598, 0.8160000387579203, 0.6240000296384096, 0.2400000113993883, 0.0, 0.0, 0.0, 0.0, 0.0, 1.7103949766750305E9, 0.0, 2024-03-13 22:42:56.675
93.0, -792.9840772547759, -398.5573983779177, -518.0640315120108, -464.2861400991678, 0.8160000387579203, 0.6240000296384096, 0.2400000113993883, 0.0, 0.0, 0.0, 0.0, 0.0, 1.7103949766750305E9, 0.0, 2024-03-13 22:42:56.675
94.0, -785.9306259383447, -395.1914884177968, -517.0841777236201, -458.19384307134897, 0.8160000387579203, 0.6240000296384096, 0.2400000113993883, 0.0, 0.0, 0.0, 0.0, 0.0, 1.7103949766757495E9, 0.0, 2024-03-13 22:42:56.675
94.0, -790.2277709874325, -396.53785240184516, -519.2495797979645, -454.8728119106963, 0.8160000387579203, 0.6240000296384096, 0.2400000113993883, 0.0, 0.0, 0.0, 0.0, 0.0, 1.7103949766757495E9, 0.0, 2024-03-13 22:42:56.675
95.0, -794.3304412388243, -399.9374214615673, -502.3676713979803, -454.285647617653, 0.8160000387579203, 0.6240000296384096, 0.2400000113993883, 0.0, 0.0, 0.0, 0.0, 0.0, 1.7103949766893275E9, 0.0, 2024-03-13 22:42:56.689
95.0, -796.5369822126813, -401.773712339811, -514.6906417519785, -462.0309804258868, 0.8160000387579203, 0.6240000296384096, 0.2400000113993883, 0.0, 0.0, 0.0, 0.0, 0.0, 1.7103949766893275E9, 0.0, 2024-03-13 22:42:56.689
96.0, -785.0966282482259, -395.2588066169992, -511.32099189190194, -452.8345664348453, 0.8160000387579203, 0.6240000296384096, 0.2400000113993883, 0.0, 0.0, 0.0, 0.0, 0.0, 1.710394976705532E9, 0.0, 2024-03-13 22:42:56.705
96.0, -782.9835847732611, -388.75886049401015, -500.75203461712226, -448.18961068987846, 0.8160000387579203, 0.6240000296384096, 0.2400000113993883, 0.0, 0.0, 0.0, 0.0, 0.0, 1.710394976705532E9, 0.0, 2024-03-13 22:42:56.705
97.0, -792.946678255219, -398.83415097463876, -516.0893643354066, -457.3261862816289, 0.8160000387579203, 0.6240000296384096, 0.2400000113993883, 0.0, 0.0, 0.0, 0.0, 0.0, 1.7103949767060244E9, 0.0, 2024-03-13 22:42:56.706
97.0, -795.8039618213661, -393.5197531376034, -525.5662708231248, -452.2623617416248, 0.8160000387579203, 0.6240000296384096, 0.2400000113993883, 0.0, 0.0, 0.0, 0.0, 0.0, 1.7103949767060244E9, 0.0, 2024-03-13 22:42:56.706
98.0, -796.600560511928, -397.9365749852732, -523.3485101494007, -463.69149600621313, 0.8160000387579203, 0.6240000296384096, 0.2400000113993883, 0.0, 0.0, 0.0, 0.0, 0.0, 1.71039497671956E9, 0.0, 2024-03-13 22:42:56.719
98.0, -796.3275478151627, -403.8867558147758, -517.2973520210944, -461.9674021266401, 0.8160000387579203, 0.6240000296384096, 0.2400000113993883, 0.0, 0.0, 0.0, 0.0, 0.0, 1.71039497671956E9, 0.0, 2024-03-13 22:42:56.719
99.0, -785.6576132415794, -394.69408172369003, -520.9998529772274, -455.9648626977578, 0.8160000387579203, 0.6240000296384096, 0.2400000113993883, 0.0, 0.0, 0.0, 0.0, 0.0, 1.7103949767353568E9, 0.0, 2024-03-13 22:42:56.735
99.0, -783.0583827723749, -386.3690644223243, -513.744447063189, -448.6309188846499, 0.8160000387579203, 0.6240000296384096, 0.2400000113993883, 0.0, 0.0, 0.0, 0.0, 0.0, 1.7103949767353568E9, 0.0, 2024-03-13 22:42:56.735
100.0, -793.586201147642, -389.7798531819135, -513.3816767674871, -457.97318897396326, 0.8160000387579203, 0.6240000296384096, 0.2400000113993883, 0.0, 0.0, 0.0, 0.0, 0.0, 1.7103949767359428E9, 0.0, 2024-03-13 22:42:56.735
100.0, -785.9455855381675, -389.5255399849266, -513.7107879635878, -460.60981844272465, 0.8160000387579203, 0.6240000296384096, 0.2400000113993883, 0.0, 0.0, 0.0, 0.0, 0.0, 1.7103949767359428E9, 0.0, 2024-03-13 22:42:56.735
0.0, -778.5817225254141, -382.03265042370185, -511.248063842766, -449.0890566292219, 0.8160000387579203, 0.6240000296384096, 0.2400000113993883, 0.0, 0.0, 0.0, 0.0, 0.0, 1.7103949767501397E9, 0.0, 2024-03-13 22:42:56.750
1.0, -781.5998217896558, -386.04182317620143, -511.58839473873377, -452.6868403865956, 0.8160000387579203, 0.6240000296384096, 0.2400000113993883, 0.0, 0.0, 0.0, 0.0, 0.0, 1.7103949767508528E9, 0.0, 2024-03-13 22:42:56.750
1.0, -786.4504720321856, -388.65975314518437, -517.4562977692112, -456.0452705468051, 0.8160000387579203, 0.6240000296384096, 0.2400000113993883, 0.0, 0.0, 0.0, 0.0, 0.0, 1.7103949767508528E9, 0.0, 2024-03-13 22:42:56.750
2.0, -783.828802163247, -390.81393551966175, -519.8161746412516, -454.8672020607628, 0.8160000387579203, 0.6240000296384096, 0.2400000113993883, 0.0, 0.0, 0.0, 0.0, 0.0, 1.710394976764331E9, 0.0, 2024-03-13 22:42:56.764
2.0, -780.8892407980748, -385.92962617753074, -510.59732125047594, -448.7973444326781, 0.8160000387579203, 0.6240000296384096, 0.2400000113993883, 0.0, 0.0, 0.0, 0.0, 0.0, 1.710394976764331E9, 0.0, 2024-03-13 22:42:56.764
3.0, -788.2905028103851, -393.62634028634056, -509.75210386049, -456.88300813687965, 0.8160000387579203, 0.6240000296384096, 0.2400000113993883, 0.0, 0.0, 0.0, 0.0, 0.0, 1.710394976780014E9, 0.0, 2024-03-13 22:42:56.780
3.0, -780.874281198252, -387.047856264282, -517.3852396700531, -455.1215152577497, 0.8160000387579203, 0.6240000296384096, 0.2400000113993883, 0.0, 0.0, 0.0, 0.0, 0.0, 1.710394976780014E9, 0.0, 2024-03-13 22:42:56.780
4.0, -778.884654421825, -389.6096877339296, -507.1753127910197, -451.523731500376, 0.8160000387579203, 0.6240000296384096, 0.2400000113993883, 0.0, 0.0, 0.0, 0.0, 0.0, 1.7103949767807436E9, 0.0, 2024-03-13 22:42:56.780
4.0, -785.0816686484031, -393.85073428368196, -507.9719114815816, -461.0829157871194, 0.8160000387579203, 0.6240000296384096, 0.2400000113993883, 0.0, 0.0, 0.0, 0.0, 0.0, 1.7103949767807436E9, 0.0, 2024-03-13 22:42:56.780
5.0, -787.8791138152592, -388.07258885214105, -516.7382369777188, -453.0159515826963, 0.8160000387579203, 0.6240000296384096, 0.2400000113993883, 0.0, 0.0, 0.0, 0.0, 0.0, 1.710394976794338E9, 0.0, 2024-03-13 22:42:56.794
5.0, -779.486778314691, -386.240037873853, -514.1951050078496, -450.8542894083075, 0.8160000387579203, 0.6240000296384096, 0.2400000113993883, 0.0, 0.0, 0.0, 0.0, 0.0, 1.710394976794338E9, 0.0, 2024-03-13 22:42:56.794
6.0, -790.4484250848182, -390.3427081252448, -500.62674796860665, -452.4549665893428, 0.8160000387579203, 0.6240000296384096, 0.2400000113993883, 0.0, 0.0, 0.0, 0.0, 0.0, 1.7103949768099945E9, 0.0, 2024-03-13 22:42:56.809
6.0, -802.8574131377973, -405.6912575433962, -524.0422615911812, -471.84634785959497, 0.8160000387579203, 0.6240000296384096, 0.2400000113993883, 0.0, 0.0, 0.0, 0.0, 0.0, 1.7103949768099945E9, 0.0, 2024-03-13 22:42:56.809
7.0, -792.6774054584093, -391.51329681137577, -522.8529734052718, -459.10450871055946, 0.8160000387579203, 0.6240000296384096, 0.2400000113993883, 0.0, 0.0, 0.0, 0.0, 0.0, 1.710394976810724E9, 0.0, 2024-03-13 22:42:56.810
7.0, -797.505616301205, -392.9905572938733, -514.3671404058114, -461.2474713851698, 0.8160000387579203, 0.6240000296384096, 0.2400000113993883, 0.0, 0.0, 0.0, 0.0, 0.0, 1.710394976810724E9, 0.0, 2024-03-13 22:42:56.810
8.0, -792.0341426660307, -396.5509420516901, -513.9407918108627, -462.66115356842056, 0.8160000387579203, 0.6240000296384096, 0.2400000113993883, 0.0, 0.0, 0.0, 0.0, 0.0, 1.7103949768243313E9, 0.0, 2024-03-13 22:42:56.824
8.0, -797.5392754008062, -401.89151918841526, -529.109826031141, -470.30176917789504, 0.8160000387579203, 0.6240000296384096, 0.2400000113993883, 0.0, 0.0, 0.0, 0.0, 0.0, 1.7103949768243313E9, 0.0, 2024-03-13 22:42:56.824
9.0, -796.1816917168908, -392.22761770291254, -517.1982446722686, -462.84440866624936, 0.8160000387579203, 0.6240000296384096, 0.2400000113993883, 0.0, 0.0, 0.0, 0.0, 0.0, 1.710394976839984E9, 0.0, 2024-03-13 22:42:56.839
9.0, -808.0857932758518, -407.74446261906996, -515.7920422889292, -470.133473679889, 0.8160000387579203, 0.6240000296384096, 0.2400000113993883, 0.0, 0.0, 0.0, 0.0, 0.0, 1.710394976839984E9, 0.0, 2024-03-13 22:42:56.839
10.0, -804.3608529199846, -404.71888355491683, -515.8257013885304, -467.77359680784866, 0.8160000387579203, 0.6240000296384096, 0.2400000113993883, 0.0, 0.0, 0.0, 0.0, 0.0, 1.7103949768406937E9, 0.0, 2024-03-13 22:42:56.840
10.0, -784.8984135505743, -390.48856422351673, -528.2159899417311, -463.85418165428564, 0.8160000387579203, 0.6240000296384096, 0.2400000113993883, 0.0, 0.0, 0.0, 0.0, 0.0, 1.7103949768406937E9, 0.0, 2024-03-13 22:42:56.840
11.0, -781.4838848910294, -385.9445857773535, -505.47365831118077, -454.1304417694919, 0.8160000387579203, 0.6240000296384096, 0.2400000113993883, 0.0, 0.0, 0.0, 0.0, 0.0, 1.7103949768546107E9, 0.0, 2024-03-13 22:42:56.854
11.0, -771.0196448150091, -379.11178855830804, -496.80457021389157, -445.03126517729834, 0.8160000387579203, 0.6240000296384096, 0.2400000113993883, 0.0, 0.0, 0.0, 0.0, 0.0, 1.7103949768546107E9, 0.0, 2024-03-13 22:42:56.854
12.0, -776.7416917472146, -375.5214846008457, -506.1206610035151, -442.1964210108854, 0.8160000387579203, 0.6240000296384096, 0.2400000113993883, 0.0, 0.0, 0.0, 0.0, 0.0, 1.7103949768700953E9, 0.0, 2024-03-13 22:42:56.870
12.0, -783.7353046643548, -381.51280432986096, -501.1241546627134, -445.28183847432956, 0.8160000387579203, 0.6240000296384096, 0.2400000113993883, 0.0, 0.0, 0.0, 0.0, 0.0, 1.7103949768700953E9, 0.0, 2024-03-13 22:42:56.870
13.0, -786.3420149334706, -388.89536684239283, -505.14080721512437, -454.76996466191486, 0.8160000387579203, 0.6240000296384096, 0.2400000113993883, 0.0, 0.0, 0.0, 0.0, 0.0, 1.710394976870759E9, 0.0, 2024-03-13 22:42:56.870
13.0, -791.7798294690438, -384.4598454949446, -509.88674025889486, -450.03525131801143, 0.8160000387579203, 0.6240000296384096, 0.2400000113993883, 0.0, 0.0, 0.0, 0.0, 0.0, 1.710394976870759E9, 0.0, 2024-03-13 22:42:56.870
14.0, -784.5693023544736, -386.40085357194766, -503.43915273528546, -446.24299276294187, 0.8160000387579203, 0.6240000296384096, 0.2400000113993883, 0.0, 0.0, 0.0, 0.0, 0.0, 1.7103949768843257E9, 0.0, 2024-03-13 22:42:56.884
14.0, -807.2106566862203, -408.74301590723917, -515.807001888752, -462.9379061651416, 0.8160000387579203, 0.6240000296384096, 0.2400000113993883, 0.0, 0.0, 0.0, 0.0, 0.0, 1.7103949768843257E9, 0.0, 2024-03-13 22:42:56.884
15.0, -810.1539579513483, -416.31631331751123, -528.2608687411994, -470.00257718143985, 0.8160000387579203, 0.6240000296384096, 0.2400000113993883, 0.0, 0.0, 0.0, 0.0, 0.0, 1.7103949769000037E9, 0.0, 2024-03-13 22:42:56.900
15.0, -807.4612299832515, -409.951003592927, -523.428917998448, -467.769856907893, 0.8160000387579203, 0.6240000296384096, 0.2400000113993883, 0.0, 0.0, 0.0, 0.0, 0.0, 1.7103949769000037E9, 0.0, 2024-03-13 22:42:56.900
16.0, -814.8475323957391, -410.8111805827357, -522.6360592078418, -472.6092874505557, 0.8160000387579203, 0.6240000296384096, 0.2400000113993883, 0.0, 0.0, 0.0, 0.0, 0.0, 1.7103949769006972E9, 0.0, 2024-03-13 22:42:56.900
16.0, -813.3029537140392, -418.38073809305206, -537.1580907357857, -479.7300569661893, 0.8160000387579203, 0.6240000296384096, 0.2400000113993883, 0.0, 0.0, 0.0, 0.0, 0.0, 1.7103949769006972E9, 0.0, 2024-03-13 22:42:56.900
17.0, -798.5527882887982, -409.23668270139024, -528.5600607376546, -473.7536968369968, 0.8160000387579203, 0.6240000296384096, 0.2400000113993883, 0.0, 0.0, 0.0, 0.0, 0.0, 1.710394976914359E9, 0.0, 2024-03-13 22:42:56.914
17.0, -805.7595755034126, -414.401484540198, -529.7044701240957, -477.6431927909143, 0.8160000387579203, 0.6240000296384096, 0.2400000113993883, 0.0, 0.0, 0.0, 0.0, 0.0, 1.710394976914359E9, 0.0, 2024-03-13 22:42:56.914
18.0, -808.8150737672113, -417.71129600098357, -534.199829870835, -480.0217691627331, 0.8160000387579203, 0.6240000296384096, 0.2400000113993883, 0.0, 0.0, 0.0, 0.0, 0.0, 1.7103949769300582E9, 0.0, 2024-03-13 22:42:56.930
18.0, -797.2999218036421, -409.9547434928827, -541.133604388684, -476.4576445049606, 0.8160000387579203, 0.6240000296384096, 0.2400000113993883, 0.0, 0.0, 0.0, 0.0, 0.0, 1.7103949769300582E9, 0.0, 2024-03-13 22:42:56.930
19.0, -791.3721803738736, -395.3167750663124, -525.7476559709758, -462.3769211717881, 0.8160000387579203, 0.6240000296384096, 0.2400000113993883, 0.0, 0.0, 0.0, 0.0, 0.0, 1.710394976930673E9, 0.0, 2024-03-13 22:42:56.930
19.0, -783.5894485660829, -396.82021484849975, -518.230457060039, -462.88928746571764, 0.8160000387579203, 0.6240000296384096, 0.2400000113993883, 0.0, 0.0, 0.0, 0.0, 0.0, 1.710394976930673E9, 0.0, 2024-03-13 22:42:56.930
20.0, -783.1930191707797, -388.36430104868487, -516.7905955770984, -457.4252936304547, 0.8160000387579203, 0.6240000296384096, 0.2400000113993883, 0.0, 0.0, 0.0, 0.0, 0.0, 1.7103949769443047E9, 0.0, 2024-03-13 22:42:56.944
20.0, -781.8055162872188, -389.4900109353475, -519.509502844885, -459.6879331036471, 0.8160000387579203, 0.6240000296384096, 0.2400000113993883, 0.0, 0.0, 0.0, 0.0, 0.0, 1.7103949769443047E9, 0.0, 2024-03-13 22:42:56.944
21.0, -787.9127729148604, -389.2394376383163, -501.40464715939015, -452.3764286902733, 0.8160000387579203, 0.6240000296384096, 0.2400000113993883, 0.0, 0.0, 0.0, 0.0, 0.0, 1.7103949769599788E9, 0.0, 2024-03-13 22:42:56.959
21.0, -788.9636848024093, -396.5023233522661, -518.918598651886, -464.07483575167134, 0.8160000387579203, 0.6240000296384096, 0.2400000113993883, 0.0, 0.0, 0.0, 0.0, 0.0, 1.7103949769599788E9, 0.0, 2024-03-13 22:42:56.959
22.0, -788.0735886129551, -393.55154228722677, -525.9608302684501, -458.6108419164084, 0.800000037997961, 0.6240000296384096, 0.2400000113993883, 0.0, 0.0, 0.0, 0.0, 0.0, 1.710394976960711E9, 0.0, 2024-03-13 22:42:56.960
22.0, -797.240083404351, -401.4389912937768, -521.9853166155517, -463.84296195441857, 0.800000037997961, 0.6240000296384096, 0.2400000113993883, 0.0, 0.0, 0.0, 0.0, 0.0, 1.710394976960711E9, 0.0, 2024-03-13 22:42:56.960
23.0, -809.8996447543614, -411.45070347515866, -523.7692488944158, -471.45365836424753, 0.800000037997961, 0.6240000296384096, 0.2400000113993883, 0.0, 0.0, 0.0, 0.0, 0.0, 1.7103949769742968E9, 0.0, 2024-03-13 22:42:56.974
23.0, -799.7383365747519, -406.41305823484436, -528.7096567358822, -465.47729823505506, 0.800000037997961, 0.6240000296384096, 0.2400000113993883, 0.0, 0.0, 0.0, 0.0, 0.0, 1.7103949769742968E9, 0.0, 2024-03-13 22:42:56.974
24.0, -800.9762434600852, -404.4346511582844, -522.2994682118297, -462.69855256797746, 0.800000037997961, 0.6240000296384096, 0.2400000113993883, 0.0, 0.0, 0.0, 0.0, 0.0, 1.710394976989994E9, 0.0, 2024-03-13 22:42:56.989
24.0, -806.9900025888346, -413.2944741533138, -516.1884716842324, -462.8294490664266, 0.800000037997961, 0.6240000296384096, 0.2400000113993883, 0.0, 0.0, 0.0, 0.0, 0.0, 1.710394976989994E9, 0.0, 2024-03-13 22:42:56.989
25.0, -807.3602526844479, -419.1062786844559, -527.8532196460292, -472.5307495514862, 0.800000037997961, 0.6240000296384096, 0.2400000113993883, 0.0, 0.0, 0.0, 0.0, 0.0, 1.7103949769907284E9, 0.0, 2024-03-13 22:42:56.990
25.0, -808.8749121665023, -413.7769212475978, -529.4501569271088, -467.25375071400777, 0.800000037997961, 0.6240000296384096, 0.2400000113993883, 0.0, 0.0, 0.0, 0.0, 0.0, 1.7103949769907284E9, 0.0, 2024-03-13 22:42:56.990
26.0, -813.6732038096525, -415.4486565277912, -525.2951280763373, -477.12334669707343, 0.800000037997961, 0.6240000296384096, 0.2400000113993883, 0.0, 0.0, 0.0, 0.0, 0.0, 1.7103949770046408E9, 0.0, 2024-03-13 22:42:57.004
26.0, -817.6412376626395, -414.4762825393118, -537.2254089349881, -477.03732899809256, 0.800000037997961, 0.6240000296384096, 0.2400000113993883, 0.0, 0.0, 0.0, 0.0, 0.0, 1.7103949770046408E9, 0.0, 2024-03-13 22:42:57.004
27.0, -791.390879873652, -398.0244626342319, -526.0543277673423, -459.8263094020076, 0.800000037997961, 0.6240000296384096, 0.2400000113993883, 0.0, 0.0, 0.0, 0.0, 0.0, 1.7103949770200737E9, 0.0, 2024-03-13 22:42:57.020
27.0, -802.980829836335, -405.1452321498655, -518.2977752592415, -462.48163837054744, 0.800000037997961, 0.6240000296384096, 0.2400000113993883, 0.0, 0.0, 0.0, 0.0, 0.0, 1.7103949770200737E9, 0.0, 2024-03-13 22:42:57.020
28.0, -799.8879325729795, -403.3313806713559, -524.7603223826736, -465.1743663386442, 0.800000037997961, 0.6240000296384096, 0.2400000113993883, 0.0, 0.0, 0.0, 0.0, 0.0, 1.7103949770207458E9, 0.0, 2024-03-13 22:42:57.020
28.0, -790.5120033840649, -390.4997839233838, -516.9775905748829, -448.8983217314817, 0.800000037997961, 0.6240000296384096, 0.2400000113993883, 0.0, 0.0, 0.0, 0.0, 0.0, 1.7103949770207458E9, 0.0, 2024-03-13 22:42:57.020
29.0, -776.857628645841, -383.28551690885797, -510.0550357569009, -444.9377676784061, 0.800000037997961, 0.6240000296384096, 0.2400000113993883, 0.0, 0.0, 0.0, 0.0, 0.0, 1.710394977034355E9, 0.0, 2024-03-13 22:42:57.034
29.0, -785.5267167431302, -389.0449628406204, -504.4302262235433, -450.55135751189664, 0.800000037997961, 0.6240000296384096, 0.2400000113993883, 0.0, 0.0, 0.0, 0.0, 0.0, 1.710394977034355E9, 0.0, 2024-03-13 22:42:57.034
30.0, -783.9484789618291, -388.95894514163956, -513.4920038161799, -455.7872174498625, 0.800000037997961, 0.6240000296384096, 0.2400000113993883, 0.0, 0.0, 0.0, 0.0, 0.0, 1.7103949770500464E9, 0.0, 2024-03-13 22:42:57.050
30.0, -789.6106874947436, -396.26296975510195, -517.9836236629635, -452.8214767850004, 0.800000037997961, 0.6240000296384096, 0.2400000113993883, 0.0, 0.0, 0.0, 0.0, 0.0, 1.7103949770500464E9, 0.0, 2024-03-13 22:42:57.050
31.0, -798.8407605853863, -402.7554360781796, -512.586948026903, -457.25325823249295, 0.800000037997961, 0.6240000296384096, 0.2400000113993883, 0.0, 0.0, 0.0, 0.0, 0.0, 1.7103949770507286E9, 0.0, 2024-03-13 22:42:57.050
31.0, -804.3458933201618, -409.49847569828853, -522.4303647102788, -459.78143060253933, 0.800000037997961, 0.6240000296384096, 0.2400000113993883, 0.0, 0.0, 0.0, 0.0, 0.0, 1.7103949770507286E9, 0.0, 2024-03-13 22:42:57.050
32.0, -809.566793658305, -411.3721655760892, -524.3788525871933, -461.32600928423926, 0.800000037997961, 0.6240000296384096, 0.2400000113993883, 0.0, 0.0, 0.0, 0.0, 0.0, 1.7103949770643115E9, 0.0, 2024-03-13 22:42:57.064
32.0, -801.641945652198, -409.1357054025866, -509.08266176842153, -455.36086885491386, 0.800000037997961, 0.6240000296384096, 0.2400000113993883, 0.0, 0.0, 0.0, 0.0, 0.0, 1.7103949770643115E9, 0.0, 2024-03-13 22:42:57.064
33.0, -801.7017840514891, -412.89430485805497, -515.2235774956644, -463.18473956221715, 0.800000037997961, 0.6240000296384096, 0.2400000113993883, 0.0, 0.0, 0.0, 0.0, 0.0, 1.7103949770800824E9, 0.0, 2024-03-13 22:42:57.080
33.0, -796.7838156097569, -404.7375830546953, -522.8903724048287, -462.48163837054744, 0.800000037997961, 0.6240000296384096, 0.2400000113993883, 0.0, 0.0, 0.0, 0.0, 0.0, 1.7103949770800824E9, 0.0, 2024-03-13 22:42:57.080
34.0, -789.8612607917748, -399.66627871477976, -523.6607917957008, -458.8651551133953, 0.800000037997961, 0.6240000296384096, 0.2400000113993883, 0.0, 0.0, 0.0, 0.0, 0.0, 1.710394977095082E9, 0.0, 2024-03-13 22:42:57.095
34.0, -794.5249160365202, -403.0920270741917, -513.6191604146734, -462.9379061651416, 0.800000037997961, 0.6240000296384096, 0.2400000113993883, 0.0, 0.0, 0.0, 0.0, 0.0, 1.710394977095082E9, 0.0, 2024-03-13 22:42:57.095
35.0, -794.8203681330197, -392.62030719826, -520.6875713309273, -457.6085487282835, 0.800000037997961, 0.6240000296384096, 0.2400000113993883, 0.0, 0.0, 0.0, 0.0, 0.0, 1.7103949770957303E9, 0.0, 2024-03-13 22:42:57.095
35.0, -795.3925728262402, -393.7198377852328, -518.6755051547661, -460.66030709212646, 0.800000037997961, 0.6240000296384096, 0.2400000113993883, 0.0, 0.0, 0.0, 0.0, 0.0, 1.7103949770957303E9, 0.0, 2024-03-13 22:42:57.095
36.0, -796.5145428129472, -401.5698877922259, -511.14708654396236, -457.3467557313852, 0.800000037997961, 0.6240000296384096, 0.2400000113993883, 0.0, 0.0, 0.0, 0.0, 0.0, 1.7103949771104028E9, 0.0, 2024-03-13 22:42:57.110
36.0, -806.2270629978739, -407.3629928235896, -523.380299299024, -468.55897579854354, 0.800000037997961, 0.6240000296384096, 0.2400000113993883, 0.0, 0.0, 0.0, 0.0, 0.0, 1.7103949771104028E9, 0.0, 2024-03-13 22:42:57.110
37.0, -790.3698871857487, -393.3832467892207, -512.4149126289412, -450.91412780759856, 0.800000037997961, 0.6240000296384096, 0.2400000113993883, 0.0, 0.0, 0.0, 0.0, 0.0, 1.710394977110808E9, 0.0, 2024-03-13 22:42:57.110
37.0, -796.1929114167579, -403.52585546905175, -518.8998991521075, -460.0955821988173, 0.800000037997961, 0.6240000296384096, 0.2400000113993883, 0.0, 0.0, 0.0, 0.0, 0.0, 1.710394977110808E9, 0.0, 2024-03-13 22:42:57.110
38.0, -802.0944735468365, -408.67943760799244, -518.7802223535255, -466.8797607184388, 0.800000037997961, 0.6240000296384096, 0.2400000113993883, 0.0, 0.0, 0.0, 0.0, 0.0, 1.7103949771406887E9, 0.0, 2024-03-13 22:42:57.140
38.0, -793.537582448218, -402.45624408172444, -525.5232619736344, -458.84645561361685, 0.800000037997961, 0.6240000296384096, 0.2400000113993883, 0.0, 0.0, 0.0, 0.0, 0.0, 1.7103949771406887E9, 0.0, 2024-03-13 22:42:57.140
39.0, -788.6121342065744, -387.96039185347036, -512.8786602234468, -450.77201160928234, 0.800000037997961, 0.6240000296384096, 0.2400000113993883, 0.0, 0.0, 0.0, 0.0, 0.0, 1.7103949771414516E9, 0.0, 2024-03-13 22:42:57.141
39.0, -793.3992061498575, -388.4989374470897, -508.3122423775494, -451.9052012958564, 0.800000037997961, 0.6240000296384096, 0.2400000113993883, 0.0, 0.0, 0.0, 0.0, 0.0, 1.7103949771414516E9, 0.0, 2024-03-13 22:42:57.141
40.0, -789.7341041932814, -386.44199247146025, -518.1855782605708, -452.47366608912125, 0.800000037997961, 0.6240000296384096, 0.2400000113993883, 0.0, 0.0, 0.0, 0.0, 0.0, 1.7103949771421485E9, 0.0, 2024-03-13 22:42:57.142
40.0, -783.0359433726408, -388.1623464510776, -514.6214536027983, -448.13164224056527, 0.800000037997961, 0.6240000296384096, 0.2400000113993883, 0.0, 0.0, 0.0, 0.0, 0.0, 1.7103949771421485E9, 0.0, 2024-03-13 22:42:57.142
41.0, -801.9860164481215, -405.5528812450357, -522.2770288120955, -463.3044163607992, 0.800000037997961, 0.6240000296384096, 0.2400000113993883, 0.0, 0.0, 0.0, 0.0, 0.0, 1.7103949771543837E9, 0.0, 2024-03-13 22:42:57.154
41.0, -807.9361972776242, -411.94437026930973, -525.9458706686273, -468.48417779942974, 0.800000037997961, 0.6240000296384096, 0.2400000113993883, 0.0, 0.0, 0.0, 0.0, 0.0, 1.7103949771543837E9, 0.0, 2024-03-13 22:42:57.154
42.0, -795.9610376195051, -404.1354591618292, -526.215143465437, -464.88265414210036, 0.800000037997961, 0.6240000296384096, 0.2400000113993883, 0.0, 0.0, 0.0, 0.0, 0.0, 1.7103949771700647E9, 0.0, 2024-03-13 22:42:57.170
42.0, -793.0027767545544, -405.22750994889066, -517.8228079648688, -462.5751358694397, 0.800000037997961, 0.6240000296384096, 0.2400000113993883, 0.0, 0.0, 0.0, 0.0, 0.0, 1.7103949771700647E9, 0.0, 2024-03-13 22:42:57.170
43.0, -803.186524333898, -412.688610360492, -513.3723270175979, -468.88434709468856, 0.800000037997961, 0.6240000296384096, 0.2400000113993883, 0.0, 0.0, 0.0, 0.0, 0.0, 1.7103949771707416E9, 0.0, 2024-03-13 22:42:57.170
43.0, -808.2353892740794, -417.6327581019141, -530.0709803197533, -470.26811007829383, 0.800000037997961, 0.6240000296384096, 0.2400000113993883, 0.0, 0.0, 0.0, 0.0, 0.0, 1.7103949771707416E9, 0.0, 2024-03-13 22:42:57.170
44.0, -809.843546255026, -415.3551590288989, -521.4617306217551, -468.4542585997842, 0.800000037997961, 0.6240000296384096, 0.2400000113993883, 0.0, 0.0, 0.0, 0.0, 0.0, 1.7103949771844227E9, 0.0, 2024-03-13 22:42:57.184
44.0, -821.4746351172216, -427.2891797875054, -531.6866171006113, -480.67625165497884, 0.800000037997961, 0.6240000296384096, 0.2400000113993883, 0.0, 0.0, 0.0, 0.0, 0.0, 1.7103949771844227E9, 0.0, 2024-03-13 22:42:57.184
45.0, -806.3691791961901, -419.02026098547503, -528.9078714335337, -472.6803455497138, 0.800000037997961, 0.6240000296384096, 0.2400000113993883, 0.0, 0.0, 0.0, 0.0, 0.0, 1.7103949772004347E9, 0.0, 2024-03-13 22:42:57.200
45.0, -795.5122496248223, -400.64239260321483, -519.40104574617, -459.7889104024507, 0.800000037997961, 0.6240000296384096, 0.2400000113993883, 0.0, 0.0, 0.0, 0.0, 0.0, 1.7103949772004347E9, 0.0, 2024-03-13 22:42:57.200
46.0, -800.4414377664216, -401.2407765961252, -504.5723424218595, -453.7564517739229, 0.800000037997961, 0.6240000296384096, 0.2400000113993883, 0.0, 0.0, 0.0, 0.0, 0.0, 1.7103949772007785E9, 0.0, 2024-03-13 22:42:57.200
46.0, -803.197744033765, -402.9536507758312, -507.8335351832211, -454.5717499642633, 0.800000037997961, 0.6240000296384096, 0.2400000113993883, 0.0, 0.0, 0.0, 0.0, 0.0, 1.7103949772007785E9, 0.0, 2024-03-13 22:42:57.200
47.0, -782.8115493752994, -385.77255037939176, -502.1975059499964, -440.72290042834356, 0.800000037997961, 0.6240000296384096, 0.2400000113993883, 0.0, 0.0, 0.0, 0.0, 0.0, 1.710394977214409E9, 0.0, 2024-03-13 22:42:57.214
47.0, -774.916620568838, -376.76687128609046, -488.5580908115953, -429.4059631624259, 0.800000037997961, 0.6240000296384096, 0.2400000113993883, 0.0, 0.0, 0.0, 0.0, 0.0, 1.710394977214409E9, 0.0, 2024-03-13 22:42:57.214
48.0, -784.5356432548724, -385.2040855861269, -493.0197914587334, -442.405855408404, 0.800000037997961, 0.6240000296384096, 0.2400000113993883, 0.0, 0.0, 0.0, 0.0, 0.0, 1.7103949772300615E9, 0.0, 2024-03-13 22:42:57.230
48.0, -776.1807067538612, -374.7061864105053, -491.2433389797807, -432.0388527312316, 0.800000037997961, 0.6240000296384096, 0.2400000113993883, 0.0, 0.0, 0.0, 0.0, 0.0, 1.7103949772300615E9, 0.0, 2024-03-13 22:42:57.230
49.0, -786.9516186262481, -388.81308904336765, -498.55858329311013, -434.72410089941695, 0.800000037997961, 0.6240000296384096, 0.2400000113993883, 0.0, 0.0, 0.0, 0.0, 0.0, 1.710394977230734E9, 0.0, 2024-03-13 22:42:57.230
49.0, -793.5787213477306, -392.70258499728516, -496.55399691686034, -439.51117284270003, 0.800000037997961, 0.6240000296384096, 0.2400000113993883, 0.0, 0.0, 0.0, 0.0, 0.0, 1.710394977230734E9, 0.0, 2024-03-13 22:42:57.230
50.0, -797.3074016035534, -394.2396838790737, -513.1928118197247, -445.2668788745068, 0.800000037997961, 0.6240000296384096, 0.2400000113993883, 0.0, 0.0, 0.0, 0.0, 0.0, 1.7103949772443044E9, 0.0, 2024-03-13 22:42:57.244
50.0, -792.464231160935, -386.1951590743847, -508.6563131734729, -441.72519361646846, 0.800000037997961, 0.6240000296384096, 0.2400000113993883, 0.0, 0.0, 0.0, 0.0, 0.0, 1.7103949772443044E9, 0.0, 2024-03-13 22:42:57.244
51.0, -785.6202142420225, -385.95580547722057, -497.36181530728936, -436.90820247353986, 0.800000037997961, 0.6240000296384096, 0.2400000113993883, 0.0, 0.0, 0.0, 0.0, 0.0, 1.7103949772600431E9, 0.0, 2024-03-13 22:42:57.260
51.0, -783.9783981614746, -391.59557461040094, -509.48657096363604, -449.29101122682914, 0.800000037997961, 0.6240000296384096, 0.2400000113993883, 0.0, 0.0, 0.0, 0.0, 0.0, 1.7103949772600431E9, 0.0, 2024-03-13 22:42:57.260
52.0, -774.445393174421, -375.10635570576414, -501.36350825987756, -436.5155129781924, 0.8160000387579203, 0.6240000296384096, 0.2400000113993883, 0.0, 0.0, 0.0, 0.0, 0.0, 1.7103949772608783E9, 0.0, 2024-03-13 22:42:57.260
52.0, -786.4317725324072, -384.0895953993313, -508.73859097249806, -447.3425233499147, 0.8160000387579203, 0.6240000296384096, 0.2400000113993883, 0.0, 0.0, 0.0, 0.0, 0.0, 1.7103949772608783E9, 0.0, 2024-03-13 22:42:57.260
53.0, -792.6549660586752, -396.4350051530637, -509.66234626155347, -454.9756591594778, 0.8160000387579203, 0.6240000296384096, 0.2400000113993883, 0.0, 0.0, 0.0, 0.0, 0.0, 1.710394977274318E9, 0.0, 2024-03-13 22:42:57.274
53.0, -797.8758663968183, -398.0244626342319, -528.4964824384078, -459.1531274099834, 0.8160000387579203, 0.6240000296384096, 0.2400000113993883, 0.0, 0.0, 0.0, 0.0, 0.0, 1.710394977274318E9, 0.0, 2024-03-13 22:42:57.274
54.0, -794.5323958364315, -391.67037260951474, -510.9413920463994, -450.5737969116308, 0.8160000387579203, 0.6240000296384096, 0.2400000113993883, 0.0, 0.0, 0.0, 0.0, 0.0, 1.7103949772899964E9, 0.0, 2024-03-13 22:42:57.289
54.0, -798.1787982932292, -396.7940355488099, -511.66693263780326, -453.61807547556236, 0.8160000387579203, 0.6240000296384096, 0.2400000113993883, 0.0, 0.0, 0.0, 0.0, 0.0, 1.7103949772899964E9, 0.0, 2024-03-13 22:42:57.289
55.0, -798.7098640869372, -398.6228466271423, -524.5209687855095, -456.5763363405131, 0.8160000387579203, 0.6240000296384096, 0.2400000113993883, 0.0, 0.0, 0.0, 0.0, 0.0, 1.7103949772907288E9, 0.0, 2024-03-13 22:42:57.290
55.0, -792.9840772547759, -389.14968003937975, -522.187271213159, -449.8519962201826, 0.8160000387579203, 0.6240000296384096, 0.2400000113993883, 0.0, 0.0, 0.0, 0.0, 0.0, 1.7103949772907288E9, 0.0, 2024-03-13 22:42:57.290
56.0, -810.8047005436383, -400.93784469971433, -513.1404532203451, -460.4994913940318, 0.8160000387579203, 0.6240000296384096, 0.2400000113993883, 0.0, 0.0, 0.0, 0.0, 0.0, 1.71039497730481E9, 0.0, 2024-03-13 22:42:57.304
56.0, -806.7431691917591, -401.15849879710004, -513.8734736116603, -459.2653244086541, 0.8160000387579203, 0.6240000296384096, 0.2400000113993883, 0.0, 0.0, 0.0, 0.0, 0.0, 1.71039497730481E9, 0.0, 2024-03-13 22:42:57.304
57.0, -792.404392761644, -389.7929428317584, -499.10460868664086, -446.50478575984016, 0.8160000387579203, 0.6240000296384096, 0.2400000113993883, 0.0, 0.0, 0.0, 0.0, 0.0, 1.7103949773199692E9, 0.0, 2024-03-13 22:42:57.319
57.0, -802.3338271440007, -397.5345357400365, -501.1914728619158, -449.91557451942936, 0.8160000387579203, 0.6240000296384096, 0.2400000113993883, 0.0, 0.0, 0.0, 0.0, 0.0, 1.7103949773199692E9, 0.0, 2024-03-13 22:42:57.319
58.0, -810.2811145498417, -409.4648165986873, -507.51564368698746, -458.012457923498, 0.8160000387579203, 0.6240000296384096, 0.2400000113993883, 0.0, 0.0, 0.0, 0.0, 0.0, 1.7103949773207624E9, 0.0, 2024-03-13 22:42:57.320
58.0, -798.2274169926532, -396.9585911468603, -498.487525193952, -443.1575752994977, 0.8160000387579203, 0.6240000296384096, 0.2400000113993883, 0.0, 0.0, 0.0, 0.0, 0.0, 1.7103949773207624E9, 0.0, 2024-03-13 22:42:57.320
59.0, -797.0456086066552, -390.40254652453586, -516.7980753770098, -451.99495889479294, 0.8160000387579203, 0.6240000296384096, 0.2400000113993883, 0.0, 0.0, 0.0, 0.0, 0.0, 1.7103949773346815E9, 0.0, 2024-03-13 22:42:57.334
59.0, -805.7446159035899, -405.63515904406086, -514.1240469086915, -463.88410085393116, 0.8160000387579203, 0.6240000296384096, 0.2400000113993883, 0.0, 0.0, 0.0, 0.0, 0.0, 1.7103949773346815E9, 0.0, 2024-03-13 22:42:57.334
60.0, -795.9236386199482, -391.8349282075651, -513.4658245164901, -454.55679036444053, 0.8160000387579203, 0.6240000296384096, 0.2400000113993883, 0.0, 0.0, 0.0, 0.0, 0.0, 1.7103949773502588E9, 0.0, 2024-03-13 22:42:57.350
60.0, -790.6541195823811, -389.7592837321572, -516.8092950768769, -450.47281961282715, 0.8160000387579203, 0.6240000296384096, 0.2400000113993883, 0.0, 0.0, 0.0, 0.0, 0.0, 1.7103949773502588E9, 0.0, 2024-03-13 22:42:57.350
61.0, -797.2587829041295, -396.7603764492087, -516.6260399790481, -458.8988142129965, 0.8160000387579203, 0.6240000296384096, 0.2400000113993883, 0.0, 0.0, 0.0, 0.0, 0.0, 1.7103949773508887E9, 0.0, 2024-03-13 22:42:57.350
61.0, -798.7547428864054, -398.52934912825003, -519.1803916487843, -467.2462709140964, 0.8160000387579203, 0.6240000296384096, 0.2400000113993883, 0.0, 0.0, 0.0, 0.0, 0.0, 1.7103949773508887E9, 0.0, 2024-03-13 22:42:57.350
62.0, -787.1199141242541, -388.0838085520081, -517.6993912663311, -457.421553730499, 0.8160000387579203, 0.6240000296384096, 0.2400000113993883, 0.0, 0.0, 0.0, 0.0, 0.0, 1.7103949773643253E9, 0.0, 2024-03-13 22:42:57.364
62.0, -787.471464720089, -386.10166157549247, -506.1356206033379, -448.21765993954614, 0.8160000387579203, 0.6240000296384096, 0.2400000113993883, 0.0, 0.0, 0.0, 0.0, 0.0, 1.7103949773643253E9, 0.0, 2024-03-13 22:42:57.364
63.0, -796.155512417201, -394.37806017743424, -515.3881330937147, -456.9727657358162, 0.8160000387579203, 0.6240000296384096, 0.2400000113993883, 0.0, 0.0, 0.0, 0.0, 0.0, 1.7103949773802576E9, 0.0, 2024-03-13 22:42:57.380
63.0, -786.555189230945, -386.1727196746506, -518.8998991521075, -451.43397390143946, 0.8160000387579203, 0.6240000296384096, 0.2400000113993883, 0.0, 0.0, 0.0, 0.0, 0.0, 1.7103949773802576E9, 0.0, 2024-03-13 22:42:57.380
64.0, -780.3357356046326, -376.40036109043285, -502.4293797472492, -439.25311974575743, 0.8160000387579203, 0.6240000296384096, 0.2400000113993883, 0.0, 0.0, 0.0, 0.0, 0.0, 1.7103949773807845E9, 0.0, 2024-03-13 22:42:57.380
64.0, -795.841360820923, -393.9143125829287, -509.0938814682886, -458.6856399155222, 0.8160000387579203, 0.6240000296384096, 0.2400000113993883, 0.0, 0.0, 0.0, 0.0, 0.0, 1.7103949773807845E9, 0.0, 2024-03-13 22:42:57.380
65.0, -792.247316963505, -397.4933968405239, -513.660299314186, -458.5622232169844, 0.8160000387579203, 0.6240000296384096, 0.2400000113993883, 0.0, 0.0, 0.0, 0.0, 0.0, 1.7103949773945456E9, 0.0, 2024-03-13 22:42:57.394
65.0, -784.842315051239, -385.29758308501914, -509.52770986314863, -447.09942985279486, 0.8160000387579203, 0.6240000296384096, 0.2400000113993883, 0.0, 0.0, 0.0, 0.0, 0.0, 1.7103949773945456E9, 0.0, 2024-03-13 22:42:57.394
66.0, -791.9144658674486, -392.37347380118445, -508.07662868034095, -451.51625170046464, 0.8160000387579203, 0.6240000296384096, 0.2400000113993883, 0.0, 0.0, 0.0, 0.0, 0.0, 1.710394977410016E9, 0.0, 2024-03-13 22:42:57.410
66.0, -796.2078710165806, -400.0963672096841, -519.4982831450179, -461.5616229814477, 0.8160000387579203, 0.6240000296384096, 0.2400000113993883, 0.0, 0.0, 0.0, 0.0, 0.0, 1.710394977410016E9, 0.0, 2024-03-13 22:42:57.410
67.0, -797.2438233043067, -394.25464347889647, -523.9263246925548, -461.2100723856129, 0.8160000387579203, 0.6240000296384096, 0.2400000113993883, 0.0, 0.0, 0.0, 0.0, 0.0, 1.7103949774107375E9, 0.0, 2024-03-13 22:42:57.410
67.0, -810.4381903479807, -402.6993375788443, -518.2865555593744, -463.5811689575203, 0.8160000387579203, 0.6240000296384096, 0.2400000113993883, 0.0, 0.0, 0.0, 0.0, 0.0, 1.7103949774107375E9, 0.0, 2024-03-13 22:42:57.410
68.0, -807.8090406791307, -410.64662498468533, -512.6505263261497, -466.3599146245979, 0.8160000387579203, 0.6240000296384096, 0.2400000113993883, 0.0, 0.0, 0.0, 0.0, 0.0, 1.7103949774243133E9, 0.0, 2024-03-13 22:42:57.424
68.0, -806.6309721930884, -403.85870656510815, -523.7056705951691, -466.1766595267691, 0.8160000387579203, 0.6240000296384096, 0.2400000113993883, 0.0, 0.0, 0.0, 0.0, 0.0, 1.7103949774243133E9, 0.0, 2024-03-13 22:42:57.424
69.0, -801.3689329554327, -399.15017252089456, -507.33612848911434, -453.236605680082, 0.8160000387579203, 0.6240000296384096, 0.2400000113993883, 0.0, 0.0, 0.0, 0.0, 0.0, 1.7103949774400096E9, 0.0, 2024-03-13 22:42:57.440
69.0, -816.0330806816928, -413.82927984697744, -516.820514776744, -469.18353909114376, 0.8160000387579203, 0.6240000296384096, 0.2400000113993883, 0.0, 0.0, 0.0, 0.0, 0.0, 1.7103949774400096E9, 0.0, 2024-03-13 22:42:57.440
70.0, -815.2140425913967, -412.04160766815767, -519.4571442455053, -464.25061104958877, 0.8160000387579203, 0.6240000296384096, 0.2400000113993883, 0.0, 0.0, 0.0, 0.0, 0.0, 1.7103949774407125E9, 0.0, 2024-03-13 22:42:57.440
