%OpenBCI Raw EXG Data
%Number of channels = 4
%Sample Rate = 200 Hz
%Board = OpenBCI_GUI$BoardGanglionBLE
Sample Index, EXG Channel 0, EXG Channel 1, EXG Channel 2, EXG Channel 3, Accel Channel 0, Accel Channel 1, Accel Channel 2, Other, Other, Other, Other, Other, Timestamp, Other, Timestamp (Formatted)
2.0, -112.41578281810507, 21.908333940431476, -119.83200443023816, -28.971135006751865, 0.01600000075995922, 0.0, 0.0, 0.0, 0.0, 0.0, 0.0, 0.0, 1.7103878190961554E9, 0.0, 2024-03-13 20:43:39.096
2.0, -83.4857867108658, -186.58360878936946, -69.33774517849088, -197.13573651434854, 0.01600000075995922, 0.0, 0.0, 0.0, 0.0, 0.0, 0.0, 0.0, 1.7103878190961554E9, 0.0, 2024-03-13 20:43:39.096
3.0, -206.79963799985126, -64.53197373542935, -227.1259942590259, -97.25422839773819, 0.01600000075995922, 0.0, 0.0, 0.0, 0.0, 0.0, 0.0, 0.0, 1.7103878191111407E9, 0.0, 2024-03-13 20:43:39.111
3.0, -166.33766037924215, -197.63501315843314, -152.7244245405309, -278.12700995476916, 0.01600000075995922, 0.0, 0.0, 0.0, 0.0, 0.0, 0.0, 0.0, 1.7103878191111407E9, 0.0, 2024-03-13 20:43:39.111
4.0, -46.41215845011175, -224.24440134316683, -32.08460171986371, -261.4227468026802, 0.01600000075995922, 0.0, 0.0, 0.0, 0.0, 0.0, 0.0, 0.0, 1.7103878191117072E9, 0.0, 2024-03-13 20:43:39.111
4.0, 136.31561348494142, -265.1869561080821, 124.56858772411942, -272.4049630225636, 0.01600000075995922, 0.0, 0.0, 0.0, 0.0, 0.0, 0.0, 0.0, 1.7103878191117072E9, 0.0, 2024-03-13 20:43:39.111
5.0, -100.85949195502326, -27.52005382394418, -86.76006912207231, -98.46221608342603, 0.01600000075995922, 0.0, 0.0, 0.0, 0.0, 0.0, 0.0, 0.0, 1.7103878191249561E9, 0.0, 2024-03-13 20:43:39.124
5.0, 41.09028081316501, -132.62246227869764, 74.52498641703278, -183.09989198064432, 0.01600000075995922, 0.0, 0.0, 0.0, 0.0, 0.0, 0.0, 0.0, 1.7103878191249561E9, 0.0, 2024-03-13 20:43:39.124
6.0, -7.019792216829956, -6.509295872878283, -9.173974591307342, -11.288888016249985, 0.01600000075995922, 0.0, 0.0, 0.0, 0.0, 0.0, 0.0, 0.0, 1.710387819140601E9, 0.0, 2024-03-13 20:43:39.140
6.0, -118.20514794951305, 17.88233163813129, -123.39238918805495, -31.097268131561577, 0.01600000075995922, 0.0, 0.0, 0.0, 0.0, 0.0, 0.0, 0.0, 1.710387819140601E9, 0.0, 2024-03-13 20:43:39.140
7.0, -314.63591332221404, 62.73682175669819, -279.0470253438689, -8.973889943677932, 0.01600000075995922, 0.0, 0.0, 0.0, 0.0, 0.0, 0.0, 0.0, 1.7103878191414092E9, 0.0, 2024-03-13 20:43:39.141
7.0, -557.6433927430771, -175.90619441587478, -64.47213533613831, -193.54543255688623, 0.01600000075995922, 0.0, 0.0, 0.0, 0.0, 0.0, 0.0, 0.0, 1.7103878191414092E9, 0.0, 2024-03-13 20:43:39.141
8.0, -705.6144044399261, -67.68470939807594, -220.06132324272767, -95.8031472149305, 0.01600000075995922, 0.0, 0.0, 0.0, 0.0, 0.0, 0.0, 0.0, 1.7103878191552656E9, 0.0, 2024-03-13 20:43:39.155
8.0, -674.3600605102256, -207.74396273866296, -157.01034988975152, -290.2405459112488, 0.01600000075995922, 0.0, 0.0, 0.0, 0.0, 0.0, 0.0, 0.0, 1.7103878191552656E9, 0.0, 2024-03-13 20:43:39.155
9.0, -550.8218152238987, -229.24090768396854, -27.555582873523235, -262.2268252931535, 0.01600000075995922, 0.0, 0.0, 0.0, 0.0, 0.0, 0.0, 0.0, 1.710387819170601E9, 0.0, 2024-03-13 20:43:39.170
9.0, -354.61544384853914, -268.41822966979817, 124.6134665235877, -277.8839164576493, 0.01600000075995922, 0.0, 0.0, 0.0, 0.0, 0.0, 0.0, 0.0, 1.710387819170601E9, 0.0, 2024-03-13 20:43:39.170
10.0, -112.01935342280194, -34.03121964680031, -92.0632472592406, -102.07869934057817, 0.01600000075995922, 0.0, 1.0400000493973494, 0.0, 0.0, 0.0, 0.0, 0.0, 1.7103878191713994E9, 0.0, 2024-03-13 20:43:39.171
10.0, 29.967818344943225, -134.4176142574288, 74.77929961401969, -189.37918400624767, 0.01600000075995922, 0.0, 1.0400000493973494, 0.0, 0.0, 0.0, 0.0, 0.0, 1.7103878191713994E9, 0.0, 2024-03-13 20:43:39.171
11.0, -3.575344357639551, -8.771935346070677, -5.437814535573125, -9.366579439025372, 0.01600000075995922, -0.20800000987946987, 1.0400000493973494, 0.0, 0.0, 0.0, 0.0, 0.0, 1.7103878191849642E9, 0.0, 2024-03-13 20:43:39.184
11.0, -120.0040398281999, 13.158837994094938, -124.6714349729009, -33.08315500803292, 0.01600000075995922, -0.20800000987946987, 1.0400000493973494, 0.0, 0.0, 0.0, 0.0, 0.0, 1.7103878191849642E9, 0.0, 2024-03-13 20:43:39.184
12.0, -314.6433931221254, 72.78967283759266, -275.87559018144384, 0.8620469397865236, 0.01600000075995922, -0.20800000987946987, 1.0400000493973494, 0.0, 0.0, 0.0, 0.0, 0.0, 1.710387819200948E9, 0.0, 2024-03-13 20:43:39.200
12.0, -76.61933039221913, 313.5812615347095, -62.36657166108489, -192.703955066856, 0.01600000075995922, -0.20800000987946987, 1.0400000493973494, 0.0, 0.0, 0.0, 0.0, 0.0, 1.710387819200948E9, 0.0, 2024-03-13 20:43:39.200
13.0, -212.94055372709408, 428.39619017438963, -225.80580957466736, -92.70651005161926, 0.01600000075995922, -0.20800000987946987, 1.0400000493973494, 0.0, 0.0, 0.0, 0.0, 0.0, 1.7103878192014313E9, 0.0, 2024-03-13 20:43:39.201
13.0, -180.50440141139552, 293.4568598731421, -162.91939181974158, -277.2182142655365, 0.01600000075995922, -0.20800000987946987, 1.0400000493973494, 0.0, 0.0, 0.0, 0.0, 0.0, 1.7103878192014313E9, 0.0, 2024-03-13 20:43:39.201
14.0, -62.09355896431953, 271.1857556370087, -35.70482487697154, -257.1218618536368, 0.01600000075995922, -0.20800000987946987, 1.0400000493973494, 0.0, 0.0, 0.0, 0.0, 0.0, 1.7103878192152903E9, 0.0, 2024-03-13 20:43:39.215
14.0, 128.7273564748466, 223.144870756194, 115.63770662993193, -280.76363942353055, 0.01600000075995922, -0.20800000987946987, 1.0400000493973494, 0.0, 0.0, 0.0, 0.0, 0.0, 1.7103878192152903E9, 0.0, 2024-03-13 20:43:39.215
15.0, -106.34966508997604, 455.4300570040941, -91.88747196132317, -105.04444000544026, 0.01600000075995922, -0.20800000987946987, 1.0400000493973494, 0.0, 0.0, 0.0, 0.0, 0.0, 1.710387819231181E9, 0.0, 2024-03-13 20:43:39.231
15.0, 39.70277792960405, 362.52346230484545, 79.88426305353642, -188.06273922184482, 0.01600000075995922, -0.20800000987946987, 1.0400000493973494, 0.0, 0.0, 0.0, 0.0, 0.0, 1.710387819231181E9, 0.0, 2024-03-13 20:43:39.231
16.0, -2.262639473192394, 480.8277176031843, -1.4436013828963041, -13.222416293341666, 0.01600000075995922, -0.20800000987946987, 1.0400000493973494, 0.0, 0.0, 0.0, 0.0, 0.0, 1.710387819231567E9, 0.0, 2024-03-13 20:43:39.231
16.0, -112.63643691549078, 508.74233087245375, -110.30647924309596, -25.446279298514128, 0.01600000075995922, -0.20800000987946987, 1.0400000493973494, 0.0, 0.0, 0.0, 0.0, 0.0, 1.710387819231567E9, 0.0, 2024-03-13 20:43:39.231
17.0, -321.8314808369614, 553.0956743969582, -275.6586759840138, -3.457537509035319, 0.01600000075995922, -0.20800000987946987, 1.0400000493973494, 0.0, 0.0, 0.0, 0.0, 0.0, 1.7103878192453098E9, 0.0, 2024-03-13 20:43:39.245
17.0, -87.35284326504916, 790.8504643300548, -68.53366668801755, -195.23586733685806, 0.01600000075995922, -0.20800000987946987, 1.0400000493973494, 0.0, 0.0, 0.0, 0.0, 0.0, 1.7103878192453098E9, 0.0, 2024-03-13 20:43:39.245
18.0, -222.36884151538834, 904.6668396815658, -228.03852984821424, -102.86781823122874, 0.01600000075995922, -0.20800000987946987, 1.0400000493973494, 0.0, 0.0, 0.0, 0.0, 0.0, 1.7103878192613785E9, 0.0, 2024-03-13 20:43:39.261
18.0, -187.35963803017512, 768.7700949916616, -157.70971118146554, -287.6413154420443, 0.01600000075995922, -0.20800000987946987, 1.0400000493973494, 0.0, 0.0, 0.0, 0.0, 0.0, 1.7103878192613785E9, 0.0, 2024-03-13 20:43:39.261
19.0, -71.4807078531012, 742.1868861066177, -36.19101187121123, -266.7932431390509, 0.01600000075995922, -0.20800000987946987, 1.0400000493973494, 0.0, 0.0, 0.0, 0.0, 0.0, 1.7103878192614872E9, 0.0, 2024-03-13 20:43:39.261
19.0, 128.0242552831769, 707.1384136718698, 117.19350501149893, -283.1609152951278, 0.01600000075995922, -0.20800000987946987, 1.0400000493973494, 0.0, 0.0, 0.0, 0.0, 0.0, 1.7103878192614872E9, 0.0, 2024-03-13 20:43:39.261
20.0, -107.9204230713658, 941.37582769664, -94.6923969280906, -106.53292018780485, 0.01600000075995922, -0.20800000987946987, 1.0400000493973494, 0.0, 0.0, 0.0, 0.0, 0.0, 1.7103878192749443E9, 0.0, 2024-03-13 20:43:39.274
20.0, 46.68143124692142, 854.8943811212666, 76.23038079682738, -186.45458224089816, 0.01600000075995922, -0.20800000987946987, 1.0400000493973494, 0.0, 0.0, 0.0, 0.0, 0.0, 1.7103878192749443E9, 0.0, 2024-03-13 20:43:39.274
21.0, -9.458206987939775, 962.7904948429205, -14.219099631533027, -22.572166182566434, 0.01600000075995922, -0.20800000987946987, 1.0400000493973494, 0.0, 0.0, 0.0, 0.0, 0.0, 1.7103878192907352E9, 0.0, 2024-03-13 20:43:39.290
21.0, -128.96110022207722, 985.9479553685524, -128.98353962181136, -42.896652491763234, 0.01600000075995922, -0.20800000987946987, 1.0400000493973494, 0.0, 0.0, 0.0, 0.0, 0.0, 1.7103878192907352E9, 0.0, 2024-03-13 20:43:39.290
22.0, -322.92353162402287, 1031.2961122812703, -281.4854401149787, -16.65938435262069, 0.01600000075995922, -0.20800000987946987, 1.0400000493973494, 0.0, 0.0, 0.0, 0.0, 0.0, 1.7103878192917137E9, 0.0, 2024-03-13 20:43:39.291
22.0, -93.36660239379853, 1271.8259079814889, -75.73297410272062, -214.64968800684437, 0.01600000075995922, -0.20800000987946987, 1.0400000493973494, 0.0, 0.0, 0.0, 0.0, 0.0, 1.7103878192917137E9, 0.0, 2024-03-13 20:43:39.291
23.0, -223.47959180222824, 1388.787539195735, -230.56670221826062, -108.16351656848565, 0.01600000075995922, -0.20800000987946987, 1.0400000493973494, 0.0, 0.0, 0.0, 0.0, 0.0, 1.7103878193049295E9, 0.0, 2024-03-13 20:43:39.304
23.0, -193.8184452536516, 1255.807916471269, -160.6904114461504, -292.03195799002424, 0.01600000075995922, -0.20800000987946987, 1.0400000493973494, 0.0, 0.0, 0.0, 0.0, 0.0, 1.7103878193049295E9, 0.0, 2024-03-13 20:43:39.304
24.0, -69.45368207711726, 1228.947954989504, -40.847187316045165, -272.22731777466834, 0.01600000075995922, -0.20800000987946987, 1.0400000493973494, 0.0, 0.0, 0.0, 0.0, 0.0, 1.7103878193206265E9, 0.0, 2024-03-13 20:43:39.320
24.0, 117.58993440680206, 1190.776666091755, 113.07961506024003, -292.0917963893153, 0.01600000075995922, -0.20800000987946987, 1.0400000493973494, 0.0, 0.0, 0.0, 0.0, 0.0, 1.7103878193206265E9, 0.0, 2024-03-13 20:43:39.320
25.0, -114.69712179107592, 1426.8466310948133, -103.8065331201069, -116.32771817175671, 0.01600000075995922, -0.20800000987946987, 1.0400000493973494, 0.0, 0.0, 0.0, 0.0, 0.0, 1.7103878193214023E9, 0.0, 2024-03-13 20:43:39.321
25.0, 19.929926863871515, 1329.040767453611, 65.65020382218063, -196.297998924274, 0.01600000075995922, -0.20800000987946987, 1.0400000493973494, 0.0, 0.0, 0.0, 0.0, 0.0, 1.7103878193214023E9, 0.0, 2024-03-13 20:43:39.321
26.0, -24.14853401388973, 1443.5340646971017, -15.191473620012403, -26.241008039098233, 0.01600000075995922, -0.20800000987946987, 1.0400000493973494, 0.0, 0.0, 0.0, 0.0, 0.0, 1.7103878193348951E9, 0.0, 2024-03-13 20:43:39.334
26.0, -132.4466869807802, 1478.5357883824036, -129.2602922185324, -40.473197320476174, 0.01600000075995922, -0.20800000987946987, 1.0400000493973494, 0.0, 0.0, 0.0, 0.0, 0.0, 1.7103878193348951E9, 0.0, 2024-03-13 20:43:39.334
27.0, -328.7315962552093, 1527.8033604486845, -277.53610576177016, -7.070280866231769, 0.01600000075995922, -0.20800000987946987, 1.0400000493973494, 0.0, 0.0, 0.0, 0.0, 0.0, 1.7103878193506153E9, 0.0, 2024-03-13 20:43:39.350
27.0, -88.25415915437043, 1759.1180426580831, -78.2200075732544, -213.1986068240367, 0.01600000075995922, -0.20800000987946987, 1.0400000493973494, 0.0, 0.0, 0.0, 0.0, 0.0, 1.7103878193506153E9, 0.0, 2024-03-13 20:43:39.350
28.0, -229.3138357331045, 1881.1621979121119, -243.6937510627322, -111.89967662421986, 0.01600000075995922, -0.20800000987946987, 1.0400000493973494, 0.0, 0.0, 0.0, 0.0, 0.0, 1.7103878193514056E9, 0.0, 2024-03-13 20:43:39.351
28.0, -190.3328584949486, 1750.2469999631867, -166.34140027919784, -287.92180793872103, 0.01600000075995922, -0.20800000987946987, 1.0400000493973494, 0.0, 0.0, 0.0, 0.0, 0.0, 1.7103878193514056E9, 0.0, 2024-03-13 20:43:39.351
29.0, -69.24050777964294, 1735.3771577393636, -30.861654434353113, -265.3459018561989, 0.01600000075995922, -0.20800000987946987, 1.0400000493973494, 0.0, 0.0, 0.0, 0.0, 0.0, 1.710387819365132E9, 0.0, 2024-03-13 20:43:39.365
29.0, 132.59815292898566, 1692.5908322962932, 115.50681013148278, -280.4046090277843, 0.01600000075995922, -0.20800000987946987, 1.0400000493973494, 0.0, 0.0, 0.0, 0.0, 0.0, 1.710387819365132E9, 0.0, 2024-03-13 20:43:39.365
30.0, -105.95323569467291, 1933.6498238402419, -93.09545964701101, -98.4360367837362, 0.01600000075995922, -0.20800000987946987, 1.0400000493973494, 0.0, 0.0, 0.0, 0.0, 0.0, 1.7103878193809505E9, 0.0, 2024-03-13 20:43:39.380
30.0, 40.17774522397667, 1841.0686004371382, 80.82297794241458, -176.46156955929473, 0.01600000075995922, -0.20800000987946987, 1.0400000493973494, 0.0, 0.0, 0.0, 0.0, 0.0, 1.7103878193809505E9, 0.0, 2024-03-13 20:43:39.380
31.0, 6.473766823299229, 1962.6677075964399, -4.0390919521451, -3.1920046121813357, 0.01600000075995922, -0.20800000987946987, 1.0400000493973494, 0.0, 0.0, 0.0, 0.0, 0.0, 1.7103878193814156E9, 0.0, 2024-03-13 20:43:39.381
31.0, -115.70689477911219, 1987.8147948984988, -121.04373201588169, -21.889634440653026, 0.01600000075995922, -0.20800000987946987, 1.0400000493973494, 0.0, 0.0, 0.0, 0.0, 0.0, 1.7103878193814156E9, 0.0, 2024-03-13 20:43:39.381
32.0, -308.82036889111623, 2039.950870230794, -267.6328506791033, 8.771935346070677, 0.01600000075995922, -0.20800000987946987, 1.0400000493973494, 0.0, 0.0, 0.0, 0.0, 0.0, 1.7103878193953831E9, 0.0, 2024-03-13 20:43:39.395
32.0, -70.84492486063391, 2272.395002226811, -58.05820691213012, -186.08433214528486, 0.01600000075995922, -0.20800000987946987, 1.0400000493973494, 0.0, 0.0, 0.0, 0.0, 0.0, 1.7103878193953831E9, 0.0, 2024-03-13 20:43:39.395
33.0, -218.03429746674374, 2385.5381955862977, -222.1220081183128, -91.30778746819124, 0.01600000075995922, -0.20800000987946987, 1.0400000493973494, 0.0, 0.0, 0.0, 0.0, 0.0, 1.710387819410642E9, 0.0, 2024-03-13 20:43:39.410
33.0, -172.7254095035605, 2260.3151253699325, -145.81682932237163, -266.45852209301665, 0.01600000075995922, -0.20800000987946987, 1.0400000493973494, 0.0, 0.0, 0.0, 0.0, 0.0, 1.710387819410642E9, 0.0, 2024-03-13 20:43:39.410
34.0, -49.52375521324575, 2236.6639980501495, -16.399461305700243, -243.3029315173626, 0.01600000075995922, -0.20800000987946987, 1.0400000493973494, 0.0, 0.0, 0.0, 0.0, 0.0, 1.7103878194114084E9, 0.0, 2024-03-13 20:43:39.411
34.0, 137.4001844720915, 2191.5439750347286, 126.7639089981094, -265.6245244028978, 0.01600000075995922, -0.20800000987946987, 1.0400000493973494, 0.0, 0.0, 0.0, 0.0, 0.0, 1.7103878194114084E9, 0.0, 2024-03-13 20:43:39.411
35.0, -90.51118877762929, 2433.549161267467, -86.06818763026968, -86.5020160251297, 0.01600000075995922, -0.20800000987946987, 1.0400000493973494, 0.0, 0.0, 0.0, 0.0, 0.0, 1.7103878194250052E9, 0.0, 2024-03-13 20:43:39.425
35.0, 57.0633935239166, 2345.265082913451, 89.10311644431204, -167.8037011618726, 0.01600000075995922, -0.20800000987946987, 1.0400000493973494, 0.0, 0.0, 0.0, 0.0, 0.0, 1.7103878194250052E9, 0.0, 2024-03-13 20:43:39.425
36.0, 8.354936501011252, 2453.0303001366556, -0.725540591403842, -6.374659474473447, 0.01600000075995922, -0.20800000987946987, 1.0400000493973494, 0.0, 0.0, 0.0, 0.0, 0.0, 1.7103878194408205E9, 0.0, 2024-03-13 20:43:39.440
36.0, -98.11440538754687, 2486.5248441398144, -110.68420913862064, -17.570049991831183, 0.01600000075995922, -0.20800000987946987, 1.0400000493973494, 0.0, 0.0, 0.0, 0.0, 0.0, 1.7103878194408205E9, 0.0, 2024-03-13 20:43:39.440
37.0, -297.4585528257303, 2539.835248058196, -265.332812206354, 11.344986515585333, 0.01600000075995922, -0.20800000987946987, 1.0400000493973494, 0.0, 0.0, 0.0, 0.0, 0.0, 1.7103878194415302E9, 0.0, 2024-03-13 20:43:39.441
37.0, -68.37285098992288, 2768.2926467014477, -61.08004607632756, -185.81879924843088, 0.01600000075995922, -0.20800000987946987, 1.0400000493973494, 0.0, 0.0, 0.0, 0.0, 0.0, 1.7103878194415302E9, 0.0, 2024-03-13 20:43:39.441
38.0, -200.67742177238688, 2889.1998723689467, -213.87178881606087, -83.32310106279328, 0.01600000075995922, -0.20800000987946987, 1.0400000493973494, 0.0, 0.0, 0.0, 0.0, 0.0, 1.7103878194548974E9, 0.0, 2024-03-13 20:43:39.454
38.0, -160.19300475204363, 2759.2645282084122, -141.54212367301807, -258.45139628788456, 0.01600000075995922, -0.20800000987946987, 1.0400000493973494, 0.0, 0.0, 0.0, 0.0, 0.0, 1.7103878194548974E9, 0.0, 2024-03-13 20:43:39.454
39.0, -43.59601378347725, 2733.5826352126896, -24.653420507907867, -249.12595574837178, 0.01600000075995922, -0.20800000987946987, 1.0400000493973494, 0.0, 0.0, 0.0, 0.0, 0.0, 1.7103878194708896E9, 0.0, 2024-03-13 20:43:39.470
39.0, 146.91448995936662, 2685.792323628906, 129.31078086793423, -267.2513808836229, 0.01600000075995922, -0.20800000987946987, 1.0400000493973494, 0.0, 0.0, 0.0, 0.0, 0.0, 1.7103878194708896E9, 0.0, 2024-03-13 20:43:39.470
40.0, -95.30574052082375, 2919.405174361076, -87.37715261476114, -85.06589444214478, 0.01600000075995922, -0.20800000987946987, 1.0400000493973494, 0.0, 0.0, 0.0, 0.0, 0.0, 1.7103878194714792E9, 0.0, 2024-03-13 20:43:39.471
40.0, 58.64911110512912, 2828.002019444015, 90.73745272494853, -166.29278157977387, 0.01600000075995922, -0.20800000987946987, 1.0400000493973494, 0.0, 0.0, 0.0, 0.0, 0.0, 1.7103878194714792E9, 0.0, 2024-03-13 20:43:39.471
41.0, 1.9073489774018526, 2936.245943861548, 3.508026158437133, -6.161485176999122, 0.01600000075995922, -0.20800000987946987, 1.0400000493973494, 0.0, 0.0, 0.0, 0.0, 0.0, 1.7103878194849527E9, 0.0, 2024-03-13 20:43:39.484
41.0, -117.928395352792, 2952.922157763969, -121.45886091096327, -35.95913807395846, 0.01600000075995922, -0.20800000987946987, 1.0400000493973494, 0.0, 0.0, 0.0, 0.0, 0.0, 1.7103878194849527E9, 0.0, 2024-03-13 20:43:39.484
42.0, -306.7933431151323, 3012.6651896061376, -269.87305075256154, 1.8643401279114187, 0.01600000075995922, -0.20800000987946987, 1.0400000493973494, 0.0, 0.0, 0.0, 0.0, 0.0, 1.7103878195009394E9, 0.0, 2024-03-13 20:43:39.500
42.0, -69.82393217273057, 3252.944412009325, -62.26185446232557, -193.4781143576838, 0.01600000075995922, -0.20800000987946987, 1.0400000493973494, 0.0, 0.0, 0.0, 0.0, 0.0, 1.7103878195009394E9, 0.0, 2024-03-13 20:43:39.500
43.0, -203.20185424247757, 3372.1537230969407, -216.87866838043556, -86.32250082725659, 0.01600000075995922, -0.20800000987946987, 1.0400000493973494, 0.0, 0.0, 0.0, 0.0, 0.0, 1.7103878195018735E9, 0.0, 2024-03-13 20:43:39.501
43.0, -171.77921481477097, 3246.2686905884184, -144.7584376349114, -264.4464559168555, 0.01600000075995922, -0.20800000987946987, 1.0400000493973494, 0.0, 0.0, 0.0, 0.0, 0.0, 1.7103878195018735E9, 0.0, 2024-03-13 20:43:39.501
44.0, -41.59142740722746, 3230.871522470843, -17.050203897990286, -243.57220431417227, 0.01600000075995922, -0.20800000987946987, 1.0400000493973494, 0.0, 0.0, 0.0, 0.0, 0.0, 1.7103878195150692E9, 0.0, 2024-03-13 20:43:39.515
44.0, 143.39524410106242, 3177.706974650733, 127.78116178605705, -271.06233893847093, 0.01600000075995922, -0.20800000987946987, 1.0400000493973494, 0.0, 0.0, 0.0, 0.0, 0.0, 1.7103878195150692E9, 0.0, 2024-03-13 20:43:39.515
45.0, -93.24131574528292, 3416.843657617457, -84.9499575435184, -89.92776438454166, 0.01600000075995922, -0.20800000987946987, 1.0400000493973494, 0.0, 0.0, 0.0, 0.0, 0.0, 1.7103878195310173E9, 0.0, 2024-03-13 20:43:39.531
45.0, 58.26764130964875, 3325.907990194857, 89.96329343412071, -164.77812209771946, 0.01600000075995922, -0.20800000987946987, 1.0400000493973494, 0.0, 0.0, 0.0, 0.0, 0.0, 1.7103878195310173E9, 0.0, 2024-03-13 20:43:39.531
46.0, 12.371589053422213, 3441.448459425941, 7.64809540938586, 3.7118507060222328, 0.01600000075995922, -0.20800000987946987, 1.0400000493973494, 0.0, 0.0, 0.0, 0.0, 0.0, 1.7103878195315642E9, 0.0, 2024-03-13 20:43:39.531
46.0, -99.57670627022162, 3471.7304293671623, -107.59131187526509, -14.005925334058702, 0.01600000075995922, -0.20800000987946987, 1.0400000493973494, 0.0, 0.0, 0.0, 0.0, 0.0, 1.7103878195315642E9, 0.0, 2024-03-13 20:43:39.531
47.0, -284.64939547749236, 3532.8721837927587, -257.93529009399936, 22.878837978933007, 0.01600000075995922, -0.20800000987946987, 1.0400000493973494, 0.0, 0.0, 0.0, 0.0, 0.0, 1.7103878195450027E9, 0.0, 2024-03-13 20:43:39.545
47.0, -62.26185446232557, 3756.411613994278, -52.33989987988025, -182.05271999305114, 0.01600000075995922, -0.20800000987946987, 1.0400000493973494, 0.0, 0.0, 0.0, 0.0, 0.0, 1.7103878195450027E9, 0.0, 2024-03-13 20:43:39.545
48.0, -200.71856067189947, 3861.4504441497847, -219.87058834498748, -89.34807989140972, 0.01600000075995922, -0.20800000987946987, 1.0400000493973494, 0.0, 0.0, 0.0, 0.0, 0.0, 1.7103878195606532E9, 0.0, 2024-03-13 20:43:39.560
48.0, -171.70815671561286, 3728.2613870278, -151.76327025191858, -271.772919930052, 0.01600000075995922, -0.20800000987946987, 1.0400000493973494, 0.0, 0.0, 0.0, 0.0, 0.0, 1.7103878195606532E9, 0.0, 2024-03-13 20:43:39.560
49.0, -45.03213536646217, 3703.6528453193605, -24.09243551455438, -256.25794496387243, 0.01600000075995922, -0.20800000987946987, 1.0400000493973494, 0.0, 0.0, 0.0, 0.0, 0.0, 1.710387819561417E9, 0.0, 2024-03-13 20:43:39.561
49.0, 143.30174660217017, 3658.45428440487, 123.22222374007106, -276.9639010685496, 0.01600000075995922, -0.20800000987946987, 1.0400000493973494, 0.0, 0.0, 0.0, 0.0, 0.0, 1.710387819561417E9, 0.0, 2024-03-13 20:43:39.561
50.0, 386.1932891244069, 3892.0409558373503, -93.64148504054174, -98.30514028528705, 0.01600000075995922, -0.20800000987946987, 1.0400000493973494, 0.0, 0.0, 0.0, 0.0, 0.0, 1.7103878195749836E9, 0.0, 2024-03-13 20:43:39.574
50.0, 546.7378444722854, 3799.6205481323414, 77.16535578574985, -179.20665612677112, 0.01600000075995922, -0.20800000987946987, 1.0400000493973494, 0.0, 0.0, 0.0, 0.0, 0.0, 1.7103878195749836E9, 0.0, 2024-03-13 20:43:39.574
51.0, 484.0571212149225, 3905.26524208067, -10.711073473095894, -20.436683307867497, 0.01600000075995922, -0.20800000987946987, 1.0400000493973494, 0.0, 0.0, 0.0, 0.0, 0.0, 1.71038781959066E9, 0.0, 2024-03-13 20:43:39.590
51.0, 359.2473099436611, 3935.6893282202072, -126.51894555101171, -33.958291597664356, 0.01600000075995922, -0.20800000987946987, 1.0400000493973494, 0.0, 0.0, 0.0, 0.0, 0.0, 1.71038781959066E9, 0.0, 2024-03-13 20:43:39.590
52.0, 187.73549797572196, 3995.2790241641924, -279.23776024160907, -3.5996537073515356, 0.01600000075995922, -0.20800000987946987, 1.0400000493973494, 0.0, 0.0, 0.0, 0.0, 0.0, 1.7103878195914176E9, 0.0, 2024-03-13 20:43:39.591
52.0, 417.01567460922524, 4230.2176694306545, -66.39444391336292, -202.71566724823788, 0.01600000075995922, -0.20800000987946987, 1.0400000493973494, 0.0, 0.0, 0.0, 0.0, 0.0, 1.7103878195914176E9, 0.0, 2024-03-13 20:43:39.591
53.0, 283.44327774178237, 4346.558477252256, -227.4214463555254, -97.37016529636458, 0.01600000075995922, -0.20800000987946987, 1.0400000493973494, 0.0, 0.0, 0.0, 0.0, 0.0, 1.7103878196049747E9, 0.0, 2024-03-13 20:43:39.604
53.0, 315.456821362488, 4221.5822404329665, -150.1289339712821, -271.43258903408423, 0.01600000075995922, -0.20800000987946987, 1.0400000493973494, 0.0, 0.0, 0.0, 0.0, 0.0, 1.7103878196049747E9, 0.0, 2024-03-13 20:43:39.604
54.0, 443.1874944991432, 4195.41790034296, -21.28377064783126, -252.61154250707477, 0.01600000075995922, -0.20800000987946987, 1.0400000493973494, 0.0, 0.0, 0.0, 0.0, 0.0, 1.710387819620944E9, 0.0, 2024-03-13 20:43:39.620
54.0, 633.8064553407021, 4149.261925039813, 124.32175432704389, -272.79391261795536, 0.01600000075995922, -0.20800000987946987, 1.0400000493973494, 0.0, 0.0, 0.0, 0.0, 0.0, 1.710387819620944E9, 0.0, 2024-03-13 20:43:39.620
55.0, 394.87359692156315, 4392.3965610591695, -87.53422841290012, -89.23588289273903, 0.01600000075995922, -0.20800000987946987, 1.0400000493973494, 0.0, 0.0, 0.0, 0.0, 0.0, 1.7103878196218781E9, 0.0, 2024-03-13 20:43:39.621
55.0, 542.0218306281604, 4291.834391150624, 82.8911426179111, -178.1033856398426, 0.01600000075995922, -0.20800000987946987, 1.0400000493973494, 0.0, 0.0, 0.0, 0.0, 0.0, 1.7103878196218781E9, 0.0, 2024-03-13 20:43:39.621
56.0, 487.56140747340396, 4399.4761916752905, -7.027272016741335, -16.221816057804972, 0.01600000075995922, -0.20800000987946987, 1.0400000493973494, 0.0, 0.0, 0.0, 0.0, 0.0, 1.7103878196349533E9, 0.0, 2024-03-13 20:43:39.634
56.0, 377.44940302800387, 4434.919223555364, -122.05724490387365, -33.47584450338036, 0.01600000075995922, -0.20800000987946987, 1.0400000493973494, 0.0, 0.0, 0.0, 0.0, 0.0, 1.7103878196349533E9, 0.0, 2024-03-13 20:43:39.634
57.0, 183.13542103022337, 4491.4010626361705, -274.0654786028899, -0.562854943331331, 0.01600000075995922, -0.20800000987946987, 1.0400000493973494, 0.0, 0.0, 0.0, 0.0, 0.0, 1.7103878196507933E9, 0.0, 2024-03-13 20:43:39.650
57.0, 418.369518393185, 4719.585448582657, -62.28055396210402, -197.12451681448147, 0.01600000075995922, -0.20800000987946987, 1.0400000493973494, 0.0, 0.0, 0.0, 0.0, 0.0, 1.7103878196507933E9, 0.0, 2024-03-13 20:43:39.650
58.0, 277.7885490087792, 4830.914790463634, -223.7937433985062, -92.33625995600596, 0.01600000075995922, -0.20800000987946987, 1.0400000493973494, 0.0, 0.0, 0.0, 0.0, 0.0, 1.7103878196513743E9, 0.0, 2024-03-13 20:43:39.651
58.0, 318.1981680300087, 4711.492305078544, -144.91177353309467, -264.65215041441843, 0.01600000075995922, -0.20800000987946987, 1.0400000493973494, 0.0, 0.0, 0.0, 0.0, 0.0, 1.7103878196513743E9, 0.0, 2024-03-13 20:43:39.651
59.0, 434.5296261017211, 4689.344617540948, -25.31912270002067, -251.36989572178572, 0.01600000075995922, -0.20800000987946987, 1.0400000493973494, 0.0, 0.0, 0.0, 0.0, 0.0, 1.710387819665118E9, 0.0, 2024-03-13 20:43:39.665
59.0, 623.5292102624662, 4641.101778062526, 125.27168891578913, -267.5917117795907, 0.01600000075995922, -0.20800000987946987, 1.0400000493973494, 0.0, 0.0, 0.0, 0.0, 0.0, 1.710387819665118E9, 0.0, 2024-03-13 20:43:39.665
60.0, 380.41514369286597, 4876.431242874358, -92.45967665454373, -88.65993829956278, 0.01600000075995922, -0.20800000987946987, 1.0400000493973494, 0.0, 0.0, 0.0, 0.0, 0.0, 1.7103878196806393E9, 0.0, 2024-03-13 20:43:39.680
60.0, 535.634081503842, 4795.72420183057, 90.49809912778437, -164.37421290250495, 0.01600000075995922, -0.20800000987946987, 1.0400000493973494, 0.0, 0.0, 0.0, 0.0, 0.0, 1.7103878196806393E9, 0.0, 2024-03-13 20:43:39.680
61.0, 487.5875867730938, 4894.54731825972, 0.482447094283998, -7.481669861357659, 0.01600000075995922, -0.20800000987946987, 1.0400000493973494, 0.0, 0.0, 0.0, 0.0, 0.0, 1.7103878196816957E9, 0.0, 2024-03-13 20:43:39.681
61.0, 377.6176985260099, 4921.788749536965, -117.2215542611666, -18.755598277784884, 0.01600000075995922, -0.20800000987946987, 1.0400000493973494, 0.0, 0.0, 0.0, 0.0, 0.0, 1.7103878196816957E9, 0.0, 2024-03-13 20:43:39.681
62.0, 198.85422054398805, 4993.207749040797, -258.5448937867768, 19.352112320717424, 0.01600000075995922, -0.20800000987946987, 1.0400000493973494, 0.0, 0.0, 0.0, 0.0, 0.0, 1.7103878196949916E9, 0.0, 2024-03-13 20:43:39.694
62.0, 424.76474731741473, 5214.428441269789, -53.99667556025088, -188.8855172120966, 0.01600000075995922, -0.20800000987946987, 1.0400000493973494, 0.0, 0.0, 0.0, 0.0, 0.0, 1.7103878196949916E9, 0.0, 2024-03-13 20:43:39.694
63.0, 290.00680216401815, 5335.739576132502, -214.98253910290077, -81.28859548689798, 0.01600000075995922, -0.20800000987946987, 1.0400000493973494, 0.0, 0.0, 0.0, 0.0, 0.0, 1.710387819710594E9, 0.0, 2024-03-13 20:43:39.710
63.0, 320.4795070029795, 5210.299591718707, -136.9682260272093, -261.0281873573549, 0.01600000075995922, -0.20800000987946987, 1.0400000493973494, 0.0, 0.0, 0.0, 0.0, 0.0, 1.710387819710594E9, 0.0, 2024-03-13 20:43:39.710
64.0, 439.54857184225693, 5182.687910345849, -10.45302037615329, -247.0091723734513, 0.01600000075995922, -0.20800000987946987, 1.0400000493973494, 0.0, 0.0, 0.0, 0.0, 0.0, 1.710387819711373E9, 0.0, 2024-03-13 20:43:39.711
64.0, 640.9534041560255, 5130.72013051156, 131.11715254653245, -268.68376256665215, 0.01600000075995922, -0.20800000987946987, 1.0400000493973494, 0.0, 0.0, 0.0, 0.0, 0.0, 1.710387819711373E9, 0.0, 2024-03-13 20:43:39.711
65.0, 885.9467704533599, 5375.186170915142, -82.9827701668255, -87.07796061830595, 0.01600000075995922, -0.20800000987946987, 1.0400000493973494, 0.0, 0.0, 0.0, 0.0, 0.0, 1.7103878197250068E9, 0.0, 2024-03-13 20:43:39.725
65.0, 1027.6010911250487, 5286.756236462854, 92.73455930128694, -166.0609077825211, 0.01600000075995922, -0.20800000987946987, 1.0400000493973494, 0.0, 0.0, 0.0, 0.0, 0.0, 1.7103878197250068E9, 0.0, 2024-03-13 20:43:39.725
66.0, 977.7931035151705, 5383.140938120894, -4.226086949929595, -16.857599050272256, 0.01600000075995922, -0.20800000987946987, 1.0400000493973494, 0.0, 0.0, 0.0, 0.0, 0.0, 1.710387819740664E9, 0.0, 2024-03-13 20:43:39.740
66.0, 863.2792368219234, 5414.941307444125, -123.42978818761185, -24.6048018084839, 0.01600000075995922, -0.20800000987946987, 1.0400000493973494, 0.0, 0.0, 0.0, 0.0, 0.0, 1.710387819740664E9, 0.0, 2024-03-13 20:43:39.740
67.0, 692.8781751408242, 5481.487217305694, -263.24220813112333, 14.090073083061725, 0.01600000075995922, -0.20800000987946987, 1.0400000493973494, 0.0, 0.0, 0.0, 0.0, 0.0, 1.7103878197413907E9, 0.0, 2024-03-13 20:43:39.741
67.0, 910.3103487147018, 5705.273480904289, -58.151704411022365, -195.0713117388077, 0.01600000075995922, -0.20800000987946987, 1.0400000493973494, 0.0, 0.0, 0.0, 0.0, 0.0, 1.7103878197413907E9, 0.0, 2024-03-13 20:43:39.741
68.0, 772.2051931009628, 5816.427047487348, -223.0457634073682, -94.37450543185696, 0.01600000075995922, -0.20800000987946987, 1.0400000493973494, 0.0, 0.0, 0.0, 0.0, 0.0, 1.7103878197551448E9, 0.0, 2024-03-13 20:43:39.755
68.0, 800.7294100630097, 5696.151864912361, -152.3915734444745, -264.5436933157034, 0.01600000075995922, -0.20800000987946987, 1.0400000493973494, 0.0, 0.0, 0.0, 0.0, 0.0, 1.7103878197551448E9, 0.0, 2024-03-13 20:43:39.755
69.0, 934.2195291314274, 5669.770610624924, -23.30331662390381, -254.6423081830144, 0.01600000075995922, -0.20800000987946987, 1.0400000493973494, 0.0, 0.0, 0.0, 0.0, 0.0, 1.7103878197706244E9, 0.0, 2024-03-13 20:43:39.770
69.0, 1117.1268162643537, 5611.6357357637025, 119.22427068743855, -284.4586605797522, 0.01600000075995922, -0.20800000987946987, 1.0400000493973494, 0.0, 0.0, 0.0, 0.0, 0.0, 1.7103878197706244E9, 0.0, 2024-03-13 20:43:39.770
70.0, 877.8760663489811, 5372.351326748729, -92.21658315742388, -94.55776052968577, 0.01600000075995922, -0.20800000987946987, 1.0400000493973494, 0.0, 0.0, 0.0, 0.0, 0.0, 1.7103878197714052E9, 0.0, 2024-03-13 20:43:39.771
70.0, 1030.854804086499, 5280.914512732066, 88.04472475685179, -168.56290085287765, 0.01600000075995922, -0.20800000987946987, 1.0400000493973494, 0.0, 0.0, 0.0, 0.0, 0.0, 1.7103878197714052E9, 0.0, 2024-03-13 20:43:39.771
71.0, 981.9219530662522, 5383.76924131345, -0.3141515962779522, -14.426664079073817, 0.01600000075995922, -0.20800000987946987, 1.0400000493973494, 0.0, 0.0, 0.0, 0.0, 0.0, 1.7103878197850091E9, 0.0, 2024-03-13 20:43:39.785
71.0, 869.8128420445137, 5418.224939605221, -117.84611755376682, -23.28835702408105, 0.01600000075995922, -0.20800000987946987, 1.0400000493973494, 0.0, 0.0, 0.0, 0.0, 0.0, 1.7103878197850091E9, 0.0, 2024-03-13 20:43:39.785
72.0, 672.2152278856374, 5478.098867945839, -270.5649322443642, 8.65973834739998, 0.01600000075995922, -0.20800000987946987, 1.0400000493973494, 0.0, 0.0, 0.0, 0.0, 0.0, 1.7103878198010268E9, 0.0, 2024-03-13 20:43:39.801
72.0, 906.2450774628669, 5703.541907224804, -56.6183454291895, -190.90506318816915, 0.01600000075995922, -0.20800000987946987, 1.0400000493973494, 0.0, 0.0, 0.0, 0.0, 0.0, 1.7103878198010268E9, 0.0, 2024-03-13 20:43:39.801
73.0, 767.1899872603826, 5817.115189079195, -223.38983420329168, -90.75428227474913, 0.01600000075995922, -0.20800000987946987, 1.0400000493973494, 0.0, 0.0, 0.0, 0.0, 0.0, 1.7103878198015652E9, 0.0, 2024-03-13 20:43:39.801
73.0, 811.8593523311429, 5698.874512080103, -139.78063079388812, -257.60243899794295, 0.01600000075995922, -0.20800000987946987, 1.0400000493973494, 0.0, 0.0, 0.0, 0.0, 0.0, 1.7103878198015652E9, 0.0, 2024-03-13 20:43:39.801
74.0, 916.0660547465086, 5671.04965640977, -18.10485568549484, -249.32043054606766, 0.01600000075995922, -0.20800000987946987, 1.0400000493973494, 0.0, 0.0, 0.0, 0.0, 0.0, 1.7103878198149693E9, 0.0, 2024-03-13 20:43:39.814
74.0, 1116.543391871266, 5620.215066262055, 120.1704653762281, -273.72140780696645, 0.01600000075995922, -0.20800000987946987, 1.0400000493973494, 0.0, 0.0, 0.0, 0.0, 0.0, 1.7103878198149693E9, 0.0, 2024-03-13 20:43:39.814
75.0, 878.3510336433537, 5864.785823864397, -89.64727188786492, -89.81930728582665, 0.01600000075995922, -0.20800000987946987, 1.0400000493973494, 0.0, 0.0, 0.0, 0.0, 0.0, 1.7103878198309233E9, 0.0, 2024-03-13 20:43:39.830
75.0, 1031.819698275067, 5773.494865946006, 85.72224688436836, -169.05282774707302, 0.01600000075995922, -0.20800000987946987, 1.0400000493973494, 0.0, 0.0, 0.0, 0.0, 0.0, 1.7103878198309233E9, 0.0, 2024-03-13 20:43:39.830
76.0, 991.0734882578254, 5879.375173591543, -8.343716801144183, -14.602439376991242, 0.01600000075995922, -0.20800000987946987, 1.0400000493973494, 0.0, 0.0, 0.0, 0.0, 0.0, 1.7103878198314652E9, 0.0, 2024-03-13 20:43:39.831
76.0, 860.0816223598085, 5905.356258583721, -119.62257003271952, -25.457498998381197, 0.01600000075995922, -0.20800000987946987, 1.0400000493973494, 0.0, 0.0, 0.0, 0.0, 0.0, 1.7103878198314652E9, 0.0, 2024-03-13 20:43:39.831
77.0, 687.5899566034786, 5977.358682480641, -263.11879143258557, 15.657091164495796, 0.01600000075995922, -0.20800000987946987, 1.0400000493973494, 0.0, 0.0, 0.0, 0.0, 0.0, 1.7103878198454363E9, 0.0, 2024-03-13 20:43:39.845
77.0, 911.2640232034028, 6196.769263131078, -57.43738351948559, -196.00628672773018, 0.01600000075995922, -0.20800000987946987, 1.0400000493973494, 0.0, 0.0, 0.0, 0.0, 0.0, 1.7103878198454363E9, 0.0, 2024-03-13 20:43:39.845
78.0, 773.8769283811562, 6308.6408905056305, -224.7212385875173, -97.437483495567, 0.01600000075995922, -0.20800000987946987, 1.0400000493973494, 0.0, 0.0, 0.0, 0.0, 0.0, 1.7103878198606837E9, 0.0, 2024-03-13 20:43:39.860
78.0, 805.5127421063371, 6193.27993647242, -148.2028854941018, -263.08139243302867, 0.01600000075995922, -0.20800000987946987, 1.0400000493973494, 0.0, 0.0, 0.0, 0.0, 0.0, 1.7103878198606837E9, 0.0, 2024-03-13 20:43:39.860
79.0, 945.1662163017318, 6171.461360130925, -14.989519022405148, -247.5589376669377, 0.01600000075995922, -0.20800000987946987, 1.0400000493973494, 0.0, 0.0, 0.0, 0.0, 0.0, 1.710387819861404E9, 0.0, 2024-03-13 20:43:39.861
79.0, 1117.0968970647082, 6104.956589168869, 120.96332416683435, -285.01590567315, 0.01600000075995922, -0.20800000987946987, 1.0400000493973494, 0.0, 0.0, 0.0, 0.0, 0.0, 1.710387819861404E9, 0.0, 2024-03-13 20:43:39.861
80.0, 881.4401910067536, 5873.671826159116, -88.14383210567757, -89.08254699455574, 0.01600000075995922, -0.20800000987946987, 1.0400000493973494, 0.0, 0.0, 0.0, 0.0, 0.0, 1.7103878198749352E9, 0.0, 2024-03-13 20:43:39.874
80.0, 1040.0212988778949, 5784.071303020697, 93.24318569526076, -165.86643298482522, 0.01600000075995922, -0.20800000987946987, 1.0400000493973494, 0.0, 0.0, 0.0, 0.0, 0.0, 1.7103878198749352E9, 0.0, 2024-03-13 20:43:39.874
81.0, 985.0185902295634, 5882.3596137561835, -1.1070103868842125, -15.746848763432354, 0.01600000075995922, -0.20800000987946987, 1.0400000493973494, 0.0, 0.0, 0.0, 0.0, 0.0, 1.7103878198906715E9, 0.0, 2024-03-13 20:43:39.890
81.0, 872.6215069112368, 5916.46376145212, -114.54004599293694, -24.219592113047838, 0.01600000075995922, -0.20800000987946987, 1.0400000493973494, 0.0, 0.0, 0.0, 0.0, 0.0, 1.7103878198906715E9, 0.0, 2024-03-13 20:43:39.890
82.0, 690.8100104653277, 5988.125854453072, -247.45983031811193, 22.560946482699364, 0.01600000075995922, -0.20800000987946987, 1.0400000493973494, 0.0, 0.0, 0.0, 0.0, 0.0, 1.7103878198913984E9, 0.0, 2024-03-13 20:43:39.891
82.0, 918.3698331192136, 6205.580467426684, -46.049388154409826, -184.26674076681957, 0.01600000075995922, -0.20800000987946987, 1.0400000493973494, 0.0, 0.0, 0.0, 0.0, 0.0, 1.7103878198913984E9, 0.0, 2024-03-13 20:43:39.891
83.0, 775.9226536569186, 6317.051925505977, -210.8237703521736, -84.36279325047508, 0.01600000075995922, -0.20800000987946987, 1.0400000493973494, 0.0, 0.0, 0.0, 0.0, 0.0, 1.7103878199049516E9, 0.0, 2024-03-13 20:43:39.904
83.0, 817.8731114598922, 6207.708470501471, -131.20504019549116, -243.6862712628208, 0.01600000075995922, -0.20800000987946987, 1.0400000493973494, 0.0, 0.0, 0.0, 0.0, 0.0, 1.7103878199049516E9, 0.0, 2024-03-13 20:43:39.904
84.0, 946.6621762840077, 6175.885661778506, -6.324170825071633, -242.83544402290136, 0.01600000075995922, -0.20800000987946987, 1.0400000493973494, 0.0, 0.0, 0.0, 0.0, 0.0, 1.7103878199206405E9, 0.0, 2024-03-13 20:43:39.920
84.0, 1117.9159351550043, 6114.074465260841, 131.85017293784767, -271.91129622841254, 0.01600000075995922, -0.20800000987946987, 1.0400000493973494, 0.0, 0.0, 0.0, 0.0, 0.0, 1.7103878199206405E9, 0.0, 2024-03-13 20:43:39.920
85.0, 894.159590756055, 5877.351887715515, -78.34903412172571, -80.81362819252536, 0.01600000075995922, -0.20800000987946987, 1.0400000493973494, 0.0, 0.0, 0.0, 0.0, 0.0, 1.7103878199216013E9, 0.0, 2024-03-13 20:43:39.921
85.0, 1031.3035920811817, 5782.115335343871, 93.57977669127285, -166.70417057489976, 0.01600000075995922, -0.20800000987946987, 1.0400000493973494, 0.0, 0.0, 0.0, 0.0, 0.0, 1.7103878199216013E9, 0.0, 2024-03-13 20:43:39.921
86.0, 990.5199830643833, 5876.095281330403, 2.5655713696032763, -12.014428607653826, 0.01600000075995922, -0.20800000987946987, 1.0400000493973494, 0.0, 0.0, 0.0, 0.0, 0.0, 1.7103878199350393E9, 0.0, 2024-03-13 20:43:39.935
86.0, 859.2700640694238, 5915.483907663729, -116.27535957237706, -25.281723700463772, 0.01600000075995922, -0.20800000987946987, 1.0400000493973494, 0.0, 0.0, 0.0, 0.0, 0.0, 1.7103878199350393E9, 0.0, 2024-03-13 20:43:39.935
87.0, 690.9371670638211, 5978.933180361986, -255.51931472262368, 17.743955339770764, 0.01600000075995922, -0.20800000987946987, 1.0400000493973494, 0.0, 0.0, 0.0, 0.0, 0.0, 1.7103878199507167E9, 0.0, 2024-03-13 20:43:39.950
87.0, 907.1015145527199, 6190.231918008532, -53.52918806578964, -198.553158597555, 0.01600000075995922, -0.20800000987946987, 1.0400000493973494, 0.0, 0.0, 0.0, 0.0, 0.0, 1.7103878199507167E9, 0.0, 2024-03-13 20:43:39.950
88.0, 756.7519264840521, 6298.311286828015, -228.51723704254255, -102.20211603911594, 0.01600000075995922, -0.20800000987946987, 1.0400000493973494, 0.0, 0.0, 0.0, 0.0, 0.0, 1.710387819951389E9, 0.0, 2024-03-13 20:43:39.951
88.0, 813.0860395166092, 6193.814742166083, -142.63043456012383, -258.1709037912078, 0.01600000075995922, -0.20800000987946987, 1.0400000493973494, 0.0, 0.0, 0.0, 0.0, 0.0, 1.710387819951389E9, 0.0, 2024-03-13 20:43:39.951
89.0, 938.879444476217, 6169.778405150864, -15.045617521740496, -247.25600577052683, 0.01600000075995922, -0.20800000987946987, 1.0400000493973494, 0.0, 0.0, 0.0, 0.0, 0.0, 1.7103878199649873E9, 0.0, 2024-03-13 20:43:39.964
89.0, 1114.4490478960797, 6107.439882739447, 119.87875317968428, -282.977660197299, 0.01600000075995922, -0.20800000987946987, 1.0400000493973494, 0.0, 0.0, 0.0, 0.0, 0.0, 1.7103878199649873E9, 0.0, 2024-03-13 20:43:39.964
90.0, 884.9519570651464, 5871.682199382689, -91.17689096974209, -90.92631767271087, 0.01600000075995922, -0.20800000987946987, 1.0400000493973494, 0.0, 0.0, 0.0, 0.0, 0.0, 1.7103878199808156E9, 0.0, 2024-03-13 20:43:39.980
90.0, 1040.0474781775847, 5787.010864385869, 96.68015375453979, -159.80779505660757, 0.01600000075995922, -0.20800000987946987, 1.0400000493973494, 0.0, 0.0, 0.0, 0.0, 0.0, 1.7103878199808156E9, 0.0, 2024-03-13 20:43:39.980
91.0, 972.9611527724192, 5871.52512358455, -6.548564822413027, -21.98126198956743, 0.01600000075995922, -0.20800000987946987, 1.0400000493973494, 0.0, 0.0, 0.0, 0.0, 0.0, 1.7103878199814231E9, 0.0, 2024-03-13 20:43:39.981
91.0, 856.5436770017259, 5903.830379401799, -121.1895881141536, -27.33866867609322, 0.01600000075995922, -0.20800000987946987, 1.0400000493973494, 0.0, 0.0, 0.0, 0.0, 0.0, 1.7103878199814231E9, 0.0, 2024-03-13 20:43:39.981
92.0, 679.5229923990555, 5976.105815995485, -263.3282258301042, 10.593266624491662, 0.01600000075995922, -0.20800000987946987, 1.0400000493973494, 0.0, 0.0, 0.0, 0.0, 0.0, 1.7103878199950476E9, 0.0, 2024-03-13 20:43:39.995
92.0, 906.0917415646836, 6188.290909931529, -63.18934965133667, -201.0027930685319, 0.01600000075995922, -0.20800000987946987, 1.0400000493973494, 0.0, 0.0, 0.0, 0.0, 0.0, 1.7103878199950476E9, 0.0, 2024-03-13 20:43:39.995
93.0, 771.1281019137241, 6305.338558844756, -231.4268792080693, -102.81919953180477, 0.01600000075995922, -0.20800000987946987, 1.0400000493973494, 0.0, 0.0, 0.0, 0.0, 0.0, 1.7103878200106683E9, 0.0, 2024-03-13 20:43:40.010
93.0, 819.9188367356546, 6207.095126908738, -138.58386280806735, -255.42581722373143, 0.01600000075995922, -0.20800000987946987, 1.0400000493973494, 0.0, 0.0, 0.0, 0.0, 0.0, 1.7103878200106683E9, 0.0, 2024-03-13 20:43:40.010
94.0, 946.0862316908315, 6179.105715640355, -13.385101941414177, -245.25141939427704, 0.01600000075995922, -0.20800000987946987, 1.0400000493973494, 0.0, 0.0, 0.0, 0.0, 0.0, 1.7103878200117233E9, 0.0, 2024-03-13 20:43:40.011
94.0, 1112.5566585185006, 6108.045746532269, 117.49269700795412, -279.7837856351398, 0.01600000075995922, -0.20800000987946987, 1.0400000493973494, 0.0, 0.0, 0.0, 0.0, 0.0, 1.7103878200117233E9, 0.0, 2024-03-13 20:43:40.011
95.0, 895.9734422345646, 5882.868240150157, -80.56679479544982, -74.97564436169341, 0.01600000075995922, -0.20800000987946987, 1.0400000493973494, 0.0, 0.0, 0.0, 0.0, 0.0, 1.7103878200249305E9, 0.0, 2024-03-13 20:43:40.024
95.0, 1051.959059536457, 5799.247817040887, 99.57483632024378, -151.59497475391254, 0.01600000075995922, -0.20800000987946987, 1.0400000493973494, 0.0, 0.0, 0.0, 0.0, 0.0, 1.7103878200249305E9, 0.0, 2024-03-13 20:43:40.024
96.0, 990.4414451653138, 5893.796227820683, 4.076490951701999, -2.5076029202900827, 0.01600000075995922, -0.20800000987946987, 1.0400000493973494, 0.0, 0.0, 0.0, 0.0, 0.0, 1.710387820040733E9, 0.0, 2024-03-13 20:43:40.040
96.0, 876.0360355707817, 5926.471733733546, -109.93248924752697, -9.383408988825977, 0.01600000075995922, -0.20800000987946987, 1.0400000493973494, 0.0, 0.0, 0.0, 0.0, 0.0, 1.710387820040733E9, 0.0, 2024-03-13 20:43:40.040
97.0, 693.7346122306772, 5995.014750171453, -252.3964982596226, 35.807672125753015, 0.01600000075995922, -0.20800000987946987, 1.0400000493973494, 0.0, 0.0, 0.0, 0.0, 0.0, 1.7103878200414124E9, 0.0, 2024-03-13 20:43:40.041
97.0, 912.2850158913061, 6205.0980203324, -57.343886020593345, -183.98624827014282, 0.01600000075995922, -0.20800000987946987, 1.0400000493973494, 0.0, 0.0, 0.0, 0.0, 0.0, 1.7103878200414124E9, 0.0, 2024-03-13 20:43:40.041
98.0, 774.6810068716295, 6318.660082486924, -228.29284304520115, -87.9119583084248, 0.01600000075995922, -0.20800000987946987, 1.0400000493973494, 0.0, 0.0, 0.0, 0.0, 0.0, 1.7103878200549672E9, 0.0, 2024-03-13 20:43:40.054
98.0, 829.4406220228411, 6210.4198979693465, -142.72393205901608, -248.66781800379977, 0.01600000075995922, -0.20800000987946987, 1.0400000493973494, 0.0, 0.0, 0.0, 0.0, 0.0, 1.7103878200549672E9, 0.0, 2024-03-13 20:43:40.054
99.0, 947.4737345743924, 6181.731125409249, -15.890834911726415, -240.0379988560453, 0.01600000075995922, -0.20800000987946987, 1.0400000493973494, 0.0, 0.0, 0.0, 0.0, 0.0, 1.7103878200706797E9, 0.0, 2024-03-13 20:43:40.070
99.0, 1123.8137573851272, 6116.228647635318, 117.97140420228243, -284.4810999794863, 0.01600000075995922, -0.20800000987946987, 1.0400000493973494, 0.0, 0.0, 0.0, 0.0, 0.0, 1.7103878200706797E9, 0.0, 2024-03-13 20:43:40.070
100.0, 888.3029074254446, 5882.699944652151, -93.0244015478529, -83.62229305924848, 0.01600000075995922, -0.20800000987946987, 1.0400000493973494, 0.0, 0.0, 0.0, 0.0, 0.0, 1.710387820071417E9, 0.0, 2024-03-13 20:43:40.071
100.0, 1040.7804985689, 5789.8307489524595, 84.46938039921224, -165.2044706926681, 0.01600000075995922, -0.20800000987946987, 1.0400000493973494, 0.0, 0.0, 0.0, 0.0, 0.0, 1.710387820071417E9, 0.0, 2024-03-13 20:43:40.071
0.0, -620.2081791018136, -209.73732941504568, -420.05247337324545, -328.3576062596403, 0.01600000075995922, -0.20800000987946987, 1.0400000493973494, 0.0, 0.0, 0.0, 0.0, 0.0, 1.7103878200858142E9, 0.0, 2024-03-13 20:43:40.085
1.0, -730.3388830469921, -172.99655225034803, -530.7965209111571, -334.06282364204526, 0.01600000075995922, -0.20800000987946987, 1.0400000493973494, 0.0, 0.0, 0.0, 0.0, 0.0, 1.7103878200864234E9, 0.0, 2024-03-13 20:43:40.086
1.0, -934.4065241292119, -128.47117332788184, -684.7008838877082, -308.9737047892995, 0.01600000075995922, -0.20800000987946987, 1.0400000493973494, 0.0, 0.0, 0.0, 0.0, 0.0, 1.7103878200864234E9, 0.0, 2024-03-13 20:43:40.086
2.0, -710.9643313265406, 84.98548659309745, -480.12274646153674, -527.7204531976022, 0.01600000075995922, -0.20800000987946987, 1.0400000493973494, 0.0, 0.0, 0.0, 0.0, 0.0, 1.7103878200999732E9, 0.0, 2024-03-13 20:43:40.099
2.0, -852.9552429942414, 193.84649450331926, -650.0320112984627, -426.91144989198074, 0.01600000075995922, -0.20800000987946987, 1.0400000493973494, 0.0, 0.0, 0.0, 0.0, 0.0, 1.7103878200999732E9, 0.0, 2024-03-13 20:43:40.099
3.0, -807.889448528178, 94.40629458148032, -554.111057234928, -576.3354127216153, 0.01600000075995922, -0.20800000987946987, 1.0400000493973494, 0.0, 0.0, 0.0, 0.0, 0.0, 1.7103878201159885E9, 0.0, 2024-03-13 20:43:40.115
3.0, -683.678021249827, 66.51038081198931, -427.5883717839606, -567.0660706814378, 0.01600000075995922, -0.20800000987946987, 1.0400000493973494, 0.0, 0.0, 0.0, 0.0, 0.0, 1.7103878201159885E9, 0.0, 2024-03-13 20:43:40.115
4.0, -503.94590917928144, 1.6362062306143343, -289.13353552436456, -597.3050317731686, 0.01600000075995922, -0.20800000987946987, 1.0400000493973494, 0.0, 0.0, 0.0, 0.0, 0.0, 1.7103878201166017E9, 0.0, 2024-03-13 20:43:40.116
4.0, -743.4173131920397, -236.40281609911472, -501.25131126120687, -408.30544761242345, 0.01600000075995922, -0.20800000987946987, 1.0400000493973494, 0.0, 0.0, 0.0, 0.0, 0.0, 1.7103878201166017E9, 0.0, 2024-03-13 20:43:40.116
5.0, -583.5945585356094, -315.3371445639059, -311.2700033620931, -478.3612535824068, 0.01600000075995922, -0.20800000987946987, 1.0400000493973494, 0.0, 0.0, 0.0, 0.0, 0.0, 1.710387820129965E9, 0.0, 2024-03-13 20:43:40.129
5.0, -645.9835695964284, -234.50294692162424, -412.8120270590298, -337.2922272537835, 0.01600000075995922, -0.20800000987946987, 1.0400000493973494, 0.0, 0.0, 0.0, 0.0, 0.0, 1.710387820129965E9, 0.0, 2024-03-13 20:43:40.129
6.0, -768.0370746003464, -199.21325093973428, -532.5393142905086, -347.95655197743326, 0.01600000075995922, -0.20800000987946987, 1.0400000493973494, 0.0, 0.0, 0.0, 0.0, 0.0, 1.7103878201457105E9, 0.0, 2024-03-13 20:43:40.145
6.0, -938.7934267772362, -130.58795670280233, -672.6135272309184, -303.1170214586891, 0.01600000075995922, -0.20800000987946987, 1.0400000493973494, 0.0, 0.0, 0.0, 0.0, 0.0, 1.7103878201457105E9, 0.0, 2024-03-13 20:43:40.145
7.0, -724.7047237637453, 82.25535962544382, -473.7237776373513, -525.9552204185165, 0.01600000075995922, -0.20800000987946987, 1.0400000493973494, 0.0, 0.0, 0.0, 0.0, 0.0, 1.7103878201468372E9, 0.0, 2024-03-13 20:43:40.146
7.0, -866.250587336719, 181.35148875135928, -652.3731886707246, -439.47377384314314, 0.01600000075995922, -0.20800000987946987, 1.0400000493973494, 0.0, 0.0, 0.0, 0.0, 0.0, 1.7103878201468372E9, 0.0, 2024-03-13 20:43:40.146
8.0, -817.2017994178459, 81.41388213541359, -563.8048779200763, -586.1975289047696, 0.01600000075995922, -0.20800000987946987, 1.0400000493973494, 0.0, 0.0, 0.0, 0.0, 0.0, 1.7103878201602683E9, 0.0, 2024-03-13 20:43:40.160
8.0, -691.5766899562441, 59.06050010025501, -432.7008150233887, -574.6318882917985, 0.01600000075995922, -0.20800000987946987, 1.0400000493973494, 0.0, 0.0, 0.0, 0.0, 0.0, 1.7103878201602683E9, 0.0, 2024-03-13 20:43:40.160
9.0, -519.159822199028, -7.160038465168327, -300.9441395844333, -616.3598220474087, 0.01600000075995922, -0.20800000987946987, 1.0400000493973494, 0.0, 0.0, 0.0, 0.0, 0.0, 1.710387820175711E9, 0.0, 2024-03-13 20:43:40.175
9.0, -733.9441466042772, -229.7383143780753, -503.73834473174065, -405.6987373433076, 0.01600000075995922, -0.20800000987946987, 1.0400000493973494, 0.0, 0.0, 0.0, 0.0, 0.0, 1.710387820175711E9, 0.0, 2024-03-13 20:43:40.175
10.0, -572.1878636707552, -312.3414846993983, -312.5827082465403, -479.0643547740765, 0.01600000075995922, -0.20800000987946987, 1.0400000493973494, 0.0, 0.0, 0.0, 0.0, 0.0, 1.7103878201764867E9, 0.0, 2024-03-13 20:43:40.176
10.0, -648.8969516619109, -237.2966521885246, -418.72106898901984, -342.0232006977312, 0.01600000075995922, -0.20800000987946987, 1.0400000493973494, 0.0, 0.0, 0.0, 0.0, 0.0, 1.7103878201764867E9, 0.0, 2024-03-13 20:43:40.176
11.0, -761.1631384817883, -195.50701008364558, -526.6639314601198, -339.951296122279, 0.01600000075995922, -0.20800000987946987, 1.0400000493973494, 0.0, 0.0, 0.0, 0.0, 0.0, 1.710387820190102E9, 0.0, 2024-03-13 20:43:40.190
11.0, -928.3366665011272, -116.26787977246568, -662.7027923483402, -288.2453092848882, 0.01600000075995922, -0.20800000987946987, 1.0400000493973494, 0.0, 0.0, 0.0, 0.0, 0.0, 1.710387820190102E9, 0.0, 2024-03-13 20:43:40.190
12.0, -697.8410223820247, 104.74711795896292, -448.4196145371534, -501.9394528530538, 0.01600000075995922, -0.20800000987946987, 1.0400000493973494, 0.0, 0.0, 0.0, 0.0, 0.0, 1.7103878202061014E9, 0.0, 2024-03-13 20:43:40.206
12.0, -848.6244388455525, 207.70656373910606, -629.3578443434089, -408.88700205553323, 0.01600000075995922, -0.20800000987946987, 1.0400000493973494, 0.0, 0.0, 0.0, 0.0, 0.0, 1.7103878202061014E9, 0.0, 2024-03-13 20:43:40.206
13.0, -805.4921726565808, 97.30845694709569, -541.6197913829237, -567.2231464795768, 0.01600000075995922, -0.20800000987946987, 1.0400000493973494, 0.0, 0.0, 0.0, 0.0, 0.0, 1.7103878202207196E9, 0.0, 2024-03-13 20:43:40.220
13.0, -678.8161513074301, 69.12831078097224, -414.94377003377303, -556.173612060491, 0.01600000075995922, -0.20800000987946987, 1.0400000493973494, 0.0, 0.0, 0.0, 0.0, 0.0, 1.7103878202207196E9, 0.0, 2024-03-13 20:43:40.220
14.0, -505.4007302620448, 6.23254327615723, -281.1151900193654, -595.6089871432632, 0.01600000075995922, -0.20800000987946987, 1.0400000493973494, 0.0, 0.0, 0.0, 0.0, 0.0, 1.7103878202214136E9, 0.0, 2024-03-13 20:43:40.221
14.0, -725.0506645096466, -223.1112116565928, -485.5699107469991, -387.71916830632836, 0.01600000075995922, -0.20800000987946987, 1.0400000493973494, 0.0, 0.0, 0.0, 0.0, 0.0, 1.7103878202214136E9, 0.0, 2024-03-13 20:43:40.221
15.0, -583.0971518415026, -308.23881444800645, -304.92713303724304, -470.1166441300884, 0.01600000075995922, -0.20800000987946987, 1.0400000493973494, 0.0, 0.0, 0.0, 0.0, 0.0, 1.7103878202356527E9, 0.0, 2024-03-13 20:43:40.235
15.0, -638.6608454831876, -225.18685613200068, -412.38193856412545, -336.10854891780764, 0.01600000075995922, -0.20800000987946987, 1.0400000493973494, 0.0, 0.0, 0.0, 0.0, 0.0, 1.7103878202356527E9, 0.0, 2024-03-13 20:43:40.235
16.0, -756.6453393353149, -186.2769369930029, -530.3178137168288, -339.00884133344516, 0.01600000075995922, -0.20800000987946987, 1.0400000493973494, 0.0, 0.0, 0.0, 0.0, 0.0, 1.710387820236392E9, 0.0, 2024-03-13 20:43:40.236
16.0, -921.1897176858038, -106.30478629050776, -659.9651855807751, -286.2369830086827, 0.01600000075995922, -0.20800000987946987, 1.0400000493973494, 0.0, 0.0, 0.0, 0.0, 0.0, 1.710387820236392E9, 0.0, 2024-03-13 20:43:40.236
17.0, -696.872388293501, 95.77883786521852, -466.66658642096445, -517.6956513663754, 0.01600000075995922, -0.20800000987946987, 1.0400000493973494, 0.0, 0.0, 0.0, 0.0, 0.0, 1.7103878202504425E9, 0.0, 2024-03-13 20:43:40.250
17.0, -853.8640386834741, 208.30868763197213, -638.7674326319247, -420.54801011737436, 0.01600000075995922, -0.20800000987946987, 1.0400000493973494, 0.0, 0.0, 0.0, 0.0, 0.0, 1.7103878202504425E9, 0.0, 2024-03-13 20:43:40.250
18.0, -791.680722120218, 108.65157351270318, -547.1473635174334, -568.6667478624731, 0.01600000075995922, -0.20800000987946987, 1.0400000493973494, 0.0, 0.0, 0.0, 0.0, 0.0, 1.7103878202657108E9, 0.0, 2024-03-13 20:43:40.265
18.0, -681.4939196757041, 68.88895718380809, -421.78778695268556, -561.1813381011598, 0.01600000075995922, -0.20800000987946987, 1.0400000493973494, 0.0, 0.0, 0.0, 0.0, 0.0, 1.7103878202657108E9, 0.0, 2024-03-13 20:43:40.265
19.0, -503.1081715892069, 0.3309811460785568, -280.87209652224556, -599.4087254982442, 0.01600000075995922, -0.20800000987946987, 1.0400000493973494, 0.0, 0.0, 0.0, 0.0, 0.0, 1.7103878202664661E9, 0.0, 2024-03-13 20:43:40.266
19.0, -720.0242389691994, -217.67713702097535, -481.4148818962276, -384.57017254363745, 0.01600000075995922, -0.20800000987946987, 1.0400000493973494, 0.0, 0.0, 0.0, 0.0, 0.0, 1.7103878202664661E9, 0.0, 2024-03-13 20:43:40.266
20.0, -574.3270864454098, -304.3642780939117, -297.6081488239579, -461.7804071288556, 0.01600000075995922, -0.20800000987946987, 1.0400000493973494, 0.0, 0.0, 0.0, 0.0, 0.0, 1.7103878202806275E9, 0.0, 2024-03-13 20:43:40.280
20.0, -628.2452241065912, -213.71658296789974, -400.5713345040567, -325.10576324816793, 0.01600000075995922, -0.20800000987946987, 1.0400000493973494, 0.0, 0.0, 0.0, 0.0, 0.0, 1.7103878202806275E9, 0.0, 2024-03-13 20:43:40.280
21.0, -733.8730885051191, -167.7120736129582, -511.56595533899963, -317.91767553333193, 0.01600000075995922, -0.20800000987946987, 1.0400000493973494, 0.0, 0.0, 0.0, 0.0, 0.0, 1.7103878202956476E9, 0.0, 2024-03-13 20:43:40.295
21.0, -911.6006141994148, -89.14238539384678, -645.5478712515905, -269.86183105269447, 0.01600000075995922, -0.20800000987946987, 1.0400000493973494, 0.0, 0.0, 0.0, 0.0, 0.0, 1.7103878202956476E9, 0.0, 2024-03-13 20:43:40.295
22.0, -702.613134725485, 107.70911872386932, -452.40260798996314, -499.6188449305482, 0.01600000075995922, -0.20800000987946987, 1.0400000493973494, 0.0, 0.0, 0.0, 0.0, 0.0, 1.7103878202963676E9, 0.0, 2024-03-13 20:43:40.296
22.0, -854.5633999751881, 212.86014587804675, -623.628317611292, -410.8149204826914, 0.01600000075995922, -0.20800000987946987, 1.0400000493973494, 0.0, 0.0, 0.0, 0.0, 0.0, 1.7103878202963676E9, 0.0, 2024-03-13 20:43:40.296
23.0, -804.3963819695637, 106.33283554017544, -540.6735966941342, -570.2431156937964, 0.01600000075995922, -0.20800000987946987, 1.0400000493973494, 0.0, 0.0, 0.0, 0.0, 0.0, 1.7103878203101645E9, 0.0, 2024-03-13 20:43:40.310
23.0, -684.1679481440224, 58.77626770362258, -428.4148896741681, -575.9539429261349, 0.01600000075995922, -0.20800000987946987, 1.0400000493973494, 0.0, 0.0, 0.0, 0.0, 0.0, 1.7103878203101645E9, 0.0, 2024-03-13 20:43:40.310
24.0, -516.7401069276966, -15.87400536192581, -302.51863746577874, -623.362784714438, 0.01600000075995922, -0.20800000987946987, 1.0400000493973494, 0.0, 0.0, 0.0, 0.0, 0.0, 1.7103878203258057E9, 0.0, 2024-03-13 20:43:40.325
24.0, -729.5123651567847, -228.31715239491314, -496.5652166167274, -407.8136507682502, 0.01600000075995922, -0.20800000987946987, 1.0400000493973494, 0.0, 0.0, 0.0, 0.0, 0.0, 1.7103878203258057E9, 0.0, 2024-03-13 20:43:40.325
25.0, -568.5377213140018, -307.42725615762174, -309.1233007875271, -478.88296962622553, 0.01600000075995922, -0.20800000987946987, 1.0400000493973494, 0.0, 0.0, 0.0, 0.0, 0.0, 1.710387820326615E9, 0.0, 2024-03-13 20:43:40.326
25.0, -644.6820844118483, -236.50753329787403, -425.5127273085527, -351.8722272310406, 0.01600000075995922, -0.20800000987946987, 1.0400000493973494, 0.0, 0.0, 0.0, 0.0, 0.0, 1.710387820326615E9, 0.0, 2024-03-13 20:43:40.326
26.0, -762.1018533706665, -199.69943793397397, -541.9975212784484, -361.1565288710408, 0.01600000075995922, -0.20800000987946987, 1.0400000493973494, 0.0, 0.0, 0.0, 0.0, 0.0, 1.7103878203402019E9, 0.0, 2024-03-13 20:43:40.340
26.0, -930.4235306764022, -119.75720643112436, -673.3353279223666, -304.3567982940003, 0.01600000075995922, -0.20800000987946987, 1.0400000493973494, 0.0, 0.0, 0.0, 0.0, 0.0, 1.7103878203402019E9, 0.0, 2024-03-13 20:43:40.340
27.0, -715.1754586766474, 76.65298949182034, -477.8077483889647, -532.3523192927241, 0.01600000075995922, -0.20800000987946987, 1.0400000493973494, 0.0, 0.0, 0.0, 0.0, 0.0, 1.7103878203559196E9, 0.0, 2024-03-13 20:43:40.355
27.0, -864.9640617519617, 184.8669947097078, -653.0875095622614, -438.8323810007423, 0.01600000075995922, -0.20800000987946987, 1.0400000493973494, 0.0, 0.0, 0.0, 0.0, 0.0, 1.7103878203559196E9, 0.0, 2024-03-13 20:43:40.355
28.0, -800.6377825140953, 93.07863009721041, -562.5482715349644, -587.2241314426064, 0.01600000075995922, -0.20800000987946987, 1.0400000493973494, 0.0, 0.0, 0.0, 0.0, 0.0, 1.7103878203564997E9, 0.0, 2024-03-13 20:43:40.356
28.0, -679.8221843955107, 62.92381675448269, -439.1558823469095, -579.353511985857, 0.01600000075995922, -0.20800000987946987, 1.0400000493973494, 0.0, 0.0, 0.0, 0.0, 0.0, 1.7103878203564997E9, 0.0, 2024-03-13 20:43:40.356
29.0, -510.3635775032453, -13.226156193297356, -315.2417771150358, -624.8737042965367, 0.01600000075995922, -0.20800000987946987, 1.0400000493973494, 0.0, 0.0, 0.0, 0.0, 0.0, 1.7103878203700829E9, 0.0, 2024-03-13 20:43:40.370
29.0, -728.9700796632096, -237.7043012836948, -512.6916652256623, -414.3472559908405, 0.01600000075995922, -0.20800000987946987, 1.0400000493973494, 0.0, 0.0, 0.0, 0.0, 0.0, 1.7103878203700829E9, 0.0, 2024-03-13 20:43:40.370
30.0, -578.4409763966687, -318.0784912314266, -335.60927227372304, -497.354335507378, 0.01600000075995922, -0.20800000987946987, 1.0400000493973494, 0.0, 0.0, 0.0, 0.0, 0.0, 1.7103878203856304E9, 0.0, 2024-03-13 20:43:40.385
30.0, -641.1478789537214, -241.0440319441259, -440.9248550259508, -363.0320886988193, 0.01600000075995922, -0.20800000987946987, 1.0400000493973494, 0.0, 0.0, 0.0, 0.0, 0.0, 1.7103878203856304E9, 0.0, 2024-03-13 20:43:40.385
31.0, -742.3551816046238, -192.03638292476535, -543.5645393598825, -354.9165057949722, 0.01600000075995922, -0.20800000987946987, 1.0400000493973494, 0.0, 0.0, 0.0, 0.0, 0.0, 1.7103878203863888E9, 0.0, 2024-03-13 20:43:40.386
31.0, -928.6620377972722, -118.36222374765202, -679.408925450407, -306.314635920804, 0.01600000075995922, -0.20800000987946987, 1.0400000493973494, 0.0, 0.0, 0.0, 0.0, 0.0, 1.7103878203863888E9, 0.0, 2024-03-13 20:43:40.386
32.0, -701.6893794364296, 93.89018838759512, -474.30720203043893, -528.3562361900695, 0.01600000075995922, -0.20800000987946987, 1.0400000493973494, 0.0, 0.0, 0.0, 0.0, 0.0, 1.710387820400015E9, 0.0, 2024-03-13 20:43:40.400
32.0, -852.0202680053189, 197.26102316286415, -660.6234079729766, -435.1616691942327, 0.01600000075995922, -0.20800000987946987, 1.0400000493973494, 0.0, 0.0, 0.0, 0.0, 0.0, 1.710387820400015E9, 0.0, 2024-03-13 20:43:40.400
33.0, -790.7831461308524, 105.95884554460645, -564.2499260148033, -572.3337197690271, 0.01600000075995922, -0.20800000987946987, 1.0400000493973494, 0.0, 0.0, 0.0, 0.0, 0.0, 1.7103878204160185E9, 0.0, 2024-03-13 20:43:40.416
33.0, -663.2432078919373, 75.01117341127247, -435.7712728870101, -569.3661091541871, 0.01600000075995922, -0.20800000987946987, 1.0400000493973494, 0.0, 0.0, 0.0, 0.0, 0.0, 1.7103878204160185E9, 0.0, 2024-03-13 20:43:40.416
34.0, -503.6317575830035, -4.822600992862135, -312.45181174809113, -619.6733734081499, 0.01600000075995922, -0.20800000987946987, 1.0400000493973494, 0.0, 0.0, 0.0, 0.0, 0.0, 1.7103878204164412E9, 0.0, 2024-03-13 20:43:40.416
34.0, -725.3274171063676, -223.7021158495918, -512.0147433336824, -411.46192317502573, 0.01600000075995922, -0.20800000987946987, 1.0400000493973494, 0.0, 0.0, 0.0, 0.0, 0.0, 1.7103878204164412E9, 0.0, 2024-03-13 20:43:40.416
35.0, -557.6059937435202, -298.09246586821973, -318.22621727967635, -479.9207918639295, 0.01600000075995922, -0.20800000987946987, 1.0400000493973494, 0.0, 0.0, 0.0, 0.0, 0.0, 1.7103878204302309E9, 0.0, 2024-03-13 20:43:40.430
35.0, -619.9650856046937, -214.9208307536319, -415.6880101249553, -337.0603534565307, 0.01600000075995922, -0.20800000987946987, 1.0400000493973494, 0.0, 0.0, 0.0, 0.0, 0.0, 1.7103878204302309E9, 0.0, 2024-03-13 20:43:40.430
36.0, -740.6423074249178, -179.51145797315985, -537.8387525277212, -341.84181554988027, 0.01600000075995922, -0.20800000987946987, 1.0400000493973494, 0.0, 0.0, 0.0, 0.0, 0.0, 1.7103878204456348E9, 0.0, 2024-03-13 20:43:40.445
36.0, -904.9959508776665, -103.94116951851174, -667.2579904943705, -291.6467482945882, 0.01600000075995922, -0.20800000987946987, 1.0400000493973494, 0.0, 0.0, 0.0, 0.0, 0.0, 1.7103878204456348E9, 0.0, 2024-03-13 20:43:40.445
37.0, -698.7198988716118, 95.33752967044711, -472.85986074758694, -523.4270480484702, 0.01600000075995922, -0.20800000987946987, 1.0400000493973494, 0.0, 0.0, 0.0, 0.0, 0.0, 1.7103878204464064E9, 0.0, 2024-03-13 20:43:40.446
37.0, -847.5249082585797, 201.4310116134584, -652.489125569351, -429.24140756437555, 0.01600000075995922, -0.20800000987946987, 1.0400000493973494, 0.0, 0.0, 0.0, 0.0, 0.0, 1.7103878204464064E9, 0.0, 2024-03-13 20:43:40.446
38.0, -793.8610837943852, 107.48472472652793, -556.4185755075887, -574.2261091466062, 0.01600000075995922, -0.20800000987946987, 1.0400000493973494, 0.0, 0.0, 0.0, 0.0, 0.0, 1.7103878204600463E9, 0.0, 2024-03-13 20:43:40.460
38.0, -671.7215610914864, 69.18440928030759, -430.3259785515256, -568.9808994587511, 0.01600000075995922, -0.20800000987946987, 1.0400000493973494, 0.0, 0.0, 0.0, 0.0, 0.0, 1.7103878204600463E9, 0.0, 2024-03-13 20:43:40.460
39.0, -503.7327348818071, -5.791235081385821, -304.85607493808493, -612.8031771895476, 0.01600000075995922, -0.20800000987946987, 1.0400000493973494, 0.0, 0.0, 0.0, 0.0, 0.0, 1.7103878204759157E9, 0.0, 2024-03-13 20:43:40.475
39.0, -730.2977441474795, -226.61923781502992, -500.2789372727275, -401.5063094929792, 0.01600000075995922, -0.20800000987946987, 1.0400000493973494, 0.0, 0.0, 0.0, 0.0, 0.0, 1.7103878204759157E9, 0.0, 2024-03-13 20:43:40.475
40.0, -562.7483561825939, -304.252081095241, -315.51852971175686, -474.52411622786894, 0.01600000075995922, -0.20800000987946987, 1.0400000493973494, 0.0, 0.0, 0.0, 0.0, 0.0, 1.7103878204764147E9, 0.0, 2024-03-13 20:43:40.476
40.0, -631.1324268723838, -234.69368181936443, -426.6683563948609, -353.5944511606358, 0.01600000075995922, -0.20800000987946987, 1.0400000493973494, 0.0, 0.0, 0.0, 0.0, 0.0, 1.7103878204764147E9, 0.0, 2024-03-13 20:43:40.476
41.0, -758.0365821188316, -188.30396276898682, -536.2305955467746, -347.42735613370314, 0.01600000075995922, -0.20800000987946987, 1.0400000493973494, 0.0, 0.0, 0.0, 0.0, 0.0, 1.7103878204900384E9, 0.0, 2024-03-13 20:43:40.490
41.0, -921.2121570855379, -109.52484015235677, -672.1535195363685, -294.78639430738986, 0.01600000075995922, -0.20800000987946987, 1.0400000493973494, 0.0, 0.0, 0.0, 0.0, 0.0, 1.7103878204900384E9, 0.0, 2024-03-13 20:43:40.490
42.0, -704.217551806476, 93.33294329419732, -474.3894798294641, -525.8972519692034, 0.01600000075995922, -0.20800000987946987, 1.0400000493973494, 0.0, 0.0, 0.0, 0.0, 0.0, 1.7103878205059352E9, 0.0, 2024-03-13 20:43:40.505
42.0, -848.8637924427167, 199.08609434124082, -651.7598450779915, -428.92164611816406, 0.01600000075995922, -0.20800000987946987, 1.0400000493973494, 0.0, 0.0, 0.0, 0.0, 0.0, 1.7103878205059352E9, 0.0, 2024-03-13 20:43:40.505
43.0, -797.1970745548606, 109.34345500450581, -549.286586292088, -565.9889794941992, 0.01600000075995922, -0.20800000987946987, 1.0400000493973494, 0.0, 0.0, 0.0, 0.0, 0.0, 1.7103878205064135E9, 0.0, 2024-03-13 20:43:40.506
43.0, -673.4045160715468, 70.6654096627608, -427.60333138378337, -567.3914419775829, 0.01600000075995922, -0.20800000987946987, 1.0400000493973494, 0.0, 0.0, 0.0, 0.0, 0.0, 1.7103878205064135E9, 0.0, 2024-03-13 20:43:40.506
44.0, -506.5264401487075, -6.857106568757445, -304.51574404211715, -613.7680713781156, 0.01600000075995922, -0.20800000987946987, 1.0400000493973494, 0.0, 0.0, 0.0, 0.0, 0.0, 1.7103878205200536E9, 0.0, 2024-03-13 20:43:40.520
44.0, -731.9732193276286, -232.83495154138654, -509.34071486536413, -402.3590066828765, 0.01600000075995922, -0.20800000987946987, 1.0400000493973494, 0.0, 0.0, 0.0, 0.0, 0.0, 1.7103878205200536E9, 0.0, 2024-03-13 20:43:40.520
45.0, -572.6777905649506, -309.23362783621997, -319.3855862659402, -478.19669798435643, 0.01600000075995922, -0.20800000987946987, 1.0400000493973494, 0.0, 0.0, 0.0, 0.0, 0.0, 1.7103878205356505E9, 0.0, 2024-03-13 20:43:40.535
45.0, -637.3257011990063, -230.9201227640733, -423.12667113682255, -343.38452428160235, 0.01600000075995922, -0.20800000987946987, 1.0400000493973494, 0.0, 0.0, 0.0, 0.0, 0.0, 1.7103878205356505E9, 0.0, 2024-03-13 20:43:40.535
46.0, -749.9583982145414, -184.54910321347415, -535.1722038593143, -342.8010998885147, 0.01600000075995922, -0.20800000987946987, 1.0400000493973494, 0.0, 0.0, 0.0, 0.0, 0.0, 1.7103878205364175E9, 0.0, 2024-03-13 20:43:40.536
46.0, -906.5891482587904, -96.71194290416315, -662.7177519481629, -282.1343127572909, 0.01600000075995922, -0.20800000987946987, 1.0400000493973494, 0.0, 0.0, 0.0, 0.0, 0.0, 1.7103878205364175E9, 0.0, 2024-03-13 20:43:40.536
47.0, -698.8208761704154, 102.48821838572621, -467.0181370167993, -511.9848241340369, 0.01600000075995922, -0.20800000987946987, 1.0400000493973494, 0.0, 0.0, 0.0, 0.0, 0.0, 1.7103878205502703E9, 0.0, 2024-03-13 20:43:40.550
47.0, -849.6416916335002, 213.98211586475372, -643.7788985725492, -411.40395472571254, 0.01600000075995922, -0.20800000987946987, 1.0400000493973494, 0.0, 0.0, 0.0, 0.0, 0.0, 1.7103878205502703E9, 0.0, 2024-03-13 20:43:40.550
48.0, -786.6804758794606, 125.63071931153536, -547.7083485107869, -556.6616690047085, 0.01600000075995922, -0.20800000987946987, 1.0400000493973494, 0.0, 0.0, 0.0, 0.0, 0.0, 1.710387820565654E9, 0.0, 2024-03-13 20:43:40.565
48.0, -662.8766976962797, 86.20095407869667, -418.103985496331, -557.5255858944729, 0.01600000075995922, -0.20800000987946987, 1.0400000493973494, 0.0, 0.0, 0.0, 0.0, 0.0, 1.710387820565654E9, 0.0, 2024-03-13 20:43:40.565
49.0, -499.2523347348906, 4.156898800749332, -298.2439318164252, -606.658521562349, 0.01600000075995922, -0.20800000987946987, 1.0400000493973494, 0.0, 0.0, 0.0, 0.0, 0.0, 1.7103878205663936E9, 0.0, 2024-03-13 20:43:40.566
49.0, -716.1684021148831, -211.85411278996617, -502.7659707432613, -395.26067656697705, 0.01600000075995922, -0.20800000987946987, 1.0400000493973494, 0.0, 0.0, 0.0, 0.0, 0.0, 1.7103878205663936E9, 0.0, 2024-03-13 20:43:40.566
50.0, -556.7832157532685, -297.78205417189747, -311.77862975606695, -471.63691346207634, 0.01600000075995922, -0.20800000987946987, 1.0400000493973494, 0.0, 0.0, 0.0, 0.0, 0.0, 1.71038782058049E9, 0.0, 2024-03-13 20:43:40.580
50.0, -627.040976320859, -224.72684843745083, -419.08757918467745, -341.89978399919346, 0.01600000075995922, -0.20800000987946987, 1.0400000493973494, 0.0, 0.0, 0.0, 0.0, 0.0, 1.71038782058049E9, 0.0, 2024-03-13 20:43:40.580
51.0, -742.0597295081243, -177.8247630931437, -538.4782754201442, -341.615551602561, 0.01600000075995922, -0.19200000911951065, 1.0400000493973494, 0.0, 0.0, 0.0, 0.0, 0.0, 1.710387820595667E9, 0.0, 2024-03-13 20:43:40.595
51.0, -915.9987365473062, -102.81919953180477, -668.3051624819636, -283.00570944696665, 0.01600000075995922, -0.19200000911951065, 1.0400000493973494, 0.0, 0.0, 0.0, 0.0, 0.0, 1.710387820595667E9, 0.0, 2024-03-13 20:43:40.595
52.0, -697.0219842917286, 91.48169281613082, -474.44183842884377, -522.9389911042526, 0.01600000075995922, -0.19200000911951065, 1.0400000493973494, 0.0, 0.0, 0.0, 0.0, 0.0, 1.7103878205965884E9, 0.0, 2024-03-13 20:43:40.596
52.0, -861.5495330924168, 197.48915706016123, -651.6700874790549, -427.57154223416, 0.01600000075995922, -0.19200000911951065, 1.0400000493973494, 0.0, 0.0, 0.0, 0.0, 0.0, 1.7103878205965884E9, 0.0, 2024-03-13 20:43:40.596
53.0, -791.1795755261555, 110.27842999342829, -556.4784139068797, -570.1552280448377, 0.01600000075995922, -0.19200000911951065, 1.0400000493973494, 0.0, 0.0, 0.0, 0.0, 0.0, 1.7103878206103623E9, 0.0, 2024-03-13 20:43:40.610
53.0, -669.0774518228136, 76.96714108809829, -428.5944048720412, -563.7431695708074, 0.01600000075995922, -0.19200000911951065, 1.0400000493973494, 0.0, 0.0, 0.0, 0.0, 0.0, 1.7103878206103623E9, 0.0, 2024-03-13 20:43:40.610
54.0, -496.0659399726428, 2.4776837206445634, -301.5761826769449, -609.5625538779423, 0.01600000075995922, -0.19200000911951065, 1.0400000493973494, 0.0, 0.0, 0.0, 0.0, 0.0, 1.7103878206256557E9, 0.0, 2024-03-13 20:43:40.625
54.0, -732.7922574179247, -212.8751054778695, -498.1733735976741, -391.6236238600686, 0.01600000075995922, -0.19200000911951065, 1.0400000493973494, 0.0, 0.0, 0.0, 0.0, 0.0, 1.7103878206256557E9, 0.0, 2024-03-13 20:43:40.625
55.0, -557.7705493415706, -292.67335083242506, -306.41187331965193, -463.82987230457366, 0.01600000075995922, -0.19200000911951065, 1.0400000493973494, 0.0, 0.0, 0.0, 0.0, 0.0, 1.7103878206267104E9, 0.0, 2024-03-13 20:43:40.626
55.0, -628.5070171034895, -221.27866067830473, -419.5214075795375, -338.685339987278, 0.01600000075995922, -0.19200000911951065, 1.0400000493973494, 0.0, 0.0, 0.0, 0.0, 0.0, 1.7103878206267104E9, 0.0, 2024-03-13 20:43:40.626
56.0, -742.5197372026742, -167.521338715218, -524.6705647837371, -323.73321996442974, 0.01600000075995922, -0.19200000911951065, 1.0400000493973494, 0.0, 0.0, 0.0, 0.0, 0.0, 1.7103878206400552E9, 0.0, 2024-03-13 20:43:40.640
56.0, -904.1843925872818, -84.60962664755061, -651.4718727814034, -271.5111269331537, 0.01600000075995922, -0.19200000911951065, 1.0400000493973494, 0.0, 0.0, 0.0, 0.0, 0.0, 1.7103878206400552E9, 0.0, 2024-03-13 20:43:40.640
57.0, -695.2642313125543, 104.010357667692, -469.29573608981445, -516.5568518298678, 0.01600000075995922, -0.19200000911951065, 1.0400000493973494, 0.0, 0.0, 0.0, 0.0, 0.0, 1.7103878206558352E9, 0.0, 2024-03-13 20:43:40.655
57.0, -841.9711568243802, 214.23268916178495, -643.8499566717073, -415.42621712805703, 0.01600000075995922, -0.19200000911951065, 1.0400000493973494, 0.0, 0.0, 0.0, 0.0, 0.0, 1.7103878206558352E9, 0.0, 2024-03-13 20:43:40.655
58.0, -786.5159202814102, 120.11062697693706, -545.5691257361323, -558.9448779276572, 0.01600000075995922, -0.19200000911951065, 1.0400000493973494, 0.0, 0.0, 0.0, 0.0, 0.0, 1.7103878206565337E9, 0.0, 2024-03-13 20:43:40.656
58.0, -660.9768285187893, 77.28877248428762, -423.5231005321257, -559.3600068227388, 0.01600000075995922, -0.19200000911951065, 1.0400000493973494, 0.0, 0.0, 0.0, 0.0, 0.0, 1.7103878206565337E9, 0.0, 2024-03-13 20:43:40.656
59.0, -505.61016465956345, -3.4500577091239393, -301.29195028031245, -610.1310186712071, 0.01600000075995922, -0.19200000911951065, 1.0400000493973494, 0.0, 0.0, 0.0, 0.0, 0.0, 1.7103878206699717E9, 0.0, 2024-03-13 20:43:40.669
59.0, -727.6648545786738, -221.8097264720127, -502.15262715052813, -401.8896492384374, 0.01600000075995922, -0.19200000911951065, 1.0400000493973494, 0.0, 0.0, 0.0, 0.0, 0.0, 1.7103878206699717E9, 0.0, 2024-03-13 20:43:40.669
60.0, -560.8447471051477, -306.0397532740608, -316.00471670599654, -477.779699139297, 0.01600000075995922, -0.19200000911951065, 1.0400000493973494, 0.0, 0.0, 0.0, 0.0, 0.0, 1.7103878206857407E9, 0.0, 2024-03-13 20:43:40.685
60.0, -636.2261706120335, -240.6737818485126, -429.98190775560215, -353.869333807379, 0.01600000075995922, -0.19200000911951065, 1.0400000493973494, 0.0, 0.0, 0.0, 0.0, 0.0, 1.7103878206857407E9, 0.0, 2024-03-13 20:43:40.685
61.0, -750.1528730122373, -194.5346360951662, -538.6091719185933, -345.81732920277864, 0.01600000075995922, -0.20800000987946987, 1.0400000493973494, 0.0, 0.0, 0.0, 0.0, 0.0, 1.7103878206866157E9, 0.0, 2024-03-13 20:43:40.686
61.0, -915.6883248509839, -106.24868779117242, -665.9116265103221, -284.5297186789103, 0.01600000075995922, -0.20800000987946987, 1.0400000493973494, 0.0, 0.0, 0.0, 0.0, 0.0, 1.7103878206866157E9, 0.0, 2024-03-13 20:43:40.686
62.0, -688.610949291382, 96.73251235391945, -473.04311584541574, -520.4388679838739, 0.01600000075995922, -0.20800000987946987, 1.0400000493973494, 0.0, 0.0, 0.0, 0.0, 0.0, 1.710387820700014E9, 0.0, 2024-03-13 20:43:40.700
62.0, -840.1685250457376, 213.31641367264092, -641.4227616004646, -410.45962998690084, 0.01600000075995922, -0.20800000987946987, 1.0400000493973494, 0.0, 0.0, 0.0, 0.0, 0.0, 1.710387820700014E9, 0.0, 2024-03-13 20:43:40.700
63.0, -777.3793446896598, 127.0257019950077, -540.0378137016669, -550.2458706307225, 0.01600000075995922, -0.20800000987946987, 1.0400000493973494, 0.0, 0.0, 0.0, 0.0, 0.0, 1.7103878207160313E9, 0.0, 2024-03-13 20:43:40.716
63.0, -661.0217073182575, 85.77086558379233, -412.9952821568586, -551.9699645102955, 0.01600000075995922, -0.20800000987946987, 1.0400000493973494, 0.0, 0.0, 0.0, 0.0, 0.0, 1.7103878207160313E9, 0.0, 2024-03-13 20:43:40.716
64.0, -492.7037699124776, 5.705217382404953, -290.35648280987516, -600.5793141843751, 0.01600000075995922, -0.20800000987946987, 1.0400000493973494, 0.0, 0.0, 0.0, 0.0, 0.0, 1.7103878207165165E9, 0.0, 2024-03-13 20:43:40.716
64.0, -718.4908799873665, -202.14159260503948, -488.13548211660236, -374.3976446641609, 0.01600000075995922, -0.20800000987946987, 1.0400000493973494, 0.0, 0.0, 0.0, 0.0, 0.0, 1.7103878207165165E9, 0.0, 2024-03-13 20:43:40.716
65.0, -542.0106109282933, -276.70023812167346, -293.8570291684009, -450.5083486624062, 0.01600000075995922, -0.20800000987946987, 1.0400000493973494, 0.0, 0.0, 0.0, 0.0, 0.0, 1.7103878207301764E9, 0.0, 2024-03-13 20:43:40.730
65.0, -617.0778828389011, -207.0259019471705, -411.30484737688676, -325.35259664524347, 0.01600000075995922, -0.20800000987946987, 1.0400000493973494, 0.0, 0.0, 0.0, 0.0, 0.0, 1.7103878207301764E9, 0.0, 2024-03-13 20:43:40.730
66.0, -722.7842851364985, -159.38331641163677, -522.1910111131147, -322.7907651755959, 0.01600000075995922, -0.20800000987946987, 1.0400000493973494, 0.0, 0.0, 0.0, 0.0, 0.0, 1.7103878207461543E9, 0.0, 2024-03-13 20:43:40.746
66.0, -885.9897793028504, -71.97250469727442, -645.6451086504385, -264.9887414104305, 0.01600000075995922, -0.20800000987946987, 1.0400000493973494, 0.0, 0.0, 0.0, 0.0, 0.0, 1.7103878207461543E9, 0.0, 2024-03-13 20:43:40.746
67.0, -687.2795449071564, 115.45819143205881, -456.21730594476685, -502.9286563913338, 0.01600000075995922, -0.20800000987946987, 1.0400000493973494, 0.0, 0.0, 0.0, 0.0, 0.0, 1.7103878207467644E9, 0.0, 2024-03-13 20:43:40.746
67.0, -835.5198294008151, 220.64661758579314, -640.8318574074656, -409.4423771989532, 0.01600000075995922, -0.20800000987946987, 1.0400000493973494, 0.0, 0.0, 0.0, 0.0, 0.0, 1.7103878207467644E9, 0.0, 2024-03-13 20:43:40.746
68.0, -778.8865243718028, 134.3970448076725, -537.4759822320193, -549.299675941933, 0.01600000075995922, -0.20800000987946987, 1.0400000493973494, 0.0, 0.0, 0.0, 0.0, 0.0, 1.710387820760204E9, 0.0, 2024-03-13 20:43:40.760
68.0, -669.4402221185155, 82.67796832043678, -415.0671867323108, -557.897705940064, 0.01600000075995922, -0.20800000987946987, 1.0400000493973494, 0.0, 0.0, 0.0, 0.0, 0.0, 1.710387820760204E9, 0.0, 2024-03-13 20:43:40.760
69.0, -486.5441546854563, 1.4791304324753582, -288.83434352790937, -604.9325577327982, 0.01600000075995922, -0.20800000987946987, 1.0400000493973494, 0.0, 0.0, 0.0, 0.0, 0.0, 1.71038782077573E9, 0.0, 2024-03-13 20:43:40.775
69.0, -720.9105952586979, -213.00226207636297, -485.7905648443848, -383.82593245245516, 0.01600000075995922, -0.20800000987946987, 1.0400000493973494, 0.0, 0.0, 0.0, 0.0, 0.0, 1.71038782077573E9, 0.0, 2024-03-13 20:43:40.775
70.0, -561.9592372919433, -296.7797609837726, -301.4677255782299, -463.560599507764, 0.01600000075995922, -0.20800000987946987, 1.0400000493973494, 0.0, 0.0, 0.0, 0.0, 0.0, 1.7103878207765796E9, 0.0, 2024-03-13 20:43:40.776
70.0, -620.8813610938378, -226.3686645179987, -409.15814480232075, -338.73395868670195, 0.01600000075995922, -0.20800000987946987, 1.0400000493973494, 0.0, 0.0, 0.0, 0.0, 0.0, 1.7103878207765796E9, 0.0, 2024-03-13 20:43:40.776
71.0, -745.1526267714798, -185.14748720638454, -529.8054474228993, -338.7732276362367, 0.01600000075995922, -0.20800000987946987, 1.0400000493973494, 0.0, 0.0, 0.0, 0.0, 0.0, 1.710387820790044E9, 0.0, 2024-03-13 20:43:40.790
71.0, -910.3589674141258, -98.01342808874324, -657.1116419145837, -285.41794491838664, 0.01600000075995922, -0.20800000987946987, 1.0400000493973494, 0.0, 0.0, 0.0, 0.0, 0.0, 1.710387820790044E9, 0.0, 2024-03-13 20:43:40.790
72.0, -695.1146353143267, 99.42150042206049, -465.3202224369161, -520.1228464376181, 0.01600000075995922, -0.20800000987946987, 1.0400000493973494, 0.0, 0.0, 0.0, 0.0, 0.0, 1.710387820805664E9, 0.0, 2024-03-13 20:43:40.805
72.0, -841.683184527792, 199.84903393220156, -649.9796526990831, -429.84540140721947, 0.01600000075995922, -0.20800000987946987, 1.0400000493973494, 0.0, 0.0, 0.0, 0.0, 0.0, 1.710387820805664E9, 0.0, 2024-03-13 20:43:40.805
73.0, -782.574065728113, 117.67595210578293, -549.8064323859289, -565.4466940006241, 0.01600000075995922, -0.20800000987946987, 1.0400000493973494, 0.0, 0.0, 0.0, 0.0, 0.0, 1.71038782080649E9, 0.0, 2024-03-13 20:43:40.806
73.0, -669.8553510135971, 70.01466707047075, -433.05984541913494, -577.014204563573, 0.01600000075995922, -0.20800000987946987, 1.0400000493973494, 0.0, 0.0, 0.0, 0.0, 0.0, 1.71038782080649E9, 0.0, 2024-03-13 20:43:40.806
74.0, -512.0053935837932, -14.774474774952978, -311.11292756395414, -628.9969439976849, 0.01600000075995922, -0.20800000987946987, 1.0400000493973494, 0.0, 0.0, 0.0, 0.0, 0.0, 1.7103878208200052E9, 0.0, 2024-03-13 20:43:40.820
74.0, -725.5069323042408, -226.39858371764421, -505.7915498074144, -404.89465885283425, 0.01600000075995922, -0.20800000987946987, 1.0400000493973494, 0.0, 0.0, 0.0, 0.0, 0.0, 1.7103878208200052E9, 0.0, 2024-03-13 20:43:40.820
75.0, -569.1061861072667, -311.0811384143308, -315.33901451388374, -481.05024165054783, 0.01600000075995922, -0.20800000987946987, 1.0400000493973494, 0.0, 0.0, 0.0, 0.0, 0.0, 1.7103878208358343E9, 0.0, 2024-03-13 20:43:40.835
75.0, -640.6467323596589, -246.16021508350968, -429.98938755551353, -361.23880667006597, 0.01600000075995922, -0.20800000987946987, 1.0400000493973494, 0.0, 0.0, 0.0, 0.0, 0.0, 1.7103878208358343E9, 0.0, 2024-03-13 20:43:40.835
76.0, -747.370387445204, -188.37128096818924, -537.9098106268793, -348.8559979167767, 0.01600000075995922, -0.20800000987946987, 1.0400000493973494, 0.0, 0.0, 0.0, 0.0, 0.0, 1.7103878208364615E9, 0.0, 2024-03-13 20:43:40.836
76.0, -915.0450620586053, -103.03985362919047, -663.1104414435104, -290.59770635701716, 0.01600000075995922, -0.20800000987946987, 1.0400000493973494, 0.0, 0.0, 0.0, 0.0, 0.0, 1.7103878208364615E9, 0.0, 2024-03-13 20:43:40.836
77.0, -701.5098642385565, 86.24957277812064, -476.3529273062013, -533.4593296796083, 0.01600000075995922, -0.20800000987946987, 1.0400000493973494, 0.0, 0.0, 0.0, 0.0, 0.0, 1.7103878208500805E9, 0.0, 2024-03-13 20:43:40.850
77.0, -852.2297024028376, 191.49035753123462, -657.4781521102414, -434.10888735670596, 0.01600000075995922, -0.20800000987946987, 1.0400000493973494, 0.0, 0.0, 0.0, 0.0, 0.0, 1.7103878208500805E9, 0.0, 2024-03-13 20:43:40.850
78.0, -790.184762137942, 110.43550579156727, -549.2940660919994, -565.9478405946866, 0.01600000075995922, -0.20800000987946987, 1.0400000493973494, 0.0, 0.0, 0.0, 0.0, 0.0, 1.7103878208656933E9, 0.0, 2024-03-13 20:43:40.865
78.0, -662.7794602974318, 71.65648315101862, -416.45094971591607, -563.735689770896, 0.01600000075995922, -0.20800000987946987, 1.0400000493973494, 0.0, 0.0, 0.0, 0.0, 0.0, 1.7103878208656933E9, 0.0, 2024-03-13 20:43:40.865
79.0, -515.3301646444015, -21.038807200733572, -305.1702265343629, -621.2834003390744, 0.01600000075995922, -0.20800000987946987, 1.0400000493973494, 0.0, 0.0, 0.0, 0.0, 0.0, 1.7103878208666108E9, 0.0, 2024-03-13 20:43:40.866
79.0, -741.1696333186701, -232.45722164586186, -502.5266171460971, -402.6675484292209, 0.01600000075995922, -0.20800000987946987, 1.0400000493973494, 0.0, 0.0, 0.0, 0.0, 0.0, 1.7103878208666108E9, 0.0, 2024-03-13 20:43:40.866
80.0, -573.2200760585256, -314.7013615714386, -310.8361749672331, -481.35878339689225, 0.01600000075995922, -0.20800000987946987, 1.0400000493973494, 0.0, 0.0, 0.0, 0.0, 0.0, 1.7103878208799531E9, 0.0, 2024-03-13 20:43:40.879
80.0, -645.5983599009924, -250.0085721379146, -425.4528889092617, -358.7985219489783, 0.01600000075995922, -0.20800000987946987, 1.0400000493973494, 0.0, 0.0, 0.0, 0.0, 0.0, 1.7103878208799531E9, 0.0, 2024-03-13 20:43:40.879
81.0, -767.5770669057965, -202.94193119555712, -545.1352973412722, -353.85811410751194, 0.01600000075995922, -0.20800000987946987, 1.0400000493973494, 0.0, 0.0, 0.0, 0.0, 0.0, 1.7103878208959715E9, 0.0, 2024-03-13 20:43:40.895
81.0, -925.625239033252, -119.39069623546675, -673.885093215853, -298.39352781465277, 0.01600000075995922, -0.20800000987946987, 1.0400000493973494, 0.0, 0.0, 0.0, 0.0, 0.0, 1.7103878208959715E9, 0.0, 2024-03-13 20:43:40.895
82.0, -715.4073324739002, 76.35379749536514, -473.9519115346484, -536.273604396265, 0.01600000075995922, -0.20800000987946987, 1.0400000493973494, 0.0, 0.0, 0.0, 0.0, 0.0, 1.710387820896546E9, 0.0, 2024-03-13 20:43:40.896
82.0, -859.0961587214842, 184.44812591467053, -658.0802760031074, -437.7758592632599, 0.01600000075995922, -0.20800000987946987, 1.0400000493973494, 0.0, 0.0, 0.0, 0.0, 0.0, 1.710387820896546E9, 0.0, 2024-03-13 20:43:40.896
83.0, -794.8222380829975, 105.93266624491662, -549.5595989888534, -568.5788602135144, 0.01600000075995922, -0.20800000987946987, 1.0400000493973494, 0.0, 0.0, 0.0, 0.0, 0.0, 1.710387820910283E9, 0.0, 2024-03-13 20:43:40.910
83.0, -667.263600344304, 58.76504800375551, -423.13041103677824, -571.8363130749203, 0.01600000075995922, -0.20800000987946987, 1.0400000493973494, 0.0, 0.0, 0.0, 0.0, 0.0, 1.710387820910283E9, 0.0, 2024-03-13 20:43:40.910
84.0, -528.543231187854, -34.88017693674192, -309.2354977861978, -631.7588601149619, 0.01600000075995922, -0.20800000987946987, 1.0400000493973494, 0.0, 0.0, 0.0, 0.0, 0.0, 1.7103878209256608E9, 0.0, 2024-03-13 20:43:40.925
84.0, -740.3431154284626, -240.07165795564651, -500.24901807308197, -402.0093260370195, 0.01600000075995922, -0.20800000987946987, 1.0400000493973494, 0.0, 0.0, 0.0, 0.0, 0.0, 1.7103878209256608E9, 0.0, 2024-03-13 20:43:40.925
85.0, -576.1521576237865, -319.60811031330377, -308.8652476905845, -481.29146519768983, 0.01600000075995922, -0.20800000987946987, 1.0400000493973494, 0.0, 0.0, 0.0, 0.0, 0.0, 1.710387820926443E9, 0.0, 2024-03-13 20:43:40.926
85.0, -657.9699489544146, -261.3516887035221, -430.1464633536525, -365.29846807196736, 0.01600000075995922, -0.20800000987946987, 1.0400000493973494, 0.0, 0.0, 0.0, 0.0, 0.0, 1.710387820926443E9, 0.0, 2024-03-13 20:43:40.926
86.0, -756.0768745420501, -210.36563260760158, -542.0610995776951, -357.48207716457546, 0.01600000075995922, -0.20800000987946987, 1.0400000493973494, 0.0, 0.0, 0.0, 0.0, 0.0, 1.7103878209400597E9, 0.0, 2024-03-13 20:43:40.940
86.0, -925.7897946313024, -117.64790285611525, -658.5141043979675, -293.0454708780162, 0.01600000075995922, -0.20800000987946987, 1.0400000493973494, 0.0, 0.0, 0.0, 0.0, 0.0, 1.7103878209400597E9, 0.0, 2024-03-13 20:43:40.940
87.0, -720.6207530121319, 66.05785291735083, -480.70617085462436, -55.65345124062151, 0.01600000075995922, -0.20800000987946987, 1.0400000493973494, 0.0, 0.0, 0.0, 0.0, 0.0, 1.7103878209559808E9, 0.0, 2024-03-13 20:43:40.955
87.0, -872.5336192622781, 175.22179272398353, -661.0347969681025, 42.21599069982767, 0.01600000075995922, -0.20800000987946987, 1.0400000493973494, 0.0, 0.0, 0.0, 0.0, 0.0, 1.7103878209559808E9, 0.0, 2024-03-13 20:43:40.955
88.0, -807.4967590328306, 100.73420530650765, -556.1081638112664, -82.86496331822127, 0.01600000075995922, -0.20800000987946987, 1.0400000493973494, 0.0, 0.0, 0.0, 0.0, 0.0, 1.7103878209565444E9, 0.0, 2024-03-13 20:43:40.956
88.0, -670.2779597085901, 58.45837620738894, -429.2264479645528, -85.32207758910954, 0.01600000075995922, -0.20800000987946987, 1.0400000493973494, 0.0, 0.0, 0.0, 0.0, 0.0, 1.7103878209565444E9, 0.0, 2024-03-13 20:43:40.956
89.0, -529.9531734711491, -29.887410495895892, -315.63446661038324, -140.24811828834936, 0.01600000075995922, -0.20800000987946987, 1.0400000493973494, 0.0, 0.0, 0.0, 0.0, 0.0, 1.7103878209700167E9, 0.0, 2024-03-13 20:43:40.970
89.0, -738.9443928450346, -237.10591729078442, -504.11233472730964, 87.75114261033013, 0.01600000075995922, -0.20800000987946987, 1.0400000493973494, 0.0, 0.0, 0.0, 0.0, 0.0, 1.7103878209700167E9, 0.0, 2024-03-13 20:43:40.970
90.0, -577.3938044090755, -319.9596609091386, -313.5700418348424, 9.669511335436255, 0.01600000075995922, -0.20800000987946987, 1.0400000493973494, 0.0, 0.0, 0.0, 0.0, 0.0, 1.7103878209857347E9, 0.0, 2024-03-13 20:43:40.985
90.0, -649.667371052783, -247.01665217336267, -421.6905495538376, 134.20817985991016, 0.01600000075995922, -0.20800000987946987, 1.0400000493973494, 0.0, 0.0, 0.0, 0.0, 0.0, 1.7103878209857347E9, 0.0, 2024-03-13 20:43:40.985
91.0, -759.768155798316, -187.4550054790452, -530.1682177186012, 157.33946108585224, 0.01600000075995922, -0.20800000987946987, 1.0400000493973494, 0.0, 0.0, 0.0, 0.0, 0.0, 1.7103878209865384E9, 0.0, 2024-03-13 20:43:40.986
91.0, -915.4115722542629, -94.49418223043904, -654.2767977481708, 217.2133894264698, 0.01600000075995922, -0.20800000987946987, 1.0400000493973494, 0.0, 0.0, 0.0, 0.0, 0.0, 1.7103878209865384E9, 0.0, 2024-03-13 20:43:40.986
92.0, -709.1803990476765, 84.16270860284567, -471.11706736823544, 456.022831147071, 0.01600000075995922, -0.20800000987946987, 1.0400000493973494, 0.0, 0.0, 0.0, 0.0, 0.0, 1.710387821000322E9, 0.0, 2024-03-13 20:43:41.000
92.0, -865.3118724478409, 191.91670612618327, -650.3199835950509, 552.4075328051113, 0.01600000075995922, -0.20800000987946987, 1.0400000493973494, 0.0, 0.0, 0.0, 0.0, 0.0, 1.710387821000322E9, 0.0, 2024-03-13 20:43:41.000
93.0, -797.6458625495434, 104.51898406166583, -553.5351126417518, 415.9984218212776, 0.01600000075995922, -0.20800000987946987, 1.0400000493973494, 0.0, 0.0, 0.0, 0.0, 0.0, 1.710387821015715E9, 0.0, 2024-03-13 20:43:41.015
93.0, -676.8788831303827, 59.000661700963974, -426.79925289331004, 408.503662310075, 0.01600000075995922, -0.20800000987946987, 1.0400000493973494, 0.0, 0.0, 0.0, 0.0, 0.0, 1.710387821015715E9, 0.0, 2024-03-13 20:43:41.015
94.0, -528.1094027929939, -39.15114268613979, -318.89191947178915, 341.8193761501461, 0.01600000075995922, -0.20800000987946987, 1.0400000493973494, 0.0, 0.0, 0.0, 0.0, 0.0, 1.710387821016436E9, 0.0, 2024-03-13 20:43:41.016
94.0, -750.7961358046159, -248.5649707550183, -514.0567287094891, 566.9089948832989, 0.01600000075995922, -0.20800000987946987, 1.0400000493973494, 0.0, 0.0, 0.0, 0.0, 0.0, 1.710387821016436E9, 0.0, 2024-03-13 20:43:41.016
95.0, -575.277021034155, -329.8554361918941, -319.1424927688204, 491.3517960784957, 0.01600000075995922, -0.20800000987946987, 1.0400000493973494, 0.0, 0.0, 0.0, 0.0, 0.0, 1.7103878210301085E9, 0.0, 2024-03-13 20:43:41.030
95.0, -655.4193371846341, -262.305363192223, -434.94101509684697, 608.9716496849433, 0.01600000075995922, -0.20800000987946987, 1.0400000493973494, 0.0, 0.0, 0.0, 0.0, 0.0, 1.7103878210301085E9, 0.0, 2024-03-13 20:43:41.030
96.0, -763.8895255494863, -208.56674072891474, -541.8292257804424, 624.2566208038479, 0.01600000075995922, -0.20800000987946987, 1.0400000493973494, 0.0, 0.0, 0.0, 0.0, 0.0, 1.7103878210458417E9, 0.0, 2024-03-13 20:43:41.045
96.0, -918.8036615140736, -104.13564431620762, -663.4208531398326, 697.6652470841072, 0.01600000075995922, -0.20800000987946987, 1.0400000493973494, 0.0, 0.0, 0.0, 0.0, 0.0, 1.7103878210458417E9, 0.0, 2024-03-13 20:43:41.045
97.0, -709.3561743455939, 88.17936115525663, -470.3167287777178, 453.8312497730367, 0.01600000075995922, -0.20800000987946987, 1.0400000493973494, 0.0, 0.0, 0.0, 0.0, 0.0, 1.7103878210465684E9, 0.0, 2024-03-13 20:43:41.046
97.0, -846.7582287676632, 198.10250065289438, -657.6614072080702, 547.6802992611192, 0.01600000075995922, -0.20800000987946987, 1.0400000493973494, 0.0, 0.0, 0.0, 0.0, 0.0, 1.7103878210465684E9, 0.0, 2024-03-13 20:43:41.046
98.0, -783.7184751145542, 124.2806154275313, -546.4816613253206, 425.6324041071348, 0.01600000075995922, -0.20800000987946987, 1.0400000493973494, 0.0, 0.0, 0.0, 0.0, 0.0, 1.7103878210600154E9, 0.0, 2024-03-13 20:43:41.060
98.0, -669.2270478210412, 78.36586367152631, -418.53407399123535, 420.13101127231494, 0.01600000075995922, -0.20800000987946987, 1.0400000493973494, 0.0, 0.0, 0.0, 0.0, 0.0, 1.7103878210600154E9, 0.0, 2024-03-13 20:43:41.060
99.0, -519.2607994978316, -18.091766035649925, -303.8350822501816, 356.97345077060163, 0.01600000075995922, -0.20800000987946987, 1.0400000493973494, 0.0, 0.0, 0.0, 0.0, 0.0, 1.7103878210756354E9, 0.0, 2024-03-13 20:43:41.075
99.0, -738.3160896524787, -227.65519010275602, -501.99929125234485, 582.9905646927655, 0.01600000075995922, -0.20800000987946987, 1.0400000493973494, 0.0, 0.0, 0.0, 0.0, 0.0, 1.7103878210756354E9, 0.0, 2024-03-13 20:43:41.075
100.0, -565.9235312449746, -312.2891261000186, -311.9431853541173, 505.14828701503575, 0.01600000075995922, -0.20800000987946987, 1.0400000493973494, 0.0, 0.0, 0.0, 0.0, 0.0, 1.7103878210763783E9, 0.0, 2024-03-13 20:43:41.076
100.0, -647.6814841763116, -262.1557671939954, -427.58089198404923, 614.570279918611, 0.01600000075995922, -0.20800000987946987, 1.0400000493973494, 0.0, 0.0, 0.0, 0.0, 0.0, 1.7103878210763783E9, 0.0, 2024-03-13 20:43:41.076
0.0, -278.5066098002717, 291.7645551431924, -46.02133890474215, 144.2142821913585, 0.01600000075995922, -0.20800000987946987, 1.0400000493973494, 0.0, 0.0, 0.0, 0.0, 0.0, 1.710387821090685E9, 0.0, 2024-03-13 20:43:41.090
1.0, -424.84515516646206, 388.97016484150663, -170.55626752926037, 206.88565569883212, 0.01600000075995922, -0.20800000987946987, 1.0400000493973494, 0.0, 0.0, 0.0, 0.0, 0.0, 1.7103878210914516E9, 0.0, 2024-03-13 20:43:41.091
1.0, -208.77056527649984, 572.5599837163463, 21.912073840387166, 450.89729825779796, 0.01600000075995922, -0.20800000987946987, 1.0400000493973494, 0.0, 0.0, 0.0, 0.0, 0.0, 1.7103878210914516E9, 0.0, 2024-03-13 20:43:41.091
2.0, -373.552427274175, 673.7803760170937, -166.44237757800147, 540.7259552935138, 0.01600000075995922, -0.20800000987946987, 1.0400000493973494, 0.0, 0.0, 0.0, 0.0, 0.0, 1.710387821105007E9, 0.0, 2024-03-13 20:43:41.105
2.0, -301.89968402311206, 593.4735042685643, -62.64893410773948, 411.10476272925735, 0.01600000075995922, -0.20800000987946987, 1.0400000493973494, 0.0, 0.0, 0.0, 0.0, 0.0, 1.710387821105007E9, 0.0, 2024-03-13 20:43:41.105
3.0, -185.26903395494446, 549.2940660919994, 62.964955653995275, 406.2690720865503, 0.01600000075995922, -0.20800000987946987, 1.0400000493973494, 0.0, 0.0, 0.0, 0.0, 0.0, 1.710387821120931E9, 0.0, 2024-03-13 20:43:41.120
3.0, -34.40894954232499, 456.5688565406017, 170.84984967578202, 341.1480641080998, 0.01600000075995922, -0.20800000987946987, 1.0400000493973494, 0.0, 0.0, 0.0, 0.0, 0.0, 1.710387821120931E9, 0.0, 2024-03-13 20:43:41.120
4.0, -244.97840669751167, 256.17192726489156, -16.973535948898643, 572.3449394688942, 0.01600000075995922, -0.20800000987946987, 1.0400000493973494, 0.0, 0.0, 0.0, 0.0, 0.0, 1.710387821121484E9, 0.0, 2024-03-13 20:43:41.121
4.0, -77.81796832801774, 177.02068460267037, 179.63113477174193, 501.4700954086147, 0.01600000075995922, -0.20800000987946987, 1.0400000493973494, 0.0, 0.0, 0.0, 0.0, 0.0, 1.710387821121484E9, 0.0, 2024-03-13 20:43:41.121
5.0, -165.15959189319983, 235.46410121023655, 64.66661013383418, 618.7533580190502, 0.01600000075995922, -0.20800000987946987, 1.0400000493973494, 0.0, 0.0, 0.0, 0.0, 0.0, 1.7103878211350186E9, 0.0, 2024-03-13 20:43:41.135
5.0, -266.77080373931676, 288.8062942782417, -55.584263091441244, 631.5737350671552, 0.01600000075995922, -0.20800000987946987, 1.0400000493973494, 0.0, 0.0, 0.0, 0.0, 0.0, 1.7103878211350186E9, 0.0, 2024-03-13 20:43:41.135
6.0, -430.5298030991107, 393.00551689369604, -169.49039604188874, 703.3106260672212, 0.01600000075995922, -0.20800000987946987, 1.0400000493973494, 0.0, 0.0, 0.0, 0.0, 0.0, 1.710387821150804E9, 0.0, 2024-03-13 20:43:41.150
6.0, -196.32791812391952, 593.851234164089, 31.519876826554537, 468.070918854326, 0.01600000075995922, -0.20800000987946987, 1.0400000493973494, 0.0, 0.0, 0.0, 0.0, 0.0, 1.710387821150804E9, 0.0, 2024-03-13 20:43:41.150
7.0, -357.22028416767716, 698.9274633191526, -156.41570579679683, 562.7876251321286, 0.01600000075995922, -0.20800000987946987, 1.0400000493973494, 0.0, 0.0, 0.0, 0.0, 0.0, 1.7103878211514812E9, 0.0, 2024-03-13 20:43:41.151
7.0, -296.8919579824433, 617.6070786826313, -57.73096566600725, 426.95445874147117, 0.01600000075995922, -0.20800000987946987, 1.0400000493973494, 0.0, 0.0, 0.0, 0.0, 0.0, 1.7103878211514812E9, 0.0, 2024-03-13 20:43:41.151
8.0, -182.70346258534119, 565.6000298988074, 74.98499411158264, 417.9300801483914, 0.01600000075995922, -0.20800000987946987, 1.0400000493973494, 0.0, 0.0, 0.0, 0.0, 0.0, 1.7103878211653676E9, 0.0, 2024-03-13 20:43:41.165
8.0, -15.802947262767702, 472.34001465374604, 180.7568446584046, 355.2175677414052, 0.01600000075995922, -0.20800000987946987, 1.0400000493973494, 0.0, 0.0, 0.0, 0.0, 0.0, 1.7103878211653676E9, 0.0, 2024-03-13 20:43:41.165
9.0, -230.41523627005517, 267.1223543351516, -14.879191973712295, 583.0335735422559, 0.01600000075995922, -0.20800000987946987, 1.0400000493973494, 0.0, 0.0, 0.0, 0.0, 0.0, 1.7103878211806426E9, 0.0, 2024-03-13 20:43:41.180
9.0, -79.73279710533097, 181.26547105237842, 183.17282002978027, 507.0762054421939, 0.01600000075995922, -0.20800000987946987, 1.0400000493973494, 0.0, 0.0, 0.0, 0.0, 0.0, 1.7103878211806426E9, 0.0, 2024-03-13 20:43:41.180
10.0, -149.58290857775137, 242.1847014306113, 64.90970363095403, 621.9285330814309, 0.01600000075995922, -0.20800000987946987, 1.0400000493973494, 0.0, 0.0, 0.0, 0.0, 0.0, 1.710387821181438E9, 0.0, 2024-03-13 20:43:41.181
10.0, -261.5312039013952, 297.53148087486625, -51.477852940093726, 634.5768747315742, 0.01600000075995922, -0.20800000987946987, 1.0400000493973494, 0.0, 0.0, 0.0, 0.0, 0.0, 1.710387821181438E9, 0.0, 2024-03-13 20:43:41.181
11.0, -415.3158900793642, 393.6786988857202, -169.1687646456994, 701.1938426923007, 0.01600000075995922, -0.20800000987946987, 1.0400000493973494, 0.0, 0.0, 0.0, 0.0, 0.0, 1.710387821195384E9, 0.0, 2024-03-13 20:43:41.195
11.0, -198.36616359977052, 580.0622230274603, 25.977345092222095, 456.89983768668026, 0.01600000075995922, -0.20800000987946987, 1.0400000493973494, 0.0, 0.0, 0.0, 0.0, 0.0, 1.710387821195384E9, 0.0, 2024-03-13 20:43:41.195
12.0, -364.1465788856149, 685.3553663799539, -152.39905324438587, 561.2542661502957, 0.01600000075995922, -0.20800000987946987, 1.0400000493973494, 0.0, 0.0, 0.0, 0.0, 0.0, 1.7103878212109745E9, 0.0, 2024-03-13 20:43:41.210
12.0, -283.1291261455044, 613.1528578354046, -46.97875329339877, 432.11926058027893, 0.01600000075995922, -0.20800000987946987, 1.0400000493973494, 0.0, 0.0, 0.0, 0.0, 0.0, 1.7103878212109745E9, 0.0, 2024-03-13 20:43:41.210
13.0, -173.10687929904088, 563.5281253233552, 79.30831846036017, 420.11418172251433, 0.01600000075995922, -0.20800000987946987, 1.0400000493973494, 0.0, 0.0, 0.0, 0.0, 0.0, 1.7103878212114403E9, 0.0, 2024-03-13 20:43:41.211
13.0, -13.85819928580895, 475.3169750184752, 190.20757184643298, 364.13348923576996, 0.01600000075995922, -0.20800000987946987, 1.0400000493973494, 0.0, 0.0, 0.0, 0.0, 0.0, 1.7103878212114403E9, 0.0, 2024-03-13 20:43:41.211
14.0, -238.21666757762432, 267.2420311337337, -12.6539515000768, 581.5862322594039, 0.01600000075995922, -0.20800000987946987, 1.0400000493973494, 0.0, 0.0, 0.0, 0.0, 0.0, 1.710387821225004E9, 0.0, 2024-03-13 20:43:41.225
14.0, -73.54700257861987, 185.95156569685787, 186.0936818951741, 509.8212920096703, 0.01600000075995922, -0.20800000987946987, 1.0400000493973494, 0.0, 0.0, 0.0, 0.0, 0.0, 1.710387821225004E9, 0.0, 2024-03-13 20:43:41.225
15.0, -151.4977373550646, 241.27216584142298, 61.742008368484676, 615.3650086591952, 0.01600000075995922, -0.20800000987946987, 1.0400000493973494, 0.0, 0.0, 0.0, 0.0, 0.0, 1.7103878212408936E9, 0.0, 2024-03-13 20:43:41.240
15.0, -263.2777371807024, 301.7388683250174, -50.88320884713903, 635.2238774239086, 0.01600000075995922, -0.20800000987946987, 1.0400000493973494, 0.0, 0.0, 0.0, 0.0, 0.0, 1.7103878212408936E9, 0.0, 2024-03-13 20:43:41.240
16.0, -414.10790239367634, 400.3843395062722, -161.06440144171938, 704.3316187551245, 0.01600000075995922, -0.20800000987946987, 1.0400000493973494, 0.0, 0.0, 0.0, 0.0, 0.0, 1.710387821241577E9, 0.0, 2024-03-13 20:43:41.241
16.0, -211.38475534552708, 573.4986986052245, 30.472704838961363, 944.162053163629, 0.01600000075995922, -0.20800000987946987, 1.0400000493973494, 0.0, 0.0, 0.0, 0.0, 0.0, 1.710387821241577E9, 0.0, 2024-03-13 20:43:41.241
17.0, -371.11401250306517, 665.1935657188296, -160.840007444378, 1035.0715412865393, 0.01600000075995922, -0.20800000987946987, 1.0400000493973494, 0.0, 0.0, 0.0, 0.0, 0.0, 1.7103878212551637E9, 0.0, 2024-03-13 20:43:41.255
17.0, -298.0251476690173, 600.9458243800327, -50.50547895161435, 916.8308642874472, 0.01600000075995922, -0.20800000987946987, 1.0400000493973494, 0.0, 0.0, 0.0, 0.0, 0.0, 1.7103878212551637E9, 0.0, 2024-03-13 20:43:41.255
18.0, -167.4297111663036, 559.5114727709442, 78.26862627267838, 905.65230331989, 0.01600000075995922, -0.20800000987946987, 1.0400000493973494, 0.0, 0.0, 0.0, 0.0, 0.0, 1.7103878212706575E9, 0.0, 2024-03-13 20:43:41.270
18.0, -23.776413968298584, 466.74512432003394, 188.48347796685994, 843.3399602081627, 0.01600000075995922, -0.20800000987946987, 1.0400000493973494, 0.0, 0.0, 0.0, 0.0, 0.0, 1.7103878212706575E9, 0.0, 2024-03-13 20:43:41.270
19.0, -239.7462866595015, 266.1275409469381, -2.4776837206445634, 1082.5477012740448, 0.01600000075995922, -0.20800000987946987, 1.0400000493973494, 0.0, 0.0, 0.0, 0.0, 0.0, 1.7103878212715616E9, 0.0, 2024-03-13 20:43:41.271
19.0, -70.31572901690379, 181.4599458500743, 193.69315860513598, 997.6669318797067, 0.01600000075995922, -0.20800000987946987, 1.0400000493973494, 0.0, 0.0, 0.0, 0.0, 0.0, 1.7103878212715616E9, 0.0, 2024-03-13 20:43:41.271
20.0, -157.0552286892198, 240.40450905170292, 75.9611080000177, 1116.580790870823, 0.01600000075995922, -0.20800000987946987, 1.0400000493973494, 0.0, 0.0, 0.0, 0.0, 0.0, 1.7103878212850628E9, 0.0, 2024-03-13 20:43:41.285
20.0, -263.270257380791, 296.56658668629825, -36.09564442234114, 1128.4549732301384, 0.01600000075995922, -0.20800000987946987, 1.0400000493973494, 0.0, 0.0, 0.0, 0.0, 0.0, 1.7103878212850628E9, 0.0, 2024-03-13 20:43:41.285
21.0, -424.55344296991825, 390.78401632001624, -153.7977758278139, 1195.0794209907763, 0.01600000075995922, -0.20800000987946987, 1.0400000493973494, 0.0, 0.0, 0.0, 0.0, 0.0, 1.7103878213007956E9, 0.0, 2024-03-13 20:43:41.300
21.0, -208.1946206833236, 577.9641391523182, 43.296821787022054, 952.4047926659696, 0.01600000075995922, -0.20800000987946987, 1.0400000493973494, 0.0, 0.0, 0.0, 0.0, 0.0, 1.7103878213007956E9, 0.0, 2024-03-13 20:43:41.300
22.0, -365.30220797192305, 680.590733836405, -147.61572120105848, 1040.7300099194981, 0.01600000075995922, -0.20800000987946987, 1.0400000493973494, 0.0, 0.0, 0.0, 0.0, 0.0, 1.710387821301535E9, 0.0, 2024-03-13 20:43:41.301
22.0, -290.0703804632649, 610.3367131687701, -43.58666403358802, 921.3524033338763, 0.01600000075995922, -0.20800000987946987, 1.0400000493973494, 0.0, 0.0, 0.0, 0.0, 0.0, 1.710387821301535E9, 0.0, 2024-03-13 20:43:41.301
23.0, -182.28085389034823, 562.2789987381548, 79.67108875606209, 906.4414222105406, 0.01600000075995922, -0.20800000987946987, 1.0400000493973494, 0.0, 0.0, 0.0, 0.0, 0.0, 1.7103878213150709E9, 0.0, 2024-03-13 20:43:41.315
23.0, -19.16137742297724, 469.48273108759895, 186.99873768445104, 844.3347735963762, 0.01600000075995922, -0.20800000987946987, 1.0400000493973494, 0.0, 0.0, 0.0, 0.0, 0.0, 1.7103878213150709E9, 0.0, 2024-03-13 20:43:41.315
24.0, -238.34756407607347, 269.4597918074578, -4.586987295653671, 1081.6389055848122, 0.01600000075995922, -0.20800000987946987, 1.0400000493973494, 0.0, 0.0, 0.0, 0.0, 0.0, 1.7103878213308983E9, 0.0, 2024-03-13 20:43:41.330
24.0, -66.31403606431559, 188.25160416960716, 190.77229673974216, 1004.5072088986635, 0.01600000075995922, -0.20800000987946987, 1.0400000493973494, 0.0, 0.0, 0.0, 0.0, 0.0, 1.7103878213308983E9, 0.0, 2024-03-13 20:43:41.330
25.0, -156.6812386936508, 236.1896418016404, 61.66721036937088, 1105.0207601077855, 0.01600000075995922, -0.20800000987946987, 1.0400000493973494, 0.0, 0.0, 0.0, 0.0, 0.0, 1.7103878213314743E9, 0.0, 2024-03-13 20:43:41.331
25.0, -264.7998764626682, 290.8146205544472, -53.29170441860333, 1118.147808952257, 0.01600000075995922, -0.20800000987946987, 1.0400000493973494, 0.0, 0.0, 0.0, 0.0, 0.0, 1.7103878213314743E9, 0.0, 2024-03-13 20:43:41.331
26.0, -422.76951069105417, 396.9174522473477, -164.96137719554827, 1192.8130416176282, 0.01600000075995922, -0.20800000987946987, 1.0400000493973494, 0.0, 0.0, 0.0, 0.0, 0.0, 1.7103878213454285E9, 0.0, 2024-03-13 20:43:41.345
26.0, -211.39223514543846, 576.6738736676052, 18.04127738624811, 1423.6228373330086, 0.01600000075995922, -0.20800000987946987, 1.0400000493973494, 0.0, 0.0, 0.0, 0.0, 0.0, 1.7103878213454285E9, 0.0, 2024-03-13 20:43:41.345
27.0, -372.1125657912344, 675.8560204925016, -168.40956495469436, 1517.5317252203822, 0.01600000075995922, -0.20800000987946987, 1.0400000493973494, 0.0, 0.0, 0.0, 0.0, 0.0, 1.7103878213608432E9, 0.0, 2024-03-13 20:43:41.360
27.0, -293.9486567173153, 607.7748816991225, -58.16479406086728, 1401.003922400996, 0.01600000075995922, -0.20800000987946987, 1.0400000493973494, 0.0, 0.0, 0.0, 0.0, 0.0, 1.7103878213608432E9, 0.0, 2024-03-13 20:43:41.360
28.0, -191.2229546844028, 559.3244777731597, 62.4002307606861, 1387.510363360867, 0.01600000075995922, -0.20800000987946987, 1.0400000493973494, 0.0, 0.0, 0.0, 0.0, 0.0, 1.7103878213615856E9, 0.0, 2024-03-13 20:43:41.361
28.0, -18.989342025015503, 470.3915267768316, 182.61183503642678, 1337.5995285022072, 0.01600000075995922, -0.20800000987946987, 1.0400000493973494, 0.0, 0.0, 0.0, 0.0, 0.0, 1.7103878213615856E9, 0.0, 2024-03-13 20:43:41.361
29.0, -222.90551715902984, 282.0669945580885, 1.7184840296395123, 1580.65936652245, 0.01600000075995922, -0.20800000987946987, 1.0400000493973494, 0.0, 0.0, 0.0, 0.0, 0.0, 1.7103878213750257E9, 0.0, 2024-03-13 20:43:41.375
29.0, -66.8264023582451, 188.80884926300496, 189.28381655737758, 1495.838435527403, 0.01600000075995922, -0.20800000987946987, 1.0400000493973494, 0.0, 0.0, 0.0, 0.0, 0.0, 1.7103878213750257E9, 0.0, 2024-03-13 20:43:41.375
30.0, -166.15814518136904, 232.3338049473241, 61.6223315699026, 1595.7124638441019, 0.01600000075995922, -0.20800000987946987, 1.0400000493973494, 0.0, 0.0, 0.0, 0.0, 0.0, 1.7103878213907397E9, 0.0, 2024-03-13 20:43:41.390
30.0, -264.1715732701123, 295.2501419018954, -42.659168844576925, 1618.155603478197, 0.01600000075995922, -0.20800000987946987, 1.0400000493973494, 0.0, 0.0, 0.0, 0.0, 0.0, 1.7103878213907397E9, 0.0, 2024-03-13 20:43:41.390
31.0, -415.6412613755092, 391.99948380561545, -163.203624216374, 1688.1272616991773, 0.01600000075995922, -0.20800000987946987, 1.0400000493973494, 0.0, 0.0, 0.0, 0.0, 0.0, 1.7103878213914332E9, 0.0, 2024-03-13 20:43:41.391
31.0, -211.79614434065297, 579.8827078295872, 21.425886846147478, 1925.83343293285, 0.01600000075995922, -0.20800000987946987, 1.0400000493973494, 0.0, 0.0, 0.0, 0.0, 0.0, 1.7103878213914332E9, 0.0, 2024-03-13 20:43:41.391
32.0, -368.23054963722825, 673.1894718240947, -169.84568653767928, 2013.7098621916957, 0.01600000075995922, -0.20800000987946987, 1.0400000493973494, 0.0, 0.0, 0.0, 0.0, 0.0, 1.7103878214049497E9, 0.0, 2024-03-13 20:43:41.404
32.0, -296.04674059245735, 609.457836679183, -51.38435544120148, 1900.3160955351777, 0.01600000075995922, -0.20800000987946987, 1.0400000493973494, 0.0, 0.0, 0.0, 0.0, 0.0, 1.7103878214049497E9, 0.0, 2024-03-13 20:43:41.404
33.0, -169.60259304055944, 568.438613965176, 77.41592908278108, 1896.4565187809058, 0.01600000075995922, -0.20800000987946987, 1.0400000493973494, 0.0, 0.0, 0.0, 0.0, 0.0, 1.7103878214206464E9, 0.0, 2024-03-13 20:43:41.420
33.0, -34.05365904653445, 463.67092655645683, 177.20393970049918, 1819.3678309442475, 0.01600000075995922, -0.20800000987946987, 1.0400000493973494, 0.0, 0.0, 0.0, 0.0, 0.0, 1.7103878214206464E9, 0.0, 2024-03-13 20:43:41.420
34.0, -243.69562101271003, 264.2089722696692, -15.208303169813007, 2054.3681845599785, 0.01600000075995922, -0.20800000987946987, 1.0400000493973494, 0.0, 0.0, 0.0, 0.0, 0.0, 1.7103878214214728E9, 0.0, 2024-03-13 20:43:41.421
34.0, -75.6862253532745, 185.29708320461214, 182.39866073895246, 1982.5247064111754, 0.01600000075995922, -0.20800000987946987, 1.0400000493973494, 0.0, 0.0, 0.0, 0.0, 0.0, 1.7103878214214728E9, 0.0, 2024-03-13 20:43:41.421
35.0, -159.1346130645834, 241.17866834253073, 54.482862554490566, 2085.3794349925593, 0.01600000075995922, -0.20800000987946987, 1.0400000493973494, 0.0, 0.0, 0.0, 0.0, 0.0, 1.7103878214350803E9, 0.0, 2024-03-13 20:43:41.435
35.0, -269.40369330812246, 291.962769840844, -59.42888024589047, 2096.610354559496, 0.01600000075995922, -0.20800000987946987, 1.0400000493973494, 0.0, 0.0, 0.0, 0.0, 0.0, 1.7103878214350803E9, 0.0, 2024-03-13 20:43:41.435
36.0, -418.5658631408587, 392.945678494405, -170.08878003479913, 2175.800866171252, 0.01600000075995922, -0.20800000987946987, 1.0400000493973494, 0.0, 0.0, 0.0, 0.0, 0.0, 1.7103878214509354E9, 0.0, 2024-03-13 20:43:41.450
36.0, -217.92584036802873, 567.4811995765194, 8.743886096403003, 2399.8190035670996, 0.01600000075995922, -0.20800000987946987, 1.0400000493973494, 0.0, 0.0, 0.0, 0.0, 0.0, 1.7103878214509354E9, 0.0, 2024-03-13 20:43:41.450
37.0, -375.2877408536151, 670.074135161005, -173.49582889443263, 2498.443905298598, 0.01600000075995922, -0.20800000987946987, 1.0400000493973494, 0.0, 0.0, 0.0, 0.0, 0.0, 1.7103878214514396E9, 0.0, 2024-03-13 20:43:41.451
37.0, -296.9256170820445, 616.3691717972979, -50.1539283557795, 2396.1426819106564, 0.01600000075995922, -0.20800000987946987, 1.0400000493973494, 0.0, 0.0, 0.0, 0.0, 0.0, 1.7103878214514396E9, 0.0, 2024-03-13 20:43:41.451
38.0, -164.6846245988272, 571.3370364308357, 74.60726421605796, 2384.231100551784, 0.01600000075995922, -0.20800000987946987, 1.0400000493973494, 0.0, 0.0, 0.0, 0.0, 0.0, 1.710387821464984E9, 0.0, 2024-03-13 20:43:41.464
38.0, -44.74603301985189, 466.99195771710947, 185.63367420062423, 2322.640558131505, 0.01600000075995922, -0.20800000987946987, 1.0400000493973494, 0.0, 0.0, 0.0, 0.0, 0.0, 1.710387821464984E9, 0.0, 2024-03-13 20:43:41.464
39.0, -229.71587497834116, 280.4027390778065, 6.311081175226718, 2567.697502728086, 0.01600000075995922, -0.20800000987946987, 1.0400000493973494, 0.0, 0.0, 0.0, 0.0, 0.0, 1.7103878214807353E9, 0.0, 2024-03-13 20:43:41.480
39.0, -62.58161590853706, 204.1760981809348, 210.26839520875365, 2499.182535539847, 0.01600000075995922, -0.20800000987946987, 1.0400000493973494, 0.0, 0.0, 0.0, 0.0, 0.0, 1.7103878214807353E9, 0.0, 2024-03-13 20:43:41.480
40.0, -150.37202746840194, 250.4124813331291, 83.83359740674496, 2600.8591956351884, 0.01600000075995922, -0.20800000987946987, 1.0400000493973494, 0.0, 0.0, 0.0, 0.0, 0.0, 1.7103878214814315E9, 0.0, 2024-03-13 20:43:41.481
40.0, -259.4518195260316, 302.16521691996604, -35.62441702792421, 2612.7034587948583, 0.01600000075995922, -0.20800000987946987, 1.0400000493973494, 0.0, 0.0, 0.0, 0.0, 0.0, 1.7103878214814315E9, 0.0, 2024-03-13 20:43:41.481
41.0, -420.69386621564627, 401.67460499098524, -153.84639452723786, 2680.558333640918, 0.01600000075995922, -0.20800000987946987, 1.0400000493973494, 0.0, 0.0, 0.0, 0.0, 0.0, 1.7103878214953709E9, 0.0, 2024-03-13 20:43:41.495
41.0, -225.641253976617, 579.9051472293213, 29.7546440474689, 2909.7300531757064, 0.01600000075995922, -0.20800000987946987, 1.0400000493973494, 0.0, 0.0, 0.0, 0.0, 0.0, 1.7103878214953709E9, 0.0, 2024-03-13 20:43:41.495
42.0, -363.74266969040036, 677.2173440763727, -159.11965346476063, 3002.636647874955, 0.01600000075995922, -0.20800000987946987, 1.0400000493973494, 0.0, 0.0, 0.0, 0.0, 0.0, 1.7103878215109937E9, 0.0, 2024-03-13 20:43:41.510
42.0, -296.9517963817343, 611.9822691492736, -45.77824540762231, 2887.0774791440926, 0.01600000075995922, -0.20800000987946987, 1.0400000493973494, 0.0, 0.0, 0.0, 0.0, 0.0, 1.7103878215109937E9, 0.0, 2024-03-13 20:43:41.510
43.0, -176.79816055530682, 558.296005285345, 71.1441168570891, 2868.6360324625857, 0.01600000075995922, -0.20800000987946987, 1.0400000493973494, 0.0, 0.0, 0.0, 0.0, 0.0, 1.7103878215117228E9, 0.0, 2024-03-13 20:43:41.511
43.0, -20.130011511500925, 473.33108814200386, 188.77893006335944, 2811.477271489799, 0.01600000075995922, -0.20800000987946987, 1.0400000493973494, 0.0, 0.0, 0.0, 0.0, 0.0, 1.7103878215117228E9, 0.0, 2024-03-13 20:43:41.511
44.0, -229.68595577869564, 274.317921849899, -7.601346659939736, 3044.102788633667, 0.01600000075995922, -0.20800000987946987, 1.0400000493973494, 0.0, 0.0, 0.0, 0.0, 0.0, 1.7103878215249774E9, 0.0, 2024-03-13 20:43:41.524
44.0, -75.51792985526845, 191.20986503455788, 182.70159263536334, 2961.907267407514, 0.01600000075995922, -0.20800000987946987, 1.0400000493973494, 0.0, 0.0, 0.0, 0.0, 0.0, 1.7103878215249774E9, 0.0, 2024-03-13 20:43:41.524
45.0, -158.2819158746861, 234.76473991852254, 52.19404378160834, 3060.1581791434437, 0.01600000075995922, -0.20800000987946987, 1.0400000493973494, 0.0, 0.0, 0.0, 0.0, 0.0, 1.710387821540724E9, 0.0, 2024-03-13 20:43:41.540
45.0, -267.9488722253591, 294.591919509694, -56.28362438315526, 3079.886151409708, 0.01600000075995922, -0.20800000987946987, 1.0400000493973494, 0.0, 0.0, 0.0, 0.0, 0.0, 1.710387821540724E9, 0.0, 2024-03-13 20:43:41.540
46.0, -416.17606706917286, 394.77448957273737, -167.53442836506292, 3156.2605183548294, 0.01600000075995922, -0.20800000987946987, 1.0400000493973494, 0.0, 0.0, 0.0, 0.0, 0.0, 1.7103878215414462E9, 0.0, 2024-03-13 20:43:41.541
46.0, -222.35388191556558, 571.8718421244994, 15.943193511106074, 3384.6767780985683, 0.01600000075995922, -0.20800000987946987, 1.0400000493973494, 0.0, 0.0, 0.0, 0.0, 0.0, 1.7103878215414462E9, 0.0, 2024-03-13 20:43:41.541
47.0, -378.4105573166162, 674.861207104288, -171.1322121224366, 3484.663003413938, 0.01600000075995922, -0.20800000987946987, 1.0400000493973494, 0.0, 0.0, 0.0, 0.0, 0.0, 1.7103878215549965E9, 0.0, 2024-03-13 20:43:41.554
47.0, -250.3825621334836, 620.299806650728, -51.99769903393462, 3374.781002815813, 0.01600000075995922, -0.20800000987946987, 1.0400000493973494, 0.0, 0.0, 0.0, 0.0, 0.0, 1.7103878215549965E9, 0.0, 2024-03-13 20:43:41.554
48.0, -168.49932255363092, 569.2651318553835, 73.28707953169942, 3359.2155392002314, 0.01600000075995922, -0.20800000987946987, 1.0400000493973494, 0.0, 0.0, 0.0, 0.0, 0.0, 1.7103878215706897E9, 0.0, 2024-03-13 20:43:41.570
48.0, -20.866771802771837, 468.3981601004489, 181.6432009479031, 3296.0280594988726, 0.01600000075995922, -0.20800000987946987, 1.0400000493973494, 0.0, 0.0, 0.0, 0.0, 0.0, 1.7103878215706897E9, 0.0, 2024-03-13 20:43:41.570
49.0, -229.4391223816201, 279.4341049892828, -0.2898422465659678, 3537.330144539941, 0.01600000075995922, -0.20800000987946987, 1.0400000493973494, 0.0, 0.0, 0.0, 0.0, 0.0, 1.7103878215714276E9, 0.0, 2024-03-13 20:43:41.571
49.0, -56.8221699767746, 197.10020746476948, 193.27054991014302, 3460.2732458529063, 0.01600000075995922, -0.20800000987946987, 1.0400000493973494, 0.0, 0.0, 0.0, 0.0, 0.0, 1.7103878215714276E9, 0.0, 2024-03-13 20:43:41.571
50.0, -148.2028854941018, 256.32900306303054, 73.702208426781, 3570.331021748949, 0.01600000075995922, -0.20800000987946987, 1.0400000493973494, 0.0, 0.0, 0.0, 0.0, 0.0, 1.7103878215849905E9, 0.0, 2024-03-13 20:43:41.584
50.0, -254.900361279957, 315.1090106666088, -37.397129606921226, 3595.9642960452475, 0.01600000075995922, -0.20800000987946987, 1.0400000493973494, 0.0, 0.0, 0.0, 0.0, 0.0, 1.7103878215849905E9, 0.0, 2024-03-13 20:43:41.584
51.0, -411.54981082398444, 412.75218865973875, -146.7144053117372, 3670.034884617664, 0.01600000075995922, -0.20800000987946987, 1.0400000493973494, 0.0, 0.0, 0.0, 0.0, 0.0, 1.7103878216006963E9, 0.0, 2024-03-13 20:43:41.600
51.0, -209.4474871684797, 584.2696104776114, 41.53158900793642, 3898.3127680630423, 0.01600000075995922, -0.20800000987946987, 1.0400000493973494, 0.0, 0.0, 0.0, 0.0, 0.0, 1.7103878216006963E9, 0.0, 2024-03-13 20:43:41.600
52.0, -359.89057273603976, 683.76216899883, -152.9787377375178, 3994.065426628571, 0.01600000075995922, -0.20800000987946987, 1.0400000493973494, 0.0, 0.0, 0.0, 0.0, 0.0, 1.7103878216014488E9, 0.0, 2024-03-13 20:43:41.601
52.0, -297.1051322799176, 618.2428616750985, -42.75266634346917, 3872.4737992691807, 0.01600000075995922, -0.20800000987946987, 1.0400000493973494, 0.0, 0.0, 0.0, 0.0, 0.0, 1.7103878216014488E9, 0.0, 2024-03-13 20:43:41.601
53.0, -171.77547491481528, 568.8836620599031, 78.43692177068442, 3858.602510333527, 0.01600000075995922, -0.20800000987946987, 1.0400000493973494, 0.0, 0.0, 0.0, 0.0, 0.0, 1.7103878216154947E9, 0.0, 2024-03-13 20:43:41.615
53.0, -30.063185793813318, 464.29548984905705, 177.33109629899263, 3785.5828336486593, 0.01600000075995922, -0.20800000987946987, 1.0400000493973494, 0.0, 0.0, 0.0, 0.0, 0.0, 1.7103878216154947E9, 0.0, 2024-03-13 20:43:41.615
54.0, -238.57195807341486, 273.8279949557036, -14.995128872338682, 4023.2459960328415, 0.01600000075995922, -0.20800000987946987, 1.0400000493973494, 0.0, 0.0, 0.0, 0.0, 0.0, 1.7103878216306772E9, 0.0, 2024-03-13 20:43:41.630
54.0, -63.93171979254112, 201.689064710401, 185.65611360035837, 3948.141325122677, 0.01600000075995922, -0.20800000987946987, 1.0400000493973494, 0.0, 0.0, 0.0, 0.0, 0.0, 1.7103878216306772E9, 0.0, 2024-03-13 20:43:41.630
55.0, -162.8333741207607, 235.0751516148448, 48.465363525785506, 4039.2041491437703, 0.01600000075995922, -0.20800000987946987, 1.0400000493973494, 0.0, 0.0, 0.0, 0.0, 0.0, 1.710387821631419E9, 0.0, 2024-03-13 20:43:41.631
55.0, -278.10644050501287, 297.5875793742016, -64.46278558624908, 4055.128643155098, 0.01600000075995922, -0.20800000987946987, 1.0400000493973494, 0.0, 0.0, 0.0, 0.0, 0.0, 1.710387821631419E9, 0.0, 2024-03-13 20:43:41.631
56.0, -409.5265249479562, 405.44816404627636, -172.26914170896634, 4134.068581469823, 0.01600000075995922, -0.20800000987946987, 1.0400000493973494, 0.0, 0.0, 0.0, 0.0, 0.0, 1.71038782164519E9, 0.0, 2024-03-13 20:43:41.645
56.0, -217.24891847604886, 576.1951664732769, 13.66185453813523, 4369.30641873274, 0.01600000075995922, -0.20800000987946987, 1.0400000493973494, 0.0, 0.0, 0.0, 0.0, 0.0, 1.71038782164519E9, 0.0, 2024-03-13 20:43:41.645
57.0, -368.78779473062605, 686.1706645702943, -168.11411285819486, 4469.86484874133, 0.01600000075995922, -0.20800000987946987, 1.0400000493973494, 0.0, 0.0, 0.0, 0.0, 0.0, 1.7103878216607249E9, 0.0, 2024-03-13 20:43:41.660
57.0, -295.8896647943184, 621.3394988384098, -53.6357752145268, 4349.941216762178, 0.01600000075995922, -0.20800000987946987, 1.0400000493973494, 0.0, 0.0, 0.0, 0.0, 0.0, 1.7103878216607249E9, 0.0, 2024-03-13 20:43:41.660
58.0, -176.7271024561487, 562.5482715349644, 71.98185444716364, 4336.37659962289, 0.01600000075995922, -0.20800000987946987, 1.0400000493973494, 0.0, 0.0, 0.0, 0.0, 0.0, 1.7103878216614237E9, 0.0, 2024-03-13 20:43:41.661
58.0, -31.873297372367233, 461.1614536861889, 176.53449760843068, 4266.883648596238, 0.01600000075995922, -0.20800000987946987, 1.0400000493973494, 0.0, 0.0, 0.0, 0.0, 0.0, 1.7103878216614237E9, 0.0, 2024-03-13 20:43:41.661
59.0, -227.58039210364223, 278.92921849526465, 0.16642554802820086, 4031.440116835758, 0.01600000075995922, -0.20800000987946987, 1.0400000493973494, 0.0, 0.0, 0.0, 0.0, 0.0, 1.7103878216751747E9, 0.0, 2024-03-13 20:43:41.675
59.0, -65.55109647335485, 193.6520197056234, 198.59990734700114, 3957.4087972128764, 0.01600000075995922, -0.20800000987946987, 1.0400000493973494, 0.0, 0.0, 0.0, 0.0, 0.0, 1.7103878216751747E9, 0.0, 2024-03-13 20:43:41.675
60.0, -150.0541359721683, 232.46844134572893, 76.39493639487773, 4054.889289557934, 0.01600000075995922, -0.20800000987946987, 1.0400000493973494, 0.0, 0.0, 0.0, 0.0, 0.0, 1.710387821690786E9, 0.0, 2024-03-13 20:43:41.690
60.0, -273.4988837596029, 295.3585990006104, -36.581831416580826, 4076.7003860995173, 0.01600000075995922, -0.20800000987946987, 1.0400000493973494, 0.0, 0.0, 0.0, 0.0, 0.0, 1.710387821690786E9, 0.0, 2024-03-13 20:43:41.690
61.0, -413.8722886964679, 407.0675407270901, -145.55129642551765, 4160.083325561602, 0.01600000075995922, -0.19200000911951065, 1.0400000493973494, 0.0, 0.0, 0.0, 0.0, 0.0, 1.7103878216913981E9, 0.0, 2024-03-13 20:43:41.691
61.0, -215.6033624955453, 574.9236004883423, 40.94816461484879, 4385.724579538219, 0.01600000075995922, -0.19200000911951065, 1.0400000493973494, 0.0, 0.0, 0.0, 0.0, 0.0, 1.7103878216913981E9, 0.0, 2024-03-13 20:43:41.691
62.0, -369.5918732210994, 680.7253702348098, -146.74058461142704, 4480.994791009463, 0.01600000075995922, -0.19200000911951065, 1.0400000493973494, 0.0, 0.0, 0.0, 0.0, 0.0, 1.7103878217050743E9, 0.0, 2024-03-13 20:43:41.705
62.0, -289.9806228643283, 624.701668898575, -33.87414384866133, 4368.9137292373925, 0.01600000075995922, -0.19200000911951065, 1.0400000493973494, 0.0, 0.0, 0.0, 0.0, 0.0, 1.7103878217050743E9, 0.0, 2024-03-13 20:43:41.705
63.0, -170.36553263152018, 571.0004454348236, 82.98464011680335, 4345.419677715749, 0.01600000075995922, -0.19200000911951065, 1.0400000493973494, 0.0, 0.0, 0.0, 0.0, 0.0, 1.7103878217209976E9, 0.0, 2024-03-13 20:43:41.720
63.0, -32.53525966452435, 465.47355833509937, 188.54331636615098, 4277.041216875892, 0.01600000075995922, -0.19200000911951065, 1.0400000493973494, 0.0, 0.0, 0.0, 0.0, 0.0, 1.7103878217209976E9, 0.0, 2024-03-13 20:43:41.720
64.0, -238.4485413748771, 277.7623697090894, -1.1948980358429253, 4032.2292357264087, 0.01600000075995922, -0.19200000911951065, 1.0400000493973494, 0.0, 0.0, 0.0, 0.0, 0.0, 1.710387821721518E9, 0.0, 2024-03-13 20:43:41.721
64.0, -66.96851855656132, 200.84758722037077, 197.77712935674936, 3956.241948426701, 0.01600000075995922, -0.19200000911951065, 1.0400000493973494, 0.0, 0.0, 0.0, 0.0, 0.0, 1.710387821721518E9, 0.0, 2024-03-13 20:43:41.721
65.0, -153.40134643251076, 238.35130397602916, 63.85879174340516, 4051.257846700959, 0.01600000075995922, -0.19200000911951065, 1.0400000493973494, 0.0, 0.0, 0.0, 0.0, 0.0, 1.7103878217350829E9, 0.0, 2024-03-13 20:43:41.735
65.0, -261.1908730054274, 299.9885951457545, -54.14066170854494, 4072.747311846353, 0.01600000075995922, -0.19200000911951065, 1.0400000493973494, 0.0, 0.0, 0.0, 0.0, 0.0, 1.7103878217350829E9, 0.0, 2024-03-13 20:43:41.735
66.0, -419.17920673359185, 410.7700416832231, -172.51597510604188, 4144.678677644115, 0.01600000075995922, -0.19200000911951065, 1.0400000493973494, 0.0, 0.0, 0.0, 0.0, 0.0, 1.7103878217509563E9, 0.0, 2024-03-13 20:43:41.750
66.0, -208.03754488518462, 584.4304261757061, 16.16384760849178, 4374.119669975713, 0.01600000075995922, -0.19200000911951065, 1.0400000493973494, 0.0, 0.0, 0.0, 0.0, 0.0, 1.7103878217509563E9, 0.0, 2024-03-13 20:43:41.750
67.0, -374.08349306788296, 681.9109185207635, -177.93135024188086, 4466.128688685596, 0.01600000075995922, -0.19200000911951065, 1.0400000493973494, 0.0, 0.0, 0.0, 0.0, 0.0, 1.7103878217516046E9, 0.0, 2024-03-13 20:43:41.751
